Unit:(mV)
                     CH1
Frequency     98.094 kHz
00001           -1760.00
00002           -1840.00
00003           -1840.00
00004           -1840.00
00005           -1840.00
00006           -2000.00
00007           -2080.00
00008           -2080.00
00009           -2000.00
00010           -2080.00
00011           -2080.00
00012           -2160.00
00013           -2160.00
00014           -2240.00
00015           -2240.00
00016           -2320.00
00017           -2320.00
00018           -2400.00
00019           -2400.00
00020           -2480.00
00021           -2480.00
00022           -2480.00
00023           -2480.00
00024           -2560.00
00025           -2640.00
00026           -2640.00
00027           -2720.00
00028           -2720.00
00029           -2720.00
00030           -2800.00
00031           -2800.00
00032           -2800.00
00033           -2800.00
00034           -2960.00
00035           -2960.00
00036           -2960.00
00037           -2960.00
00038           -2960.00
00039           -3040.00
00040           -3120.00
00041           -3040.00
00042           -3120.00
00043           -3200.00
00044           -3120.00
00045           -3280.00
00046           -3280.00
00047           -3280.00
00048           -3360.00
00049           -3280.00
00050           -3440.00
00051           -3440.00
00052           -3440.00
00053           -3440.00
00054           -3440.00
00055           -3600.00
00056           -3600.00
00057           -3600.00
00058           -3600.00
00059           -3600.00
00060           -3680.00
00061           -3680.00
00062           -3680.00
00063           -3760.00
00064           -3760.00
00065           -3760.00
00066           -3840.00
00067           -3840.00
00068           -3840.00
00069           -3840.00
00070           -4000.00
00071           -3920.00
00072           -3920.00
00073           -4000.00
00074           -4080.00
00075           -4080.00
00076           -4080.00
00077           -4080.00
00078           -4080.00
00079           -4080.00
00080           -4160.00
00081           -4080.00
00082           -4240.00
00083           -4240.00
00084           -4320.00
00085           -4240.00
00086           -4320.00
00087           -4320.00
00088           -4400.00
00089           -4320.00
00090           -4400.00
00091           -4400.00
00092           -4400.00
00093           -4400.00
00094           -4560.00
00095           -4560.00
00096           -4560.00
00097           -4640.00
00098           -4640.00
00099           -4640.00
00100           -4640.00
00101           -4720.00
00102           -4720.00
00103           -4720.00
00104           -4720.00
00105           -4720.00
00106           -4720.00
00107           -4800.00
00108           -4880.00
00109           -4880.00
00110           -4720.00
00111           -4880.00
00112           -4960.00
00113           -4960.00
00114           -4960.00
00115           -4960.00
00116           -4960.00
00117           -4960.00
00118           -4960.00
00119           -5040.00
00120           -5040.00
00121           -5040.00
00122           -5040.00
00123           -5040.00
00124           -5040.00
00125           -5120.00
00126           -5120.00
00127           -5040.00
00128           -5200.00
00129           -5200.00
00130           -5280.00
00131           -5200.00
00132           -5280.00
00133           -5280.00
00134           -5280.00
00135           -5280.00
00136           -5360.00
00137           -5280.00
00138           -5360.00
00139           -5360.00
00140           -5360.00
00141           -5360.00
00142           -5360.00
00143           -5360.00
00144           -5360.00
00145           -5360.00
00146           -5360.00
00147           -5440.00
00148           -5440.00
00149           -5360.00
00150           -5520.00
00151           -5520.00
00152           -5440.00
00153           -5520.00
00154           -5520.00
00155           -5520.00
00156           -5520.00
00157           -5600.00
00158           -5600.00
00159           -5520.00
00160           -5600.00
00161           -5600.00
00162           -5600.00
00163           -5600.00
00164           -5680.00
00165           -5600.00
00166           -5600.00
00167           -5600.00
00168           -5600.00
00169           -5600.00
00170           -5680.00
00171           -5680.00
00172           -5600.00
00173           -5680.00
00174           -5680.00
00175           -5680.00
00176           -5680.00
00177           -5840.00
00178           -5760.00
00179           -5680.00
00180           -5680.00
00181           -5680.00
00182           -5760.00
00183           -5840.00
00184           -5840.00
00185           -5680.00
00186           -5840.00
00187           -5760.00
00188           -5680.00
00189           -5760.00
00190           -5760.00
00191           -5840.00
00192           -5760.00
00193           -5760.00
00194           -5840.00
00195           -5840.00
00196           -5840.00
00197           -5840.00
00198           -5760.00
00199           -5840.00
00200           -5680.00
00201           -5840.00
00202           -5840.00
00203           -5760.00
00204           -5840.00
00205           -5680.00
00206           -5840.00
00207           -5760.00
00208           -5840.00
00209           -5840.00
00210           -5760.00
00211           -5840.00
00212           -5840.00
00213           -5840.00
00214           -5680.00
00215           -5760.00
00216           -5760.00
00217           -5680.00
00218           -5840.00
00219           -5680.00
00220           -5680.00
00221           -5840.00
00222           -5680.00
00223           -5840.00
00224           -5760.00
00225           -5680.00
00226           -5760.00
00227           -5680.00
00228           -5680.00
00229           -5680.00
00230           -5680.00
00231           -5680.00
00232           -5680.00
00233           -5680.00
00234           -5680.00
00235           -5680.00
00236           -5680.00
00237           -5680.00
00238           -5680.00
00239           -5600.00
00240           -5680.00
00241           -5680.00
00242           -5600.00
00243           -5600.00
00244           -5600.00
00245           -5600.00
00246           -5600.00
00247           -5600.00
00248           -5600.00
00249           -5600.00
00250           -5600.00
00251           -5520.00
00252           -5520.00
00253           -5600.00
00254           -5520.00
00255           -5520.00
00256           -5520.00
00257           -5440.00
00258           -5440.00
00259           -5360.00
00260           -5360.00
00261           -5360.00
00262           -5360.00
00263           -5360.00
00264           -5360.00
00265           -5360.00
00266           -5360.00
00267           -5360.00
00268           -5360.00
00269           -5280.00
00270           -5280.00
00271           -5280.00
00272           -5280.00
00273           -5280.00
00274           -5280.00
00275           -5280.00
00276           -5200.00
00277           -5200.00
00278           -5200.00
00279           -5200.00
00280           -5200.00
00281           -5120.00
00282           -5040.00
00283           -5040.00
00284           -5040.00
00285           -5040.00
00286           -5040.00
00287           -4960.00
00288           -5040.00
00289           -5040.00
00290           -4960.00
00291           -4960.00
00292           -4960.00
00293           -4960.00
00294           -4880.00
00295           -4960.00
00296           -4960.00
00297           -4880.00
00298           -4880.00
00299           -4800.00
00300           -4720.00
00301           -4720.00
00302           -4800.00
00303           -4720.00
00304           -4720.00
00305           -4640.00
00306           -4640.00
00307           -4640.00
00308           -4640.00
00309           -4640.00
00310           -4560.00
00311           -4560.00
00312           -4560.00
00313           -4560.00
00314           -4560.00
00315           -4480.00
00316           -4480.00
00317           -4400.00
00318           -4400.00
00319           -4400.00
00320           -4320.00
00321           -4320.00
00322           -4240.00
00323           -4320.00
00324           -4240.00
00325           -4320.00
00326           -4240.00
00327           -4240.00
00328           -4080.00
00329           -4080.00
00330           -4080.00
00331           -4080.00
00332           -4080.00
00333           -4080.00
00334           -4000.00
00335           -4000.00
00336           -3920.00
00337           -4000.00
00338           -3920.00
00339           -3920.00
00340           -3840.00
00341           -3920.00
00342           -3760.00
00343           -3680.00
00344           -3760.00
00345           -3680.00
00346           -3680.00
00347           -3680.00
00348           -3600.00
00349           -3600.00
00350           -3600.00
00351           -3440.00
00352           -3440.00
00353           -3600.00
00354           -3440.00
00355           -3440.00
00356           -3440.00
00357           -3360.00
00358           -3440.00
00359           -3360.00
00360           -3360.00
00361           -3360.00
00362           -3360.00
00363           -3280.00
00364           -3280.00
00365           -3280.00
00366           -3120.00
00367           -3120.00
00368           -3040.00
00369           -3040.00
00370           -3040.00
00371           -3040.00
00372           -2960.00
00373           -2960.00
00374           -2880.00
00375           -2800.00
00376           -2800.00
00377           -2800.00
00378           -2800.00
00379           -2720.00
00380           -2720.00
00381           -2720.00
00382           -2640.00
00383           -2640.00
00384           -2560.00
00385           -2560.00
00386           -2560.00
00387           -2480.00
00388           -2480.00
00389           -2400.00
00390           -2400.00
00391           -2400.00
00392           -2400.00
00393           -2320.00
00394           -2320.00
00395           -2160.00
00396           -2160.00
00397           -2160.00
00398           -2080.00
00399           -2080.00
00400           -2080.00
00401           -2000.00
00402           -2000.00
00403           -1840.00
00404           -2000.00
00405           -1840.00
00406           -1840.00
00407           -1760.00
00408           -1760.00
00409           -1760.00
00410           -1680.00
00411           -1680.00
00412           -1680.00
00413           -1600.00
00414           -1520.00
00415           -1520.00
00416           -1520.00
00417           -1520.00
00418           -1440.00
00419           -1440.00
00420           -1440.00
00421           -1360.00
00422           -1360.00
00423           -1360.00
00424           -1200.00
00425           -1200.00
00426           -1200.00
00427           -1120.00
00428           -1120.00
00429           -1120.00
00430           -1120.00
00431           -1040.00
00432           -1040.00
00433            -880.00
00434            -880.00
00435            -880.00
00436            -880.00
00437            -800.00
00438            -880.00
00439            -720.00
00440            -720.00
00441            -720.00
00442            -640.00
00443            -560.00
00444            -560.00
00445            -480.00
00446            -480.00
00447            -480.00
00448            -400.00
00449            -400.00
00450            -400.00
00451            -240.00
00452            -240.00
00453            -240.00
00454            -240.00
00455            -160.00
00456            -160.00
00457             -80.00
00458               0.00
00459             -80.00
00460              80.00
00461              80.00
00462              80.00
00463             160.00
00464             160.00
00465             160.00
00466             160.00
00467             240.00
00468             240.00
00469             400.00
00470             400.00
00471             400.00
00472             400.00
00473             400.00
00474             480.00
00475             560.00
00476             560.00
00477             560.00
00478             560.00
00479             720.00
00480             800.00
00481             800.00
00482             800.00
00483             800.00
00484             880.00
00485             880.00
00486            1040.00
00487            1040.00
00488            1040.00
00489            1040.00
00490            1040.00
00491            1120.00
00492            1120.00
00493            1120.00
00494            1200.00
00495            1200.00
00496            1360.00
00497            1360.00
00498            1360.00
00499            1440.00
00500            1440.00
00501            1440.00
00502            1440.00
00503            1520.00
00504            1600.00
00505            1680.00
00506            1600.00
00507            1680.00
00508            1680.00
00509            1760.00
00510            1760.00
00511            1760.00
00512            1760.00
00513            1840.00
00514            1840.00
00515            1920.00
00516            2000.00
00517            2080.00
00518            2080.00
00519            2080.00
00520            2080.00
00521            2160.00
00522            2160.00
00523            2240.00
00524            2320.00
00525            2320.00
00526            2320.00
00527            2400.00
00528            2400.00
00529            2400.00
00530            2480.00
00531            2560.00
00532            2560.00
00533            2640.00
00534            2640.00
00535            2640.00
00536            2640.00
00537            2720.00
00538            2720.00
00539            2720.00
00540            2800.00
00541            2800.00
00542            2800.00
00543            2880.00
00544            2960.00
00545            2880.00
00546            2960.00
00547            3040.00
00548            3040.00
00549            3040.00
00550            3040.00
00551            3040.00
00552            3200.00
00553            3120.00
00554            3280.00
00555            3280.00
00556            3280.00
00557            3280.00
00558            3360.00
00559            3360.00
00560            3360.00
00561            3360.00
00562            3440.00
00563            3440.00
00564            3440.00
00565            3440.00
00566            3600.00
00567            3600.00
00568            3600.00
00569            3600.00
00570            3600.00
00571            3680.00
00572            3680.00
00573            3760.00
00574            3760.00
00575            3760.00
00576            3840.00
00577            3920.00
00578            3920.00
00579            3920.00
00580            3920.00
00581            4000.00
00582            4080.00
00583            4000.00
00584            4000.00
00585            4080.00
00586            4000.00
00587            4080.00
00588            4160.00
00589            4240.00
00590            4240.00
00591            4240.00
00592            4320.00
00593            4240.00
00594            4320.00
00595            4320.00
00596            4400.00
00597            4400.00
00598            4400.00
00599            4400.00
00600            4400.00
00601            4400.00
00602            4480.00
00603            4560.00
00604            4560.00
00605            4560.00
00606            4640.00
00607            4640.00
00608            4640.00
00609            4640.00
00610            4720.00
00611            4720.00
00612            4720.00
00613            4720.00
00614            4720.00
00615            4800.00
00616            4720.00
00617            4880.00
00618            4880.00
00619            4880.00
00620            4880.00
00621            4880.00
00622            4880.00
00623            4960.00
00624            4960.00
00625            4960.00
00626            4960.00
00627            4960.00
00628            4960.00
00629            4960.00
00630            5040.00
00631            5040.00
00632            5040.00
00633            5040.00
00634            5120.00
00635            5120.00
00636            5200.00
00637            5200.00
00638            5200.00
00639            5200.00
00640            5200.00
00641            5280.00
00642            5200.00
00643            5280.00
00644            5280.00
00645            5280.00
00646            5280.00
00647            5280.00
00648            5360.00
00649            5360.00
00650            5280.00
00651            5360.00
00652            5360.00
00653            5360.00
00654            5520.00
00655            5440.00
00656            5520.00
00657            5360.00
00658            5520.00
00659            5520.00
00660            5520.00
00661            5520.00
00662            5520.00
00663            5600.00
00664            5520.00
00665            5520.00
00666            5600.00
00667            5600.00
00668            5600.00
00669            5600.00
00670            5600.00
00671            5600.00
00672            5600.00
00673            5600.00
00674            5680.00
00675            5680.00
00676            5680.00
00677            5680.00
00678            5680.00
00679            5680.00
00680            5680.00
00681            5680.00
00682            5680.00
00683            5680.00
00684            5680.00
00685            5840.00
00686            5680.00
00687            5680.00
00688            5760.00
00689            5760.00
00690            5680.00
00691            5760.00
00692            5840.00
00693            5680.00
00694            5840.00
00695            5760.00
00696            5760.00
00697            5760.00
00698            5760.00
00699            5760.00
00700            5840.00
00701            5760.00
00702            5840.00
00703            5840.00
00704            5840.00
00705            5840.00
00706            5760.00
00707            5840.00
00708            5840.00
00709            5840.00
00710            5840.00
00711            5840.00
00712            5840.00
00713            5840.00
00714            5840.00
00715            5840.00
00716            5840.00
00717            5840.00
00718            5840.00
00719            5840.00
00720            5840.00
00721            5840.00
00722            5840.00
00723            5840.00
00724            5840.00
00725            5840.00
00726            5840.00
00727            5840.00
00728            5760.00
00729            5840.00
00730            5840.00
00731            5840.00
00732            5760.00
00733            5840.00
00734            5680.00
00735            5840.00
00736            5840.00
00737            5680.00
00738            5840.00
00739            5840.00
00740            5760.00
00741            5680.00
00742            5760.00
00743            5760.00
00744            5680.00
00745            5760.00
00746            5680.00
00747            5680.00
00748            5600.00
00749            5680.00
00750            5600.00
00751            5680.00
00752            5600.00
00753            5600.00
00754            5600.00
00755            5600.00
00756            5600.00
00757            5600.00
00758            5520.00
00759            5520.00
00760            5520.00
00761            5600.00
00762            5520.00
00763            5520.00
00764            5520.00
00765            5520.00
00766            5520.00
00767            5440.00
00768            5520.00
00769            5520.00
00770            5440.00
00771            5440.00
00772            5360.00
00773            5360.00
00774            5360.00
00775            5280.00
00776            5360.00
00777            5360.00
00778            5360.00
00779            5280.00
00780            5360.00
00781            5280.00
00782            5280.00
00783            5280.00
00784            5280.00
00785            5280.00
00786            5280.00
00787            5280.00
00788            5200.00
00789            5200.00
00790            5280.00
00791            5200.00
00792            5200.00
00793            5200.00
00794            5200.00
00795            5040.00
00796            5040.00
00797            5040.00
00798            5040.00
00799            4960.00
00800            4960.00
00801            4960.00
00802            4960.00
00803            4960.00
00804            4960.00
00805            4960.00
00806            4880.00
00807            4880.00
00808            4880.00
00809            4880.00
00810            4880.00
00811            4720.00
00812            4720.00
00813            4720.00
00814            4640.00
00815            4720.00
00816            4640.00
00817            4640.00
00818            4640.00
00819            4640.00
00820            4560.00
00821            4560.00
00822            4560.00
00823            4560.00
00824            4400.00
00825            4400.00
00826            4400.00
00827            4400.00
00828            4320.00
00829            4400.00
00830            4320.00
00831            4320.00
00832            4320.00
00833            4240.00
00834            4240.00
00835            4240.00
00836            4240.00
00837            4240.00
00838            4240.00
00839            4080.00
00840            4080.00
00841            4080.00
00842            4080.00
00843            4080.00
00844            4000.00
00845            4000.00
00846            4000.00
00847            3920.00
00848            3920.00
00849            3920.00
00850            3920.00
00851            3840.00
00852            3840.00
00853            3760.00
00854            3760.00
00855            3760.00
00856            3680.00
00857            3680.00
00858            3680.00
00859            3600.00
00860            3600.00
00861            3600.00
00862            3520.00
00863            3600.00
00864            3520.00
00865            3440.00
00866            3440.00
00867            3440.00
00868            3360.00
00869            3360.00
00870            3360.00
00871            3280.00
00872            3280.00
00873            3280.00
00874            3280.00
00875            3200.00
00876            3120.00
00877            3120.00
00878            3120.00
00879            3040.00
00880            3040.00
00881            2960.00
00882            2960.00
00883            2960.00
00884            2800.00
00885            2800.00
00886            2800.00
00887            2720.00
00888            2720.00
00889            2720.00
00890            2720.00
00891            2720.00
00892            2640.00
00893            2640.00
00894            2640.00
00895            2560.00
00896            2480.00
00897            2480.00
00898            2400.00
00899            2400.00
00900            2400.00
00901            2320.00
00902            2320.00
00903            2240.00
00904            2240.00
00905            2320.00
00906            2160.00
00907            2160.00
00908            2080.00
00909            2160.00
00910            2080.00
00911            2080.00
00912            2000.00
00913            2000.00
00914            1920.00
00915            1920.00
00916            1840.00
00917            1760.00
00918            1840.00
00919            1760.00
00920            1760.00
00921            1680.00
00922            1600.00
00923            1680.00
00924            1600.00
00925            1520.00
00926            1520.00
00927            1440.00
00928            1440.00
00929            1440.00
00930            1360.00
00931            1360.00
00932            1360.00
00933            1360.00
00934            1360.00
00935            1200.00
00936            1200.00
00937            1120.00
00938            1120.00
00939            1040.00
00940            1040.00
00941            1040.00
00942             880.00
00943             960.00
00944             880.00
00945             880.00
00946             800.00
00947             800.00
00948             800.00
00949             720.00
00950             720.00
00951             720.00
00952             640.00
00953             560.00
00954             560.00
00955             480.00
00956             480.00
00957             400.00
00958             400.00
00959             400.00
00960             320.00
00961             240.00
00962             160.00
00963             240.00
00964              80.00
00965             160.00
00966             160.00
00967              80.00
00968              80.00
00969              80.00
00970             -80.00
00971             -80.00
00972             -80.00
00973             -80.00
00974            -160.00
00975            -160.00
00976            -240.00
00977            -240.00
00978            -240.00
00979            -240.00
00980            -400.00
00981            -480.00
00982            -480.00
00983            -400.00
00984            -400.00
00985            -480.00
00986            -560.00
00987            -640.00
00988            -640.00
00989            -640.00
00990            -720.00
00991            -800.00
00992            -800.00
00993            -880.00
00994            -880.00
00995            -880.00
00996            -880.00
00997            -960.00
00998           -1040.00
00999           -1040.00
01000           -1120.00
01001           -1120.00
01002           -1120.00
01003           -1120.00
01004           -1200.00
01005           -1280.00
01006           -1280.00
01007           -1360.00
01008           -1280.00
01009           -1520.00
01010           -1440.00
01011           -1520.00
01012           -1520.00
01013           -1520.00
01014           -1520.00
01015           -1680.00
01016           -1680.00
01017           -1680.00
01018           -1760.00
01019           -1760.00
01020           -1760.00
01021           -1840.00
01022           -1840.00
01023           -1920.00
01024           -1840.00
01025           -2000.00
01026           -2000.00
01027           -2080.00
01028           -2080.00
01029           -2160.00
01030           -2160.00
01031           -2160.00
01032           -2160.00
01033           -2320.00
01034           -2320.00
01035           -2320.00
01036           -2320.00
01037           -2400.00
01038           -2400.00
01039           -2400.00
01040           -2400.00
01041           -2480.00
01042           -2480.00
01043           -2480.00
01044           -2560.00
01045           -2640.00
01046           -2720.00
01047           -2720.00
01048           -2720.00
01049           -2720.00
01050           -2800.00
01051           -2800.00
01052           -2800.00
01053           -2800.00
01054           -2960.00
01055           -2880.00
01056           -2960.00
01057           -3040.00
01058           -3040.00
01059           -3040.00
01060           -3040.00
01061           -3040.00
01062           -3120.00
01063           -3120.00
01064           -3120.00
01065           -3280.00
01066           -3280.00
01067           -3280.00
01068           -3360.00
01069           -3360.00
01070           -3360.00
01071           -3360.00
01072           -3440.00
01073           -3440.00
01074           -3520.00
01075           -3600.00
01076           -3600.00
01077           -3600.00
01078           -3680.00
01079           -3600.00
01080           -3680.00
01081           -3680.00
01082           -3680.00
01083           -3760.00
01084           -3760.00
01085           -3760.00
01086           -3760.00
01087           -3920.00
01088           -3920.00
01089           -3840.00
01090           -4000.00
01091           -4000.00
01092           -4000.00
01093           -4080.00
01094           -4080.00
01095           -4080.00
01096           -4080.00
01097           -4080.00
01098           -4080.00
01099           -4240.00
01100           -4240.00
01101           -4240.00
01102           -4240.00
01103           -4240.00
01104           -4320.00
01105           -4320.00
01106           -4320.00
01107           -4320.00
01108           -4400.00
01109           -4400.00
01110           -4400.00
01111           -4400.00
01112           -4400.00
01113           -4400.00
01114           -4480.00
01115           -4560.00
01116           -4560.00
01117           -4560.00
01118           -4640.00
01119           -4640.00
01120           -4640.00
01121           -4720.00
01122           -4640.00
01123           -4720.00
01124           -4720.00
01125           -4720.00
01126           -4720.00
01127           -4720.00
01128           -4800.00
01129           -4880.00
01130           -4880.00
01131           -4960.00
01132           -4880.00
01133           -4960.00
01134           -4960.00
01135           -4960.00
01136           -4960.00
01137           -4960.00
01138           -4960.00
01139           -5040.00
01140           -5040.00
01141           -5040.00
01142           -5040.00
01143           -5040.00
01144           -5040.00
01145           -5120.00
01146           -5200.00
01147           -5200.00
01148           -5200.00
01149           -5200.00
01150           -5200.00
01151           -5280.00
01152           -5280.00
01153           -5280.00
01154           -5280.00
01155           -5360.00
01156           -5280.00
01157           -5360.00
01158           -5360.00
01159           -5360.00
01160           -5360.00
01161           -5360.00
01162           -5360.00
01163           -5360.00
01164           -5440.00
01165           -5520.00
01166           -5520.00
01167           -5520.00
01168           -5360.00
01169           -5520.00
01170           -5520.00
01171           -5440.00
01172           -5520.00
01173           -5520.00
01174           -5520.00
01175           -5600.00
01176           -5520.00
01177           -5520.00
01178           -5600.00
01179           -5600.00
01180           -5520.00
01181           -5600.00
01182           -5600.00
01183           -5600.00
01184           -5600.00
01185           -5600.00
01186           -5600.00
01187           -5600.00
01188           -5600.00
01189           -5600.00
01190           -5680.00
01191           -5680.00
01192           -5680.00
01193           -5680.00
01194           -5680.00
01195           -5680.00
01196           -5680.00
01197           -5680.00
01198           -5680.00
01199           -5680.00
01200           -5680.00
01201           -5680.00
01202           -5680.00
01203           -5840.00
01204           -5840.00
01205           -5760.00
01206           -5840.00
01207           -5760.00
01208           -5840.00
01209           -5760.00
01210           -5840.00
01211           -5840.00
01212           -5840.00
01213           -5920.00
01214           -5760.00
01215           -5840.00
01216           -5840.00
01217           -5840.00
01218           -5840.00
01219           -5840.00
01220           -5840.00
01221           -5840.00
01222           -5840.00
01223           -5840.00
01224           -5840.00
01225           -5840.00
01226           -5840.00
01227           -5840.00
01228           -5840.00
01229           -5840.00
01230           -5840.00
01231           -5840.00
01232           -5840.00
01233           -5840.00
01234           -5680.00
01235           -5840.00
01236           -5840.00
01237           -5760.00
01238           -5840.00
01239           -5760.00
01240           -5680.00
01241           -5760.00
01242           -5680.00
01243           -5680.00
01244           -5680.00
01245           -5680.00
01246           -5680.00
01247           -5680.00
01248           -5680.00
01249           -5680.00
01250           -5680.00
01251           -5680.00
01252           -5600.00
01253           -5680.00
01254           -5680.00
01255           -5600.00
01256           -5600.00
01257           -5600.00
01258           -5600.00
01259           -5600.00
01260           -5600.00
01261           -5600.00
01262           -5600.00
01263           -5600.00
01264           -5600.00
01265           -5600.00
01266           -5600.00
01267           -5600.00
01268           -5600.00
01269           -5520.00
01270           -5520.00
01271           -5600.00
01272           -5520.00
01273           -5520.00
01274           -5600.00
01275           -5440.00
01276           -5520.00
01277           -5520.00
01278           -5520.00
01279           -5520.00
01280           -5360.00
01281           -5360.00
01282           -5440.00
01283           -5360.00
01284           -5360.00
01285           -5360.00
01286           -5360.00
01287           -5360.00
01288           -5280.00
01289           -5360.00
01290           -5280.00
01291           -5360.00
01292           -5280.00
01293           -5280.00
01294           -5280.00
01295           -5200.00
01296           -5200.00
01297           -5280.00
01298           -5200.00
01299           -5120.00
01300           -5200.00
01301           -5040.00
01302           -5040.00
01303           -5040.00
01304           -5040.00
01305           -5040.00
01306           -5040.00
01307           -4960.00
01308           -4960.00
01309           -4960.00
01310           -4960.00
01311           -4960.00
01312           -4960.00
01313           -4880.00
01314           -4880.00
01315           -4880.00
01316           -4720.00
01317           -4880.00
01318           -4880.00
01319           -4800.00
01320           -4720.00
01321           -4720.00
01322           -4720.00
01323           -4720.00
01324           -4720.00
01325           -4640.00
01326           -4640.00
01327           -4640.00
01328           -4640.00
01329           -4560.00
01330           -4560.00
01331           -4480.00
01332           -4560.00
01333           -4560.00
01334           -4400.00
01335           -4560.00
01336           -4400.00
01337           -4400.00
01338           -4400.00
01339           -4400.00
01340           -4320.00
01341           -4320.00
01342           -4320.00
01343           -4320.00
01344           -4320.00
01345           -4240.00
01346           -4240.00
01347           -4240.00
01348           -4240.00
01349           -4080.00
01350           -4080.00
01351           -4080.00
01352           -4080.00
01353           -4000.00
01354           -4000.00
01355           -4000.00
01356           -4000.00
01357           -3920.00
01358           -3920.00
01359           -3920.00
01360           -3840.00
01361           -3920.00
01362           -3760.00
01363           -3760.00
01364           -3760.00
01365           -3680.00
01366           -3680.00
01367           -3680.00
01368           -3680.00
01369           -3680.00
01370           -3600.00
01371           -3600.00
01372           -3440.00
01373           -3440.00
01374           -3440.00
01375           -3360.00
01376           -3440.00
01377           -3360.00
01378           -3360.00
01379           -3360.00
01380           -3280.00
01381           -3280.00
01382           -3280.00
01383           -3200.00
01384           -3120.00
01385           -3120.00
01386           -3120.00
01387           -3040.00
01388           -3040.00
01389           -2960.00
01390           -3040.00
01391           -2960.00
01392           -2960.00
01393           -2800.00
01394           -2800.00
01395           -2880.00
01396           -2800.00
01397           -2800.00
01398           -2800.00
01399           -2800.00
01400           -2720.00
01401           -2640.00
01402           -2640.00
01403           -2640.00
01404           -2560.00
01405           -2480.00
01406           -2480.00
01407           -2400.00
01408           -2400.00
01409           -2400.00
01410           -2400.00
01411           -2400.00
01412           -2400.00
01413           -2320.00
01414           -2320.00
01415           -2240.00
01416           -2160.00
01417           -2160.00
01418           -2080.00
01419           -2080.00
01420           -2080.00
01421           -2000.00
01422           -2000.00
01423           -2000.00
01424           -1840.00
01425           -1840.00
01426           -1840.00
01427           -1760.00
01428           -1760.00
01429           -1760.00
01430           -1760.00
01431           -1760.00
01432           -1520.00
01433           -1600.00
01434           -1600.00
01435           -1520.00
01436           -1520.00
01437           -1440.00
01438           -1440.00
01439           -1360.00
01440           -1360.00
01441           -1360.00
01442           -1200.00
01443           -1200.00
01444           -1200.00
01445           -1200.00
01446           -1120.00
01447           -1120.00
01448           -1120.00
01449           -1120.00
01450            -960.00
01451            -960.00
01452            -880.00
01453            -880.00
01454            -880.00
01455            -880.00
01456            -800.00
01457            -720.00
01458            -720.00
01459            -720.00
01460            -720.00
01461            -720.00
01462            -560.00
01463            -560.00
01464            -560.00
01465            -480.00
01466            -480.00
01467            -480.00
01468            -480.00
01469            -400.00
01470            -400.00
01471            -320.00
01472            -240.00
01473            -240.00
01474            -240.00
01475            -160.00
01476            -160.00
01477             -80.00
01478             -80.00
01479               0.00
01480              80.00
01481              80.00
01482             160.00
01483              80.00
01484             160.00
01485             160.00
01486             160.00
01487             240.00
01488             400.00
01489             400.00
01490             400.00
01491             400.00
01492             400.00
01493             480.00
01494             560.00
01495             720.00
01496             560.00
01497             560.00
01498             720.00
01499             720.00
01500             800.00
01501             800.00
01502             800.00
01503             800.00
01504             960.00
01505             880.00
01506            1040.00
01507            1040.00
01508            1040.00
01509            1120.00
01510            1120.00
01511            1200.00
01512            1200.00
01513            1200.00
01514            1360.00
01515            1360.00
01516            1360.00
01517            1360.00
01518            1440.00
01519            1440.00
01520            1440.00
01521            1440.00
01522            1520.00
01523            1520.00
01524            1680.00
01525            1680.00
01526            1680.00
01527            1680.00
01528            1760.00
01529            1760.00
01530            1760.00
01531            1840.00
01532            1840.00
01533            1840.00
01534            2000.00
01535            2000.00
01536            2000.00
01537            2080.00
01538            2080.00
01539            2080.00
01540            2080.00
01541            2160.00
01542            2240.00
01543            2320.00
01544            2320.00
01545            2320.00
01546            2320.00
01547            2320.00
01548            2400.00
01549            2400.00
01550            2480.00
01551            2480.00
01552            2480.00
01553            2560.00
01554            2560.00
01555            2640.00
01556            2720.00
01557            2720.00
01558            2720.00
01559            2720.00
01560            2800.00
01561            2800.00
01562            2800.00
01563            2960.00
01564            2960.00
01565            2960.00
01566            2960.00
01567            3040.00
01568            3040.00
01569            3040.00
01570            3200.00
01571            3120.00
01572            3280.00
01573            3280.00
01574            3280.00
01575            3280.00
01576            3280.00
01577            3360.00
01578            3360.00
01579            3360.00
01580            3360.00
01581            3440.00
01582            3440.00
01583            3600.00
01584            3600.00
01585            3600.00
01586            3600.00
01587            3680.00
01588            3600.00
01589            3600.00
01590            3680.00
01591            3760.00
01592            3920.00
01593            3760.00
01594            3840.00
01595            3760.00
01596            3920.00
01597            3920.00
01598            3920.00
01599            3920.00
01600            3920.00
01601            4000.00
01602            4000.00
01603            4000.00
01604            4000.00
01605            4080.00
01606            4080.00
01607            4080.00
01608            4160.00
01609            4240.00
01610            4240.00
01611            4240.00
01612            4240.00
01613            4320.00
01614            4240.00
01615            4320.00
01616            4320.00
01617            4400.00
01618            4320.00
01619            4400.00
01620            4400.00
01621            4400.00
01622            4560.00
01623            4560.00
01624            4560.00
01625            4640.00
01626            4640.00
01627            4640.00
01628            4640.00
01629            4640.00
01630            4640.00
01631            4720.00
01632            4720.00
01633            4720.00
01634            4800.00
01635            4880.00
01636            4880.00
01637            4880.00
01638            4880.00
01639            4880.00
01640            4960.00
01641            4880.00
01642            4960.00
01643            4960.00
01644            4960.00
01645            4960.00
01646            4960.00
01647            4960.00
01648            5040.00
01649            5120.00
01650            5120.00
01651            5040.00
01652            5200.00
01653            5200.00
01654            5200.00
01655            5120.00
01656            5280.00
01657            5200.00
01658            5200.00
01659            5200.00
01660            5200.00
01661            5280.00
01662            5280.00
01663            5280.00
01664            5280.00
01665            5280.00
01666            5280.00
01667            5280.00
01668            5280.00
01669            5280.00
01670            5360.00
01671            5360.00
01672            5360.00
01673            5360.00
01674            5360.00
01675            5440.00
01676            5360.00
01677            5440.00
01678            5520.00
01679            5520.00
01680            5520.00
01681            5520.00
01682            5520.00
01683            5520.00
01684            5600.00
01685            5600.00
01686            5520.00
01687            5600.00
01688            5600.00
01689            5600.00
01690            5600.00
01691            5680.00
01692            5600.00
01693            5680.00
01694            5680.00
01695            5600.00
01696            5680.00
01697            5680.00
01698            5680.00
01699            5680.00
01700            5680.00
01701            5680.00
01702            5680.00
01703            5680.00
01704            5840.00
01705            5760.00
01706            5680.00
01707            5840.00
01708            5840.00
01709            5840.00
01710            5760.00
01711            5840.00
01712            5680.00
01713            5840.00
01714            5840.00
01715            5840.00
01716            5840.00
01717            5840.00
01718            5840.00
01719            5840.00
01720            5840.00
01721            5840.00
01722            5840.00
01723            5840.00
01724            5840.00
01725            5840.00
01726            5920.00
01727            5760.00
01728            5840.00
01729            5840.00
01730            5840.00
01731            5840.00
01732            5840.00
01733            5840.00
01734            5840.00
01735            5840.00
01736            5840.00
01737            5840.00
01738            5840.00
01739            5840.00
01740            5840.00
01741            5840.00
01742            5760.00
01743            5840.00
01744            5840.00
01745            5840.00
01746            5760.00
01747            5840.00
01748            5840.00
01749            5840.00
01750            5840.00
01751            5840.00
01752            5840.00
01753            5840.00
01754            5840.00
01755            5840.00
01756            5760.00
01757            5680.00
01758            5760.00
01759            5680.00
01760            5760.00
01761            5680.00
01762            5680.00
01763            5680.00
01764            5600.00
01765            5760.00
01766            5680.00
01767            5680.00
01768            5680.00
01769            5600.00
01770            5680.00
01771            5680.00
01772            5680.00
01773            5680.00
01774            5600.00
01775            5680.00
01776            5600.00
01777            5600.00
01778            5600.00
01779            5600.00
01780            5600.00
01781            5600.00
01782            5520.00
01783            5520.00
01784            5520.00
01785            5520.00
01786            5520.00
01787            5520.00
01788            5520.00
01789            5520.00
01790            5520.00
01791            5360.00
01792            5440.00
01793            5360.00
01794            5360.00
01795            5360.00
01796            5360.00
01797            5280.00
01798            5280.00
01799            5280.00
01800            5280.00
01801            5280.00
01802            5280.00
01803            5280.00
01804            5280.00
01805            5280.00
01806            5200.00
01807            5200.00
01808            5200.00
01809            5200.00
01810            5200.00
01811            5120.00
01812            5200.00
01813            5040.00
01814            4960.00
01815            5040.00
01816            4960.00
01817            5040.00
01818            4960.00
01819            4960.00
01820            4960.00
01821            4960.00
01822            5040.00
01823            4880.00
01824            4880.00
01825            4880.00
01826            4880.00
01827            4880.00
01828            4880.00
01829            4880.00
01830            4880.00
01831            4880.00
01832            4720.00
01833            4720.00
01834            4720.00
01835            4640.00
01836            4720.00
01837            4640.00
01838            4640.00
01839            4640.00
01840            4640.00
01841            4560.00
01842            4560.00
01843            4560.00
01844            4560.00
01845            4400.00
01846            4560.00
01847            4400.00
01848            4400.00
01849            4400.00
01850            4320.00
01851            4320.00
01852            4240.00
01853            4320.00
01854            4240.00
01855            4240.00
01856            4240.00
01857            4240.00
01858            4080.00
01859            4080.00
01860            4080.00
01861            4080.00
01862            4000.00
01863            4000.00
01864            4000.00
01865            4000.00
01866            3920.00
01867            3920.00
01868            3920.00
01869            3920.00
01870            3760.00
01871            3920.00
01872            3760.00
01873            3760.00
01874            3680.00
01875            3680.00
01876            3680.00
01877            3600.00
01878            3600.00
01879            3600.00
01880            3600.00
01881            3520.00
01882            3600.00
01883            3520.00
01884            3440.00
01885            3440.00
01886            3360.00
01887            3360.00
01888            3360.00
01889            3360.00
01890            3280.00
01891            3280.00
01892            3280.00
01893            3120.00
01894            3200.00
01895            3280.00
01896            3040.00
01897            3120.00
01898            3120.00
01899            3040.00
01900            2960.00
01901            2960.00
01902            2960.00
01903            2960.00
01904            2800.00
01905            2800.00
01906            2800.00
01907            2800.00
01908            2720.00
01909            2720.00
01910            2720.00
01911            2720.00
01912            2640.00
01913            2640.00
01914            2640.00
01915            2480.00
01916            2480.00
01917            2480.00
01918            2480.00
01919            2400.00
01920            2320.00
01921            2320.00
01922            2320.00
01923            2240.00
01924            2160.00
01925            2160.00
01926            2080.00
01927            2160.00
01928            2160.00
01929            2080.00
01930            2080.00
01931            2000.00
01932            2000.00
01933            1840.00
01934            1840.00
01935            1840.00
01936            1840.00
01937            1760.00
01938            1760.00
01939            1760.00
01940            1680.00
01941            1680.00
01942            1680.00
01943            1520.00
01944            1520.00
01945            1520.00
01946            1440.00
01947            1440.00
01948            1440.00
01949            1440.00
01950            1440.00
01951            1360.00
01952            1280.00
01953            1280.00
01954            1200.00
01955            1200.00
01956            1120.00
01957            1120.00
01958            1120.00
01959            1040.00
01960            1040.00
01961            1040.00
01962            1040.00
01963             880.00
01964             880.00
01965             880.00
01966             880.00
01967             800.00
01968             800.00
01969             720.00
01970             720.00
01971             720.00
01972             720.00
01973             560.00
01974             480.00
01975             480.00
01976             480.00
01977             480.00
01978             400.00
01979             400.00
01980             240.00
01981             400.00
01982             240.00
01983             160.00
01984             160.00
01985             160.00
01986              80.00
01987              80.00
01988              80.00
01989             -80.00
01990             -80.00
01991             -80.00
01992             -80.00
01993            -160.00
01994            -240.00
01995            -160.00
01996            -240.00
01997            -240.00
01998            -400.00
01999            -400.00
02000            -480.00
02001            -480.00
02002            -400.00
02003            -480.00
02004            -560.00
02005            -560.00
02006            -720.00
02007            -720.00
02008            -720.00
02009            -720.00
02010            -800.00
02011            -800.00
02012            -880.00
02013            -800.00
02014            -880.00
02015            -880.00
02016           -1040.00
02017           -1040.00
02018           -1040.00
02019           -1040.00
02020           -1120.00
02021           -1200.00
02022           -1200.00
02023           -1200.00
02024           -1200.00
02025           -1200.00
02026           -1280.00
02027           -1360.00
02028           -1360.00
02029           -1360.00
02030           -1520.00
02031           -1440.00
02032           -1520.00
02033           -1520.00
02034           -1520.00
02035           -1600.00
02036           -1680.00
02037           -1680.00
02038           -1760.00
02039           -1760.00
02040           -1760.00
02041           -1840.00
02042           -1840.00
02043           -1840.00
02044           -1840.00
02045           -2000.00
02046           -2000.00
02047           -2000.00
02048           -2080.00
02049           -2080.00
02050           -2080.00
02051           -2160.00
02052           -2160.00
02053           -2240.00
02054           -2320.00
02055           -2320.00
02056           -2400.00
02057           -2400.00
02058           -2400.00
02059           -2480.00
02060           -2480.00
02061           -2560.00
02062           -2560.00
02063           -2640.00
02064           -2640.00
02065           -2720.00
02066           -2640.00
02067           -2720.00
02068           -2720.00
02069           -2720.00
02070           -2800.00
02071           -2800.00
02072           -2800.00
02073           -2880.00
02074           -2960.00
02075           -3040.00
02076           -2960.00
02077           -3040.00
02078           -3040.00
02079           -3040.00
02080           -3120.00
02081           -3120.00
02082           -3120.00
02083           -3120.00
02084           -3280.00
02085           -3280.00
02086           -3360.00
02087           -3360.00
02088           -3360.00
02089           -3360.00
02090           -3360.00
02091           -3360.00
02092           -3440.00
02093           -3440.00
02094           -3440.00
02095           -3520.00
02096           -3600.00
02097           -3600.00
02098           -3680.00
02099           -3680.00
02100           -3680.00
02101           -3680.00
02102           -3680.00
02103           -3760.00
02104           -3760.00
02105           -3760.00
02106           -3760.00
02107           -3920.00
02108           -3920.00
02109           -3920.00
02110           -4000.00
02111           -4000.00
02112           -4000.00
02113           -4000.00
02114           -4080.00
02115           -4080.00
02116           -4080.00
02117           -4080.00
02118           -4160.00
02119           -4160.00
02120           -4240.00
02121           -4240.00
02122           -4240.00
02123           -4320.00
02124           -4320.00
02125           -4320.00
02126           -4400.00
02127           -4320.00
02128           -4400.00
02129           -4400.00
02130           -4400.00
02131           -4400.00
02132           -4560.00
02133           -4560.00
02134           -4560.00
02135           -4640.00
02136           -4560.00
02137           -4640.00
02138           -4640.00
02139           -4640.00
02140           -4640.00
02141           -4720.00
02142           -4720.00
02143           -4720.00
02144           -4720.00
02145           -4720.00
02146           -4720.00
02147           -4720.00
02148           -4880.00
02149           -4880.00
02150           -4880.00
02151           -4960.00
02152           -4880.00
02153           -4960.00
02154           -4880.00
02155           -4960.00
02156           -4960.00
02157           -4960.00
02158           -4960.00
02159           -5040.00
02160           -5040.00
02161           -5040.00
02162           -5040.00
02163           -5040.00
02164           -5200.00
02165           -5040.00
02166           -5040.00
02167           -5120.00
02168           -5200.00
02169           -5280.00
02170           -5200.00
02171           -5280.00
02172           -5200.00
02173           -5280.00
02174           -5360.00
02175           -5280.00
02176           -5280.00
02177           -5280.00
02178           -5360.00
02179           -5360.00
02180           -5360.00
02181           -5360.00
02182           -5360.00
02183           -5360.00
02184           -5360.00
02185           -5360.00
02186           -5520.00
02187           -5360.00
02188           -5520.00
02189           -5520.00
02190           -5520.00
02191           -5520.00
02192           -5520.00
02193           -5520.00
02194           -5600.00
02195           -5520.00
02196           -5600.00
02197           -5600.00
02198           -5600.00
02199           -5600.00
02200           -5600.00
02201           -5600.00
02202           -5600.00
02203           -5600.00
02204           -5680.00
02205           -5600.00
02206           -5680.00
02207           -5600.00
02208           -5680.00
02209           -5600.00
02210           -5680.00
02211           -5680.00
02212           -5680.00
02213           -5680.00
02214           -5680.00
02215           -5680.00
02216           -5680.00
02217           -5680.00
02218           -5680.00
02219           -5760.00
02220           -5680.00
02221           -5760.00
02222           -5680.00
02223           -5760.00
02224           -5680.00
02225           -5680.00
02226           -5760.00
02227           -5760.00
02228           -5760.00
02229           -5680.00
02230           -5840.00
02231           -5680.00
02232           -5760.00
02233           -5680.00
02234           -5760.00
02235           -5840.00
02236           -5760.00
02237           -5840.00
02238           -5760.00
02239           -5840.00
02240           -5840.00
02241           -5760.00
02242           -5680.00
02243           -5840.00
02244           -5760.00
02245           -5840.00
02246           -5840.00
02247           -5840.00
02248           -5840.00
02249           -5840.00
02250           -5840.00
02251           -5760.00
02252           -5840.00
02253           -5840.00
02254           -5760.00
02255           -5840.00
02256           -5680.00
02257           -5760.00
02258           -5840.00
02259           -5760.00
02260           -5760.00
02261           -5840.00
02262           -5840.00
02263           -5840.00
02264           -5760.00
02265           -5680.00
02266           -5680.00
02267           -5680.00
02268           -5680.00
02269           -5680.00
02270           -5680.00
02271           -5680.00
02272           -5680.00
02273           -5680.00
02274           -5680.00
02275           -5600.00
02276           -5680.00
02277           -5600.00
02278           -5600.00
02279           -5600.00
02280           -5600.00
02281           -5680.00
02282           -5600.00
02283           -5600.00
02284           -5600.00
02285           -5600.00
02286           -5600.00
02287           -5600.00
02288           -5600.00
02289           -5600.00
02290           -5520.00
02291           -5520.00
02292           -5520.00
02293           -5520.00
02294           -5520.00
02295           -5520.00
02296           -5520.00
02297           -5520.00
02298           -5440.00
02299           -5520.00
02300           -5360.00
02301           -5360.00
02302           -5360.00
02303           -5360.00
02304           -5360.00
02305           -5360.00
02306           -5360.00
02307           -5360.00
02308           -5360.00
02309           -5280.00
02310           -5360.00
02311           -5280.00
02312           -5280.00
02313           -5280.00
02314           -5280.00
02315           -5200.00
02316           -5200.00
02317           -5200.00
02318           -5200.00
02319           -5120.00
02320           -5200.00
02321           -5200.00
02322           -5040.00
02323           -5040.00
02324           -5040.00
02325           -5040.00
02326           -5040.00
02327           -5040.00
02328           -4960.00
02329           -4960.00
02330           -4960.00
02331           -4960.00
02332           -4960.00
02333           -4960.00
02334           -4880.00
02335           -4880.00
02336           -4880.00
02337           -4800.00
02338           -4800.00
02339           -4800.00
02340           -4720.00
02341           -4800.00
02342           -4720.00
02343           -4720.00
02344           -4720.00
02345           -4640.00
02346           -4640.00
02347           -4640.00
02348           -4640.00
02349           -4640.00
02350           -4560.00
02351           -4560.00
02352           -4400.00
02353           -4560.00
02354           -4400.00
02355           -4400.00
02356           -4400.00
02357           -4320.00
02358           -4400.00
02359           -4320.00
02360           -4320.00
02361           -4320.00
02362           -4240.00
02363           -4240.00
02364           -4240.00
02365           -4240.00
02366           -4160.00
02367           -4080.00
02368           -4080.00
02369           -4080.00
02370           -4080.00
02371           -4080.00
02372           -4000.00
02373           -4000.00
02374           -4000.00
02375           -4000.00
02376           -4000.00
02377           -3920.00
02378           -3920.00
02379           -3920.00
02380           -3760.00
02381           -3760.00
02382           -3760.00
02383           -3760.00
02384           -3760.00
02385           -3680.00
02386           -3680.00
02387           -3680.00
02388           -3600.00
02389           -3600.00
02390           -3520.00
02391           -3440.00
02392           -3600.00
02393           -3440.00
02394           -3440.00
02395           -3440.00
02396           -3440.00
02397           -3360.00
02398           -3360.00
02399           -3360.00
02400           -3280.00
02401           -3280.00
02402           -3280.00
02403           -3200.00
02404           -3120.00
02405           -3120.00
02406           -3040.00
02407           -3040.00
02408           -3040.00
02409           -3040.00
02410           -3040.00
02411           -2960.00
02412           -2960.00
02413           -2880.00
02414           -2800.00
02415           -2800.00
02416           -2800.00
02417           -2800.00
02418           -2720.00
02419           -2720.00
02420           -2720.00
02421           -2640.00
02422           -2640.00
02423           -2560.00
02424           -2480.00
02425           -2640.00
02426           -2480.00
02427           -2480.00
02428           -2400.00
02429           -2400.00
02430           -2400.00
02431           -2320.00
02432           -2320.00
02433           -2320.00
02434           -2160.00
02435           -2160.00
02436           -2080.00
02437           -2080.00
02438           -2080.00
02439           -2080.00
02440           -2000.00
02441           -2000.00
02442           -1920.00
02443           -2000.00
02444           -1840.00
02445           -1840.00
02446           -1840.00
02447           -1760.00
02448           -1760.00
02449           -1760.00
02450           -1760.00
02451           -1680.00
02452           -1600.00
02453           -1680.00
02454           -1520.00
02455           -1520.00
02456           -1520.00
02457           -1520.00
02458           -1440.00
02459           -1360.00
02460           -1360.00
02461           -1360.00
02462           -1200.00
02463           -1280.00
02464           -1200.00
02465           -1120.00
02466           -1120.00
02467           -1120.00
02468           -1120.00
02469           -1120.00
02470           -1040.00
02471            -960.00
02472            -880.00
02473            -880.00
02474            -880.00
02475            -880.00
02476            -800.00
02477            -800.00
02478            -800.00
02479            -720.00
02480            -720.00
02481            -640.00
02482            -560.00
02483            -560.00
02484            -480.00
02485            -480.00
02486            -400.00
02487            -400.00
02488            -400.00
02489            -240.00
02490            -240.00
02491            -240.00
02492            -240.00
02493            -160.00
02494            -160.00
02495            -160.00
02496             -80.00
02497             -80.00
02498               0.00
02499              80.00
02500              80.00
02501             160.00
02502             160.00
02503             160.00
02504             160.00
02505             160.00
02506             240.00
02507             240.00
02508             400.00
02509             400.00
02510             400.00
02511             400.00
02512             400.00
02513             480.00
02514             560.00
02515             720.00
02516             560.00
02517             720.00
02518             720.00
02519             720.00
02520             800.00
02521             800.00
02522             800.00
02523             800.00
02524             880.00
02525             880.00
02526            1040.00
02527            1040.00
02528            1040.00
02529            1120.00
02530            1120.00
02531            1120.00
02532            1200.00
02533            1360.00
02534            1280.00
02535            1360.00
02536            1360.00
02537            1360.00
02538            1440.00
02539            1440.00
02540            1440.00
02541            1440.00
02542            1520.00
02543            1600.00
02544            1680.00
02545            1680.00
02546            1680.00
02547            1760.00
02548            1760.00
02549            1760.00
02550            1840.00
02551            1840.00
02552            1840.00
02553            1840.00
02554            2000.00
02555            2080.00
02556            2080.00
02557            2080.00
02558            2080.00
02559            2160.00
02560            2160.00
02561            2160.00
02562            2240.00
02563            2320.00
02564            2320.00
02565            2400.00
02566            2320.00
02567            2400.00
02568            2480.00
02569            2480.00
02570            2480.00
02571            2560.00
02572            2640.00
02573            2640.00
02574            2640.00
02575            2640.00
02576            2640.00
02577            2720.00
02578            2720.00
02579            2800.00
02580            2800.00
02581            2800.00
02582            2800.00
02583            2880.00
02584            2960.00
02585            2960.00
02586            3040.00
02587            3040.00
02588            3040.00
02589            3040.00
02590            3120.00
02591            3040.00
02592            3120.00
02593            3280.00
02594            3280.00
02595            3280.00
02596            3280.00
02597            3280.00
02598            3360.00
02599            3360.00
02600            3360.00
02601            3360.00
02602            3440.00
02603            3440.00
02604            3600.00
02605            3600.00
02606            3600.00
02607            3600.00
02608            3680.00
02609            3680.00
02610            3760.00
02611            3760.00
02612            3760.00
02613            3840.00
02614            3920.00
02615            3920.00
02616            3920.00
02617            3920.00
02618            4000.00
02619            4000.00
02620            4000.00
02621            4000.00
02622            4000.00
02623            4080.00
02624            4080.00
02625            4080.00
02626            4080.00
02627            4240.00
02628            4240.00
02629            4240.00
02630            4240.00
02631            4320.00
02632            4320.00
02633            4320.00
02634            4320.00
02635            4400.00
02636            4400.00
02637            4400.00
02638            4400.00
02639            4400.00
02640            4400.00
02641            4560.00
02642            4560.00
02643            4560.00
02644            4560.00
02645            4560.00
02646            4640.00
02647            4640.00
02648            4640.00
02649            4640.00
02650            4720.00
02651            4640.00
02652            4720.00
02653            4720.00
02654            4720.00
02655            4880.00
02656            4720.00
02657            4880.00
02658            4880.00
02659            4880.00
02660            4880.00
02661            4880.00
02662            4960.00
02663            4960.00
02664            4960.00
02665            4960.00
02666            5040.00
02667            5040.00
02668            5040.00
02669            5040.00
02670            5040.00
02671            5120.00
02672            5040.00
02673            5120.00
02674            5200.00
02675            5200.00
02676            5200.00
02677            5200.00
02678            5280.00
02679            5200.00
02680            5280.00
02681            5280.00
02682            5280.00
02683            5280.00
02684            5280.00
02685            5360.00
02686            5280.00
02687            5360.00
02688            5360.00
02689            5360.00
02690            5360.00
02691            5360.00
02692            5440.00
02693            5360.00
02694            5440.00
02695            5520.00
02696            5440.00
02697            5520.00
02698            5520.00
02699            5520.00
02700            5520.00
02701            5600.00
02702            5600.00
02703            5520.00
02704            5520.00
02705            5520.00
02706            5520.00
02707            5600.00
02708            5600.00
02709            5600.00
02710            5600.00
02711            5600.00
02712            5600.00
02713            5680.00
02714            5680.00
02715            5680.00
02716            5600.00
02717            5680.00
02718            5680.00
02719            5680.00
02720            5680.00
02721            5680.00
02722            5680.00
02723            5680.00
02724            5680.00
02725            5680.00
02726            5680.00
02727            5760.00
02728            5680.00
02729            5760.00
02730            5680.00
02731            5840.00
02732            5840.00
02733            5840.00
02734            5840.00
02735            5840.00
02736            5840.00
02737            5840.00
02738            5840.00
02739            5840.00
02740            5840.00
02741            5840.00
02742            5840.00
02743            5840.00
02744            5840.00
02745            5840.00
02746            5840.00
02747            5920.00
02748            5840.00
02749            5840.00
02750            5840.00
02751            5840.00
02752            5840.00
02753            5840.00
02754            5840.00
02755            5840.00
02756            5840.00
02757            5840.00
02758            5920.00
02759            5840.00
02760            5840.00
02761            5840.00
02762            5840.00
02763            5840.00
02764            5840.00
02765            5840.00
02766            5840.00
02767            5840.00
02768            5680.00
02769            5840.00
02770            5760.00
02771            5840.00
02772            5680.00
02773            5760.00
02774            5680.00
02775            5680.00
02776            5680.00
02777            5760.00
02778            5680.00
02779            5680.00
02780            5680.00
02781            5680.00
02782            5680.00
02783            5600.00
02784            5680.00
02785            5680.00
02786            5680.00
02787            5600.00
02788            5680.00
02789            5600.00
02790            5680.00
02791            5600.00
02792            5600.00
02793            5600.00
02794            5600.00
02795            5600.00
02796            5600.00
02797            5600.00
02798            5600.00
02799            5600.00
02800            5520.00
02801            5600.00
02802            5520.00
02803            5600.00
02804            5520.00
02805            5520.00
02806            5520.00
02807            5360.00
02808            5520.00
02809            5440.00
02810            5440.00
02811            5520.00
02812            5360.00
02813            5440.00
02814            5360.00
02815            5360.00
02816            5360.00
02817            5360.00
02818            5360.00
02819            5360.00
02820            5360.00
02821            5280.00
02822            5280.00
02823            5280.00
02824            5280.00
02825            5280.00
02826            5200.00
02827            5200.00
02828            5200.00
02829            5200.00
02830            5200.00
02831            5040.00
02832            5200.00
02833            5120.00
02834            5200.00
02835            5040.00
02836            5040.00
02837            4960.00
02838            5040.00
02839            4960.00
02840            4880.00
02841            4880.00
02842            4960.00
02843            4880.00
02844            4880.00
02845            4880.00
02846            4880.00
02847            4880.00
02848            4720.00
02849            4720.00
02850            4880.00
02851            4720.00
02852            4720.00
02853            4720.00
02854            4640.00
02855            4640.00
02856            4640.00
02857            4640.00
02858            4640.00
02859            4640.00
02860            4560.00
02861            4560.00
02862            4560.00
02863            4480.00
02864            4560.00
02865            4400.00
02866            4400.00
02867            4400.00
02868            4400.00
02869            4320.00
02870            4320.00
02871            4320.00
02872            4240.00
02873            4320.00
02874            4240.00
02875            4240.00
02876            4240.00
02877            4240.00
02878            4160.00
02879            4240.00
02880            4080.00
02881            4080.00
02882            4000.00
02883            4000.00
02884            4000.00
02885            4000.00
02886            4000.00
02887            3920.00
02888            3920.00
02889            3920.00
02890            3920.00
02891            3920.00
02892            3760.00
02893            3840.00
02894            3760.00
02895            3680.00
02896            3680.00
02897            3600.00
02898            3600.00
02899            3600.00
02900            3600.00
02901            3520.00
02902            3440.00
02903            3440.00
02904            3440.00
02905            3360.00
02906            3440.00
02907            3360.00
02908            3360.00
02909            3360.00
02910            3280.00
02911            3280.00
02912            3200.00
02913            3200.00
02914            3200.00
02915            3120.00
02916            3040.00
02917            3040.00
02918            3040.00
02919            3040.00
02920            2960.00
02921            2960.00
02922            2880.00
02923            2960.00
02924            2880.00
02925            2800.00
02926            2800.00
02927            2800.00
02928            2720.00
02929            2720.00
02930            2640.00
02931            2720.00
02932            2640.00
02933            2640.00
02934            2480.00
02935            2560.00
02936            2480.00
02937            2480.00
02938            2400.00
02939            2400.00
02940            2320.00
02941            2320.00
02942            2320.00
02943            2240.00
02944            2240.00
02945            2160.00
02946            2160.00
02947            2160.00
02948            2160.00
02949            2080.00
02950            2080.00
02951            2080.00
02952            2000.00
02953            1840.00
02954            1920.00
02955            1840.00
02956            1840.00
02957            1840.00
02958            1760.00
02959            1760.00
02960            1680.00
02961            1680.00
02962            1680.00
02963            1680.00
02964            1520.00
02965            1520.00
02966            1440.00
02967            1440.00
02968            1440.00
02969            1360.00
02970            1360.00
02971            1360.00
02972            1200.00
02973            1280.00
02974            1200.00
02975            1120.00
02976            1120.00
02977            1040.00
02978            1040.00
02979            1040.00
02980            1040.00
02981             880.00
02982             880.00
02983             960.00
02984             800.00
02985             800.00
02986             800.00
02987             720.00
02988             720.00
02989             720.00
02990             640.00
02991             560.00
02992             560.00
02993             560.00
02994             560.00
02995             480.00
02996             400.00
02997             480.00
02998             400.00
02999             400.00
03000             240.00
03001             240.00
03002             240.00
03003             240.00
03004             160.00
03005             160.00
03006              80.00
03007              80.00
03008              80.00
03009               0.00
03010             -80.00
03011             -80.00
03012            -160.00
03013            -160.00
03014            -240.00
03015            -240.00
03016            -240.00
03017            -240.00
03018            -400.00
03019            -400.00
03020            -400.00
03021            -480.00
03022            -400.00
03023            -480.00
03024            -480.00
03025            -640.00
03026            -560.00
03027            -720.00
03028            -720.00
03029            -720.00
03030            -800.00
03031            -880.00
03032            -800.00
03033            -880.00
03034            -880.00
03035            -960.00
03036           -1040.00
03037           -1040.00
03038           -1040.00
03039           -1120.00
03040           -1120.00
03041           -1120.00
03042           -1200.00
03043           -1200.00
03044           -1200.00
03045           -1360.00
03046           -1360.00
03047           -1360.00
03048           -1440.00
03049           -1440.00
03050           -1520.00
03051           -1520.00
03052           -1520.00
03053           -1600.00
03054           -1520.00
03055           -1680.00
03056           -1760.00
03057           -1760.00
03058           -1760.00
03059           -1760.00
03060           -1760.00
03061           -1840.00
03062           -1840.00
03063           -1920.00
03064           -2000.00
03065           -2000.00
03066           -2000.00
03067           -2080.00
03068           -2080.00
03069           -2160.00
03070           -2080.00
03071           -2160.00
03072           -2160.00
03073           -2240.00
03074           -2240.00
03075           -2320.00
03076           -2400.00
03077           -2400.00
03078           -2400.00
03079           -2400.00
03080           -2400.00
03081           -2480.00
03082           -2480.00
03083           -2640.00
03084           -2640.00
03085           -2640.00
03086           -2720.00
03087           -2720.00
03088           -2800.00
03089           -2800.00
03090           -2800.00
03091           -2800.00
03092           -2960.00
03093           -2800.00
03094           -2960.00
03095           -2960.00
03096           -3040.00
03097           -3040.00
03098           -3040.00
03099           -3120.00
03100           -3120.00
03101           -3120.00
03102           -3200.00
03103           -3280.00
03104           -3280.00
03105           -3280.00
03106           -3360.00
03107           -3360.00
03108           -3360.00
03109           -3440.00
03110           -3440.00
03111           -3440.00
03112           -3440.00
03113           -3440.00
03114           -3600.00
03115           -3600.00
03116           -3680.00
03117           -3680.00
03118           -3680.00
03119           -3680.00
03120           -3680.00
03121           -3760.00
03122           -3760.00
03123           -3760.00
03124           -3760.00
03125           -3840.00
03126           -3760.00
03127           -3920.00
03128           -3920.00
03129           -3920.00
03130           -4000.00
03131           -4000.00
03132           -4000.00
03133           -4000.00
03134           -4080.00
03135           -4080.00
03136           -4080.00
03137           -4080.00
03138           -4080.00
03139           -4080.00
03140           -4240.00
03141           -4240.00
03142           -4240.00
03143           -4240.00
03144           -4320.00
03145           -4320.00
03146           -4320.00
03147           -4400.00
03148           -4320.00
03149           -4400.00
03150           -4400.00
03151           -4400.00
03152           -4480.00
03153           -4480.00
03154           -4560.00
03155           -4560.00
03156           -4640.00
03157           -4640.00
03158           -4640.00
03159           -4640.00
03160           -4640.00
03161           -4720.00
03162           -4720.00
03163           -4720.00
03164           -4880.00
03165           -4880.00
03166           -4880.00
03167           -4880.00
03168           -4960.00
03169           -4880.00
03170           -4960.00
03171           -4960.00
03172           -4960.00
03173           -4960.00
03174           -4960.00
03175           -4960.00
03176           -5040.00
03177           -5040.00
03178           -4960.00
03179           -5040.00
03180           -5040.00
03181           -5120.00
03182           -5200.00
03183           -5200.00
03184           -5120.00
03185           -5040.00
03186           -5200.00
03187           -5200.00
03188           -5280.00
03189           -5280.00
03190           -5280.00
03191           -5280.00
03192           -5280.00
03193           -5280.00
03194           -5280.00
03195           -5280.00
03196           -5280.00
03197           -5280.00
03198           -5280.00
03199           -5360.00
03200           -5360.00
03201           -5360.00
03202           -5360.00
03203           -5360.00
03204           -5360.00
03205           -5360.00
03206           -5520.00
03207           -5360.00
03208           -5440.00
03209           -5520.00
03210           -5520.00
03211           -5520.00
03212           -5520.00
03213           -5600.00
03214           -5520.00
03215           -5600.00
03216           -5600.00
03217           -5520.00
03218           -5520.00
03219           -5600.00
03220           -5600.00
03221           -5600.00
03222           -5600.00
03223           -5600.00
03224           -5600.00
03225           -5600.00
03226           -5680.00
03227           -5680.00
03228           -5600.00
03229           -5680.00
03230           -5680.00
03231           -5680.00
03232           -5680.00
03233           -5680.00
03234           -5680.00
03235           -5760.00
03236           -5680.00
03237           -5680.00
03238           -5680.00
03239           -5760.00
03240           -5680.00
03241           -5760.00
03242           -5840.00
03243           -5760.00
03244           -5840.00
03245           -5840.00
03246           -5840.00
03247           -5840.00
03248           -5840.00
03249           -5760.00
03250           -5840.00
03251           -5840.00
03252           -5840.00
03253           -5840.00
03254           -5840.00
03255           -5840.00
03256           -5680.00
03257           -5680.00
03258           -5840.00
03259           -5840.00
03260           -5680.00
03261           -5760.00
03262           -5760.00
03263           -5840.00
03264           -5760.00
03265           -5760.00
03266           -5680.00
03267           -5840.00
03268           -5680.00
03269           -5760.00
03270           -5840.00
03271           -5840.00
03272           -5840.00
03273           -5680.00
03274           -5760.00
03275           -5680.00
03276           -5760.00
03277           -5680.00
03278           -5760.00
03279           -5680.00
03280           -5760.00
03281           -5680.00
03282           -5840.00
03283           -5680.00
03284           -5840.00
03285           -5680.00
03286           -5680.00
03287           -5680.00
03288           -5680.00
03289           -5680.00
03290           -5680.00
03291           -5680.00
03292           -5680.00
03293           -5680.00
03294           -5680.00
03295           -5680.00
03296           -5680.00
03297           -5600.00
03298           -5680.00
03299           -5600.00
03300           -5600.00
03301           -5600.00
03302           -5600.00
03303           -5600.00
03304           -5600.00
03305           -5600.00
03306           -5600.00
03307           -5600.00
03308           -5600.00
03309           -5600.00
03310           -5520.00
03311           -5520.00
03312           -5520.00
03313           -5520.00
03314           -5520.00
03315           -5520.00
03316           -5440.00
03317           -5520.00
03318           -5440.00
03319           -5360.00
03320           -5360.00
03321           -5360.00
03322           -5360.00
03323           -5360.00
03324           -5360.00
03325           -5360.00
03326           -5360.00
03327           -5360.00
03328           -5280.00
03329           -5360.00
03330           -5280.00
03331           -5200.00
03332           -5280.00
03333           -5200.00
03334           -5200.00
03335           -5200.00
03336           -5200.00
03337           -5200.00
03338           -5200.00
03339           -5120.00
03340           -5040.00
03341           -5040.00
03342           -5040.00
03343           -5040.00
03344           -5040.00
03345           -5040.00
03346           -5040.00
03347           -4960.00
03348           -5040.00
03349           -4960.00
03350           -4960.00
03351           -4960.00
03352           -4960.00
03353           -4880.00
03354           -4880.00
03355           -4880.00
03356           -4880.00
03357           -4880.00
03358           -4880.00
03359           -4880.00
03360           -4800.00
03361           -4720.00
03362           -4720.00
03363           -4720.00
03364           -4720.00
03365           -4640.00
03366           -4720.00
03367           -4640.00
03368           -4640.00
03369           -4560.00
03370           -4640.00
03371           -4560.00
03372           -4560.00
03373           -4480.00
03374           -4400.00
03375           -4480.00
03376           -4400.00
03377           -4400.00
03378           -4320.00
03379           -4320.00
03380           -4320.00
03381           -4320.00
03382           -4320.00
03383           -4240.00
03384           -4240.00
03385           -4240.00
03386           -4080.00
03387           -4080.00
03388           -4080.00
03389           -4080.00
03390           -4080.00
03391           -4080.00
03392           -4000.00
03393           -4000.00
03394           -4000.00
03395           -3920.00
03396           -3840.00
03397           -3920.00
03398           -3760.00
03399           -3760.00
03400           -3840.00
03401           -3760.00
03402           -3760.00
03403           -3760.00
03404           -3680.00
03405           -3680.00
03406           -3680.00
03407           -3600.00
03408           -3600.00
03409           -3600.00
03410           -3440.00
03411           -3520.00
03412           -3520.00
03413           -3440.00
03414           -3440.00
03415           -3440.00
03416           -3360.00
03417           -3360.00
03418           -3360.00
03419           -3360.00
03420           -3360.00
03421           -3200.00
03422           -3280.00
03423           -3200.00
03424           -3200.00
03425           -3120.00
03426           -3040.00
03427           -3040.00
03428           -3040.00
03429           -2960.00
03430           -3040.00
03431           -2960.00
03432           -2960.00
03433           -2800.00
03434           -2880.00
03435           -2800.00
03436           -2800.00
03437           -2800.00
03438           -2720.00
03439           -2800.00
03440           -2640.00
03441           -2640.00
03442           -2640.00
03443           -2560.00
03444           -2480.00
03445           -2480.00
03446           -2480.00
03447           -2480.00
03448           -2400.00
03449           -2400.00
03450           -2320.00
03451           -2320.00
03452           -2320.00
03453           -2160.00
03454           -2240.00
03455           -2160.00
03456           -2160.00
03457           -2080.00
03458           -2000.00
03459           -2080.00
03460           -2000.00
03461           -2000.00
03462           -1840.00
03463           -1840.00
03464           -1840.00
03465           -1840.00
03466           -1760.00
03467           -1760.00
03468           -1760.00
03469           -1680.00
03470           -1680.00
03471           -1680.00
03472           -1600.00
03473           -1520.00
03474           -1520.00
03475           -1520.00
03476           -1440.00
03477           -1520.00
03478           -1440.00
03479           -1360.00
03480           -1360.00
03481           -1280.00
03482           -1200.00
03483           -1200.00
03484           -1200.00
03485           -1120.00
03486           -1120.00
03487           -1120.00
03488           -1120.00
03489           -1040.00
03490           -1040.00
03491            -960.00
03492            -880.00
03493            -880.00
03494            -880.00
03495            -880.00
03496            -800.00
03497            -800.00
03498            -720.00
03499            -720.00
03500            -560.00
03501            -640.00
03502            -560.00
03503            -480.00
03504            -480.00
03505            -480.00
03506            -400.00
03507            -400.00
03508            -400.00
03509            -240.00
03510            -240.00
03511            -240.00
03512            -240.00
03513            -240.00
03514            -160.00
03515             -80.00
03516             -80.00
03517             -80.00
03518              80.00
03519              80.00
03520              80.00
03521             160.00
03522             160.00
03523             160.00
03524             240.00
03525             240.00
03526             240.00
03527             400.00
03528             400.00
03529             400.00
03530             400.00
03531             400.00
03532             480.00
03533             560.00
03534             640.00
03535             640.00
03536             640.00
03537             720.00
03538             800.00
03539             800.00
03540             800.00
03541             880.00
03542             880.00
03543             960.00
03544            1040.00
03545             960.00
03546            1040.00
03547            1040.00
03548            1040.00
03549            1120.00
03550            1200.00
03551            1120.00
03552            1120.00
03553            1200.00
03554            1200.00
03555            1360.00
03556            1360.00
03557            1440.00
03558            1360.00
03559            1360.00
03560            1520.00
03561            1440.00
03562            1520.00
03563            1520.00
03564            1680.00
03565            1680.00
03566            1680.00
03567            1760.00
03568            1760.00
03569            1760.00
03570            1840.00
03571            1840.00
03572            1840.00
03573            2000.00
03574            2000.00
03575            2080.00
03576            2080.00
03577            2080.00
03578            2080.00
03579            2160.00
03580            2240.00
03581            2160.00
03582            2320.00
03583            2320.00
03584            2320.00
03585            2320.00
03586            2400.00
03587            2400.00
03588            2480.00
03589            2480.00
03590            2480.00
03591            2640.00
03592            2560.00
03593            2640.00
03594            2640.00
03595            2720.00
03596            2720.00
03597            2720.00
03598            2720.00
03599            2800.00
03600            2800.00
03601            2880.00
03602            2960.00
03603            2960.00
03604            2960.00
03605            2960.00
03606            3040.00
03607            3040.00
03608            3040.00
03609            3120.00
03610            3120.00
03611            3280.00
03612            3280.00
03613            3280.00
03614            3280.00
03615            3360.00
03616            3280.00
03617            3280.00
03618            3360.00
03619            3360.00
03620            3360.00
03621            3440.00
03622            3520.00
03623            3440.00
03624            3520.00
03625            3600.00
03626            3600.00
03627            3600.00
03628            3600.00
03629            3680.00
03630            3680.00
03631            3680.00
03632            3760.00
03633            3760.00
03634            3920.00
03635            3840.00
03636            3920.00
03637            3920.00
03638            3920.00
03639            4000.00
03640            3920.00
03641            4000.00
03642            4000.00
03643            4000.00
03644            4000.00
03645            4240.00
03646            4080.00
03647            4240.00
03648            4160.00
03649            4240.00
03650            4240.00
03651            4320.00
03652            4320.00
03653            4320.00
03654            4320.00
03655            4320.00
03656            4400.00
03657            4400.00
03658            4400.00
03659            4400.00
03660            4560.00
03661            4560.00
03662            4560.00
03663            4560.00
03664            4560.00
03665            4640.00
03666            4640.00
03667            4640.00
03668            4640.00
03669            4720.00
03670            4720.00
03671            4720.00
03672            4720.00
03673            4800.00
03674            4800.00
03675            4800.00
03676            4880.00
03677            4880.00
03678            4880.00
03679            4880.00
03680            4960.00
03681            4880.00
03682            4880.00
03683            4960.00
03684            4960.00
03685            4960.00
03686            4960.00
03687            4960.00
03688            5040.00
03689            5040.00
03690            5040.00
03691            5040.00
03692            5120.00
03693            5040.00
03694            5200.00
03695            5200.00
03696            5200.00
03697            5280.00
03698            5200.00
03699            5280.00
03700            5200.00
03701            5200.00
03702            5280.00
03703            5280.00
03704            5280.00
03705            5280.00
03706            5280.00
03707            5360.00
03708            5360.00
03709            5360.00
03710            5360.00
03711            5360.00
03712            5440.00
03713            5360.00
03714            5360.00
03715            5440.00
03716            5440.00
03717            5520.00
03718            5520.00
03719            5520.00
03720            5520.00
03721            5520.00
03722            5600.00
03723            5600.00
03724            5600.00
03725            5600.00
03726            5600.00
03727            5600.00
03728            5600.00
03729            5600.00
03730            5600.00
03731            5600.00
03732            5600.00
03733            5600.00
03734            5680.00
03735            5680.00
03736            5680.00
03737            5680.00
03738            5680.00
03739            5680.00
03740            5680.00
03741            5680.00
03742            5840.00
03743            5680.00
03744            5840.00
03745            5760.00
03746            5760.00
03747            5760.00
03748            5840.00
03749            5760.00
03750            5680.00
03751            5760.00
03752            5760.00
03753            5760.00
03754            5840.00
03755            5680.00
03756            5840.00
03757            5680.00
03758            5760.00
03759            5760.00
03760            5760.00
03761            5840.00
03762            5840.00
03763            5840.00
03764            5840.00
03765            5840.00
03766            5840.00
03767            5840.00
03768            5840.00
03769            5840.00
03770            5840.00
03771            5840.00
03772            5840.00
03773            5760.00
03774            5840.00
03775            5840.00
03776            5840.00
03777            5840.00
03778            5840.00
03779            5840.00
03780            5840.00
03781            5840.00
03782            5760.00
03783            5840.00
03784            5840.00
03785            5840.00
03786            5840.00
03787            5760.00
03788            5840.00
03789            5840.00
03790            5840.00
03791            5840.00
03792            5840.00
03793            5680.00
03794            5840.00
03795            5680.00
03796            5840.00
03797            5840.00
03798            5840.00
03799            5680.00
03800            5680.00
03801            5680.00
03802            5680.00
03803            5680.00
03804            5760.00
03805            5680.00
03806            5680.00
03807            5680.00
03808            5680.00
03809            5680.00
03810            5600.00
03811            5600.00
03812            5600.00
03813            5600.00
03814            5600.00
03815            5600.00
03816            5600.00
03817            5520.00
03818            5520.00
03819            5520.00
03820            5520.00
03821            5520.00
03822            5520.00
03823            5520.00
03824            5520.00
03825            5440.00
03826            5520.00
03827            5360.00
03828            5360.00
03829            5440.00
03830            5360.00
03831            5360.00
03832            5440.00
03833            5360.00
03834            5360.00
03835            5360.00
03836            5280.00
03837            5280.00
03838            5360.00
03839            5280.00
03840            5280.00
03841            5280.00
03842            5280.00
03843            5280.00
03844            5280.00
03845            5200.00
03846            5200.00
03847            5200.00
03848            5200.00
03849            5200.00
03850            5200.00
03851            5040.00
03852            5120.00
03853            5040.00
03854            5040.00
03855            5040.00
03856            5040.00
03857            5040.00
03858            4960.00
03859            5040.00
03860            4960.00
03861            4960.00
03862            4960.00
03863            4960.00
03864            4880.00
03865            4880.00
03866            4880.00
03867            4880.00
03868            4880.00
03869            4800.00
03870            4720.00
03871            4720.00
03872            4800.00
03873            4720.00
03874            4640.00
03875            4640.00
03876            4720.00
03877            4640.00
03878            4640.00
03879            4560.00
03880            4640.00
03881            4480.00
03882            4560.00
03883            4480.00
03884            4480.00
03885            4400.00
03886            4400.00
03887            4400.00
03888            4320.00
03889            4320.00
03890            4240.00
03891            4240.00
03892            4320.00
03893            4240.00
03894            4240.00
03895            4240.00
03896            4080.00
03897            4160.00
03898            4080.00
03899            4080.00
03900            4080.00
03901            4000.00
03902            4000.00
03903            4000.00
03904            4000.00
03905            4000.00
03906            3920.00
03907            3920.00
03908            3920.00
03909            3760.00
03910            3920.00
03911            3760.00
03912            3760.00
03913            3680.00
03914            3680.00
03915            3680.00
03916            3680.00
03917            3600.00
03918            3600.00
03919            3600.00
03920            3600.00
03921            3440.00
03922            3440.00
03923            3440.00
03924            3440.00
03925            3360.00
03926            3360.00
03927            3360.00
03928            3280.00
03929            3360.00
03930            3280.00
03931            3280.00
03932            3280.00
03933            3120.00
03934            3120.00
03935            3040.00
03936            3120.00
03937            3040.00
03938            3040.00
03939            2960.00
03940            2960.00
03941            2960.00
03942            2960.00
03943            2800.00
03944            2800.00
03945            2720.00
03946            2800.00
03947            2720.00
03948            2720.00
03949            2720.00
03950            2640.00
03951            2640.00
03952            2640.00
03953            2560.00
03954            2480.00
03955            2480.00
03956            2400.00
03957            2400.00
03958            2400.00
03959            2320.00
03960            2320.00
03961            2320.00
03962            2240.00
03963            2320.00
03964            2160.00
03965            2160.00
03966            2080.00
03967            2080.00
03968            2080.00
03969            2080.00
03970            2080.00
03971            2000.00
03972            1920.00
03973            1840.00
03974            1840.00
03975            1840.00
03976            1760.00
03977            1760.00
03978            1680.00
03979            1680.00
03980            1680.00
03981            1680.00
03982            1520.00
03983            1680.00
03984            1520.00
03985            1520.00
03986            1440.00
03987            1440.00
03988            1440.00
03989            1440.00
03990            1440.00
03991            1360.00
03992            1280.00
03993            1200.00
03994            1200.00
03995            1120.00
03996            1120.00
03997            1040.00
03998            1120.00
03999            1040.00
04000            1040.00
04001            1040.00
04002             960.00
04003             880.00
04004             880.00
04005             800.00
04006             800.00
04007             720.00
04008             720.00
04009             720.00
04010             640.00
04011             560.00
04012             560.00
04013             480.00
04014             480.00
04015             480.00
04016             400.00
04017             400.00
04018             400.00
04019             320.00
04020             240.00
04021             240.00
04022             160.00
04023             160.00
04024             160.00
04025              80.00
04026              80.00
04027              80.00
04028             -80.00
04029             -80.00
04030             -80.00
04031            -160.00
04032            -160.00
04033            -240.00
04034            -240.00
04035            -240.00
04036            -240.00
04037            -240.00
04038            -400.00
04039            -480.00
04040            -480.00
04041            -400.00
04042            -480.00
04043            -480.00
04044            -560.00
04045            -640.00
04046            -720.00
04047            -720.00
04048            -720.00
04049            -800.00
04050            -800.00
04051            -880.00
04052            -800.00
04053            -880.00
04054            -880.00
04055           -1040.00
04056           -1040.00
04057           -1040.00
04058           -1120.00
04059           -1120.00
04060           -1200.00
04061           -1200.00
04062           -1120.00
04063           -1200.00
04064           -1360.00
04065           -1360.00
04066           -1360.00
04067           -1360.00
04068           -1440.00
04069           -1520.00
04070           -1520.00
04071           -1520.00
04072           -1520.00
04073           -1680.00
04074           -1680.00
04075           -1680.00
04076           -1680.00
04077           -1760.00
04078           -1760.00
04079           -1760.00
04080           -1840.00
04081           -1840.00
04082           -1840.00
04083           -1920.00
04084           -2000.00
04085           -2080.00
04086           -2080.00
04087           -2080.00
04088           -2080.00
04089           -2160.00
04090           -2160.00
04091           -2160.00
04092           -2240.00
04093           -2320.00
04094           -2400.00
04095           -2400.00
04096           -2400.00
04097           -2400.00
04098           -2400.00
04099           -2400.00
04100           -2480.00
04101           -2480.00
04102           -2640.00
04103           -2640.00
04104           -2640.00
04105           -2720.00
04106           -2720.00
04107           -2800.00
04108           -2800.00
04109           -2800.00
04110           -2800.00
04111           -2800.00
04112           -2880.00
04113           -2960.00
04114           -2960.00
04115           -3040.00
04116           -3040.00
04117           -3040.00
04118           -3040.00
04119           -3040.00
04120           -3120.00
04121           -3120.00
04122           -3280.00
04123           -3200.00
04124           -3280.00
04125           -3280.00
04126           -3360.00
04127           -3360.00
04128           -3360.00
04129           -3440.00
04130           -3360.00
04131           -3440.00
04132           -3520.00
04133           -3600.00
04134           -3600.00
04135           -3680.00
04136           -3600.00
04137           -3680.00
04138           -3680.00
04139           -3680.00
04140           -3760.00
04141           -3680.00
04142           -3760.00
04143           -3760.00
04144           -3840.00
04145           -3920.00
04146           -3920.00
04147           -3920.00
04148           -4000.00
04149           -4000.00
04150           -4000.00
04151           -4000.00
04152           -4080.00
04153           -4000.00
04154           -4160.00
04155           -4080.00
04156           -4160.00
04157           -4240.00
04158           -4240.00
04159           -4240.00
04160           -4320.00
04161           -4240.00
04162           -4320.00
04163           -4320.00
04164           -4320.00
04165           -4400.00
04166           -4320.00
04167           -4400.00
04168           -4400.00
04169           -4400.00
04170           -4400.00
04171           -4400.00
04172           -4560.00
04173           -4560.00
04174           -4560.00
04175           -4560.00
04176           -4640.00
04177           -4640.00
04178           -4640.00
04179           -4640.00
04180           -4640.00
04181           -4720.00
04182           -4720.00
04183           -4720.00
04184           -4720.00
04185           -4800.00
04186           -4800.00
04187           -4880.00
04188           -4880.00
04189           -4880.00
04190           -4960.00
04191           -4880.00
04192           -4960.00
04193           -4960.00
04194           -4960.00
04195           -4960.00
04196           -4960.00
04197           -5040.00
04198           -5040.00
04199           -5040.00
04200           -5040.00
04201           -5040.00
04202           -5120.00
04203           -5120.00
04204           -5200.00
04205           -5200.00
04206           -5280.00
04207           -5200.00
04208           -5200.00
04209           -5280.00
04210           -5280.00
04211           -5280.00
04212           -5280.00
04213           -5360.00
04214           -5360.00
04215           -5280.00
04216           -5360.00
04217           -5360.00
04218           -5360.00
04219           -5360.00
04220           -5360.00
04221           -5360.00
04222           -5440.00
04223           -5440.00
04224           -5360.00
04225           -5440.00
04226           -5520.00
04227           -5520.00
04228           -5520.00
04229           -5520.00
04230           -5520.00
04231           -5520.00
04232           -5520.00
04233           -5600.00
04234           -5520.00
04235           -5600.00
04236           -5600.00
04237           -5600.00
04238           -5600.00
04239           -5600.00
04240           -5600.00
04241           -5600.00
04242           -5600.00
04243           -5600.00
04244           -5600.00
04245           -5600.00
04246           -5600.00
04247           -5600.00
04248           -5680.00
04249           -5600.00
04250           -5680.00
04251           -5680.00
04252           -5680.00
04253           -5600.00
04254           -5680.00
04255           -5680.00
04256           -5680.00
04257           -5680.00
04258           -5680.00
04259           -5840.00
04260           -5760.00
04261           -5760.00
04262           -5840.00
04263           -5680.00
04264           -5760.00
04265           -5680.00
04266           -5760.00
04267           -5840.00
04268           -5840.00
04269           -5840.00
04270           -5840.00
04271           -5840.00
04272           -5760.00
04273           -5840.00
04274           -5760.00
04275           -5840.00
04276           -5840.00
04277           -5840.00
04278           -5840.00
04279           -5840.00
04280           -5760.00
04281           -5840.00
04282           -5840.00
04283           -5840.00
04284           -5840.00
04285           -5840.00
04286           -5840.00
04287           -5840.00
04288           -5840.00
04289           -5840.00
04290           -5840.00
04291           -5840.00
04292           -5840.00
04293           -5840.00
04294           -5840.00
04295           -5680.00
04296           -5680.00
04297           -5840.00
04298           -5760.00
04299           -5840.00
04300           -5680.00
04301           -5760.00
04302           -5680.00
04303           -5680.00
04304           -5680.00
04305           -5680.00
04306           -5680.00
04307           -5680.00
04308           -5680.00
04309           -5680.00
04310           -5680.00
04311           -5680.00
04312           -5680.00
04313           -5600.00
04314           -5600.00
04315           -5600.00
04316           -5680.00
04317           -5600.00
04318           -5600.00
04319           -5600.00
04320           -5600.00
04321           -5600.00
04322           -5600.00
04323           -5600.00
04324           -5600.00
04325           -5600.00
04326           -5520.00
04327           -5600.00
04328           -5600.00
04329           -5520.00
04330           -5520.00
04331           -5520.00
04332           -5520.00
04333           -5520.00
04334           -5520.00
04335           -5520.00
04336           -5440.00
04337           -5520.00
04338           -5360.00
04339           -5360.00
04340           -5360.00
04341           -5360.00
04342           -5360.00
04343           -5360.00
04344           -5360.00
04345           -5360.00
04346           -5280.00
04347           -5360.00
04348           -5360.00
04349           -5280.00
04350           -5280.00
04351           -5280.00
04352           -5280.00
04353           -5280.00
04354           -5280.00
04355           -5280.00
04356           -5200.00
04357           -5200.00
04358           -5200.00
04359           -5040.00
04360           -5120.00
04361           -5040.00
04362           -5040.00
04363           -5040.00
04364           -5040.00
04365           -4960.00
04366           -4960.00
04367           -4960.00
04368           -4960.00
04369           -4960.00
04370           -4960.00
04371           -4960.00
04372           -4960.00
04373           -4960.00
04374           -4800.00
04375           -4800.00
04376           -4720.00
04377           -4720.00
04378           -4720.00
04379           -4720.00
04380           -4720.00
04381           -4640.00
04382           -4640.00
04383           -4640.00
04384           -4640.00
04385           -4640.00
04386           -4560.00
04387           -4640.00
04388           -4640.00
04389           -4560.00
04390           -4480.00
04391           -4560.00
04392           -4400.00
04393           -4480.00
04394           -4400.00
04395           -4320.00
04396           -4400.00
04397           -4320.00
04398           -4400.00
04399           -4320.00
04400           -4320.00
04401           -4320.00
04402           -4240.00
04403           -4240.00
04404           -4160.00
04405           -4160.00
04406           -4240.00
04407           -4080.00
04408           -4080.00
04409           -4080.00
04410           -4080.00
04411           -4080.00
04412           -4000.00
04413           -4000.00
04414           -4000.00
04415           -3920.00
04416           -4000.00
04417           -3920.00
04418           -3920.00
04419           -3760.00
04420           -3760.00
04421           -3760.00
04422           -3680.00
04423           -3680.00
04424           -3680.00
04425           -3680.00
04426           -3600.00
04427           -3680.00
04428           -3600.00
04429           -3600.00
04430           -3520.00
04431           -3440.00
04432           -3440.00
04433           -3360.00
04434           -3440.00
04435           -3360.00
04436           -3440.00
04437           -3280.00
04438           -3360.00
04439           -3280.00
04440           -3280.00
04441           -3280.00
04442           -3120.00
04443           -3120.00
04444           -3120.00
04445           -3040.00
04446           -3040.00
04447           -3040.00
04448           -3040.00
04449           -2960.00
04450           -2960.00
04451           -2960.00
04452           -2800.00
04453           -2800.00
04454           -2800.00
04455           -2800.00
04456           -2800.00
04457           -2720.00
04458           -2720.00
04459           -2640.00
04460           -2640.00
04461           -2640.00
04462           -2640.00
04463           -2640.00
04464           -2480.00
04465           -2480.00
04466           -2480.00
04467           -2400.00
04468           -2400.00
04469           -2320.00
04470           -2400.00
04471           -2320.00
04472           -2320.00
04473           -2160.00
04474           -2160.00
04475           -2160.00
04476           -2160.00
04477           -2080.00
04478           -2080.00
04479           -2080.00
04480           -2000.00
04481           -2000.00
04482           -1840.00
04483           -1840.00
04484           -1840.00
04485           -1840.00
04486           -1760.00
04487           -1760.00
04488           -1760.00
04489           -1680.00
04490           -1680.00
04491           -1680.00
04492           -1520.00
04493           -1600.00
04494           -1520.00
04495           -1440.00
04496           -1520.00
04497           -1440.00
04498           -1360.00
04499           -1360.00
04500           -1280.00
04501           -1280.00
04502           -1200.00
04503           -1200.00
04504           -1120.00
04505           -1120.00
04506           -1120.00
04507           -1040.00
04508           -1040.00
04509            -880.00
04510            -880.00
04511            -880.00
04512            -880.00
04513            -880.00
04514            -800.00
04515            -800.00
04516            -720.00
04517            -720.00
04518            -720.00
04519            -560.00
04520            -560.00
04521            -720.00
04522            -480.00
04523            -480.00
04524            -480.00
04525            -400.00
04526            -400.00
04527            -400.00
04528            -400.00
04529            -240.00
04530            -240.00
04531            -240.00
04532            -160.00
04533            -160.00
04534            -160.00
04535             -80.00
04536             -80.00
04537            -160.00
04538              80.00
04539               0.00
04540              80.00
04541              80.00
04542              80.00
04543             160.00
04544             240.00
04545             240.00
04546             320.00
04547             400.00
04548             400.00
04549             320.00
04550             400.00
04551             400.00
04552             480.00
04553             560.00
04554             560.00
04555             720.00
04556             720.00
04557             720.00
04558             800.00
04559             800.00
04560             800.00
04561             880.00
04562             880.00
04563             960.00
04564            1040.00
04565             960.00
04566            1040.00
04567            1120.00
04568            1120.00
04569            1200.00
04570            1120.00
04571            1200.00
04572            1200.00
04573            1360.00
04574            1360.00
04575            1360.00
04576            1360.00
04577            1440.00
04578            1520.00
04579            1520.00
04580            1520.00
04581            1600.00
04582            1520.00
04583            1680.00
04584            1680.00
04585            1680.00
04586            1680.00
04587            1760.00
04588            1760.00
04589            1760.00
04590            1840.00
04591            1840.00
04592            2000.00
04593            2000.00
04594            2000.00
04595            2000.00
04596            2080.00
04597            2080.00
04598            2080.00
04599            2160.00
04600            2160.00
04601            2240.00
04602            2320.00
04603            2320.00
04604            2320.00
04605            2400.00
04606            2400.00
04607            2400.00
04608            2400.00
04609            2480.00
04610            2560.00
04611            2480.00
04612            2640.00
04613            2640.00
04614            2720.00
04615            2720.00
04616            2720.00
04617            2720.00
04618            2720.00
04619            2800.00
04620            2880.00
04621            2960.00
04622            2960.00
04623            2960.00
04624            2960.00
04625            3040.00
04626            3040.00
04627            3040.00
04628            3120.00
04629            3120.00
04630            3120.00
04631            3200.00
04632            3280.00
04633            3280.00
04634            3280.00
04635            3360.00
04636            3360.00
04637            3360.00
04638            3440.00
04639            3440.00
04640            3440.00
04641            3440.00
04642            3520.00
04643            3600.00
04644            3600.00
04645            3600.00
04646            3680.00
04647            3680.00
04648            3680.00
04649            3680.00
04650            3760.00
04651            3760.00
04652            3760.00
04653            3920.00
04654            3920.00
04655            3920.00
04656            3920.00
04657            4000.00
04658            4000.00
04659            4000.00
04660            4000.00
04661            4000.00
04662            4000.00
04663            4080.00
04664            4080.00
04665            4080.00
04666            4080.00
04667            4240.00
04668            4240.00
04669            4240.00
04670            4240.00
04671            4320.00
04672            4240.00
04673            4320.00
04674            4320.00
04675            4320.00
04676            4320.00
04677            4400.00
04678            4400.00
04679            4400.00
04680            4400.00
04681            4560.00
04682            4560.00
04683            4560.00
04684            4560.00
04685            4640.00
04686            4640.00
04687            4640.00
04688            4720.00
04689            4640.00
04690            4720.00
04691            4640.00
04692            4800.00
04693            4880.00
04694            4800.00
04695            4880.00
04696            4880.00
04697            4880.00
04698            4880.00
04699            4880.00
04700            4960.00
04701            4960.00
04702            4960.00
04703            5040.00
04704            4960.00
04705            5040.00
04706            5040.00
04707            5040.00
04708            5040.00
04709            5040.00
04710            5200.00
04711            5200.00
04712            5200.00
04713            5200.00
04714            5200.00
04715            5200.00
04716            5200.00
04717            5200.00
04718            5200.00
04719            5280.00
04720            5280.00
04721            5280.00
04722            5280.00
04723            5280.00
04724            5280.00
04725            5280.00
04726            5280.00
04727            5360.00
04728            5280.00
04729            5360.00
04730            5360.00
04731            5360.00
04732            5440.00
04733            5440.00
04734            5360.00
04735            5520.00
04736            5520.00
04737            5520.00
04738            5520.00
04739            5520.00
04740            5520.00
04741            5520.00
04742            5520.00
04743            5600.00
04744            5520.00
04745            5600.00
04746            5600.00
04747            5600.00
04748            5600.00
04749            5600.00
04750            5600.00
04751            5680.00
04752            5600.00
04753            5680.00
04754            5600.00
04755            5680.00
04756            5680.00
04757            5680.00
04758            5680.00
04759            5600.00
04760            5840.00
04761            5680.00
04762            5840.00
04763            5680.00
04764            5840.00
04765            5680.00
04766            5760.00
04767            5840.00
04768            5840.00
04769            5840.00
04770            5840.00
04771            5840.00
04772            5760.00
04773            5840.00
04774            5840.00
04775            5840.00
04776            5840.00
04777            5840.00
04778            5840.00
04779            5840.00
04780            5840.00
04781            5840.00
04782            5840.00
04783            5840.00
04784            5920.00
04785            5840.00
04786            5840.00
04787            5840.00
04788            5840.00
04789            5840.00
04790            5840.00
04791            5840.00
04792            5840.00
04793            5840.00
04794            5840.00
04795            5840.00
04796            5840.00
04797            5840.00
04798            5840.00
04799            5840.00
04800            5840.00
04801            5840.00
04802            5840.00
04803            5760.00
04804            5840.00
04805            5840.00
04806            5760.00
04807            5760.00
04808            5840.00
04809            5840.00
04810            5680.00
04811            5680.00
04812            5680.00
04813            5680.00
04814            5760.00
04815            5680.00
04816            5680.00
04817            5680.00
04818            5680.00
04819            5680.00
04820            5680.00
04821            5760.00
04822            5680.00
04823            5680.00
04824            5680.00
04825            5680.00
04826            5680.00
04827            5680.00
04828            5680.00
04829            5600.00
04830            5680.00
04831            5600.00
04832            5680.00
04833            5600.00
04834            5600.00
04835            5600.00
04836            5600.00
04837            5600.00
04838            5600.00
04839            5600.00
04840            5520.00
04841            5520.00
04842            5520.00
04843            5520.00
04844            5520.00
04845            5520.00
04846            5520.00
04847            5520.00
04848            5520.00
04849            5360.00
04850            5360.00
04851            5360.00
04852            5360.00
04853            5440.00
04854            5360.00
04855            5280.00
04856            5360.00
04857            5360.00
04858            5280.00
04859            5280.00
04860            5280.00
04861            5280.00
04862            5280.00
04863            5280.00
04864            5280.00
04865            5280.00
04866            5200.00
04867            5120.00
04868            5200.00
04869            5040.00
04870            5120.00
04871            5120.00
04872            5040.00
04873            5040.00
04874            5040.00
04875            4960.00
04876            5040.00
04877            4960.00
04878            5040.00
04879            4960.00
04880            4960.00
04881            4960.00
04882            4960.00
04883            4880.00
04884            4880.00
04885            4880.00
04886            4880.00
04887            4800.00
04888            4880.00
04889            4720.00
04890            4720.00
04891            4720.00
04892            4720.00
04893            4720.00
04894            4720.00
04895            4640.00
04896            4640.00
04897            4640.00
04898            4560.00
04899            4640.00
04900            4560.00
04901            4560.00
04902            4560.00
04903            4560.00
04904            4400.00
04905            4400.00
04906            4400.00
04907            4320.00
04908            4400.00
04909            4320.00
04910            4320.00
04911            4240.00
04912            4240.00
04913            4240.00
04914            4240.00
04915            4240.00
04916            4240.00
04917            4160.00
04918            4080.00
04919            4080.00
04920            4000.00
04921            4000.00
04922            4000.00
04923            4000.00
04924            4000.00
04925            3920.00
04926            3920.00
04927            3920.00
04928            3840.00
04929            3760.00
04930            3760.00
04931            3760.00
04932            3760.00
04933            3680.00
04934            3680.00
04935            3600.00
04936            3600.00
04937            3600.00
04938            3600.00
04939            3520.00
04940            3520.00
04941            3440.00
04942            3440.00
04943            3440.00
04944            3360.00
04945            3360.00
04946            3360.00
04947            3360.00
04948            3280.00
04949            3280.00
04950            3280.00
04951            3280.00
04952            3280.00
04953            3120.00
04954            3120.00
04955            3040.00
04956            3040.00
04957            3040.00
04958            3040.00
04959            2960.00
04960            2960.00
04961            2960.00
04962            2960.00
04963            2880.00
04964            2800.00
04965            2800.00
04966            2720.00
04967            2800.00
04968            2720.00
04969            2640.00
04970            2640.00
04971            2640.00
04972            2640.00
04973            2480.00
04974            2480.00
04975            2480.00
04976            2480.00
04977            2400.00
04978            2400.00
04979            2320.00
04980            2320.00
04981            2320.00
04982            2240.00
04983            2160.00
04984            2080.00
04985            2160.00
04986            2080.00
04987            2080.00
04988            2000.00
04989            2000.00
04990            2000.00
04991            2000.00
04992            1840.00
04993            1920.00
04994            1840.00
04995            1760.00
04996            1760.00
04997            1760.00
04998            1680.00
04999            1680.00
05000            1680.00
