Unit:(mV)
                     CH1
Frequency     98.095 kHz
00001           -1680.00
00002           -1680.00
00003           -1680.00
00004           -1760.00
00005           -1760.00
00006           -1840.00
00007           -1840.00
00008           -1840.00
00009           -1840.00
00010           -1840.00
00011           -2000.00
00012           -2000.00
00013           -2000.00
00014           -2000.00
00015           -2080.00
00016           -2080.00
00017           -2080.00
00018           -2160.00
00019           -2160.00
00020           -2160.00
00021           -2240.00
00022           -2320.00
00023           -2320.00
00024           -2320.00
00025           -2320.00
00026           -2400.00
00027           -2400.00
00028           -2400.00
00029           -2480.00
00030           -2480.00
00031           -2480.00
00032           -2480.00
00033           -2480.00
00034           -2560.00
00035           -2640.00
00036           -2720.00
00037           -2720.00
00038           -2720.00
00039           -2720.00
00040           -2720.00
00041           -2720.00
00042           -2800.00
00043           -2800.00
00044           -2800.00
00045           -2880.00
00046           -2800.00
00047           -2960.00
00048           -2960.00
00049           -2960.00
00050           -2960.00
00051           -2960.00
00052           -3040.00
00053           -3040.00
00054           -3120.00
00055           -3120.00
00056           -3120.00
00057           -3120.00
00058           -3200.00
00059           -3280.00
00060           -3280.00
00061           -3360.00
00062           -3280.00
00063           -3360.00
00064           -3360.00
00065           -3360.00
00066           -3440.00
00067           -3440.00
00068           -3440.00
00069           -3440.00
00070           -3600.00
00071           -3520.00
00072           -3600.00
00073           -3600.00
00074           -3600.00
00075           -3680.00
00076           -3680.00
00077           -3680.00
00078           -3680.00
00079           -3680.00
00080           -3680.00
00081           -3760.00
00082           -3760.00
00083           -3760.00
00084           -3760.00
00085           -3760.00
00086           -3840.00
00087           -3920.00
00088           -3920.00
00089           -3920.00
00090           -3920.00
00091           -4000.00
00092           -3920.00
00093           -4000.00
00094           -4000.00
00095           -4000.00
00096           -4000.00
00097           -4000.00
00098           -4080.00
00099           -4080.00
00100           -4080.00
00101           -4080.00
00102           -4080.00
00103           -4160.00
00104           -4240.00
00105           -4160.00
00106           -4240.00
00107           -4240.00
00108           -4240.00
00109           -4240.00
00110           -4320.00
00111           -4320.00
00112           -4320.00
00113           -4320.00
00114           -4400.00
00115           -4400.00
00116           -4400.00
00117           -4400.00
00118           -4400.00
00119           -4400.00
00120           -4400.00
00121           -4400.00
00122           -4560.00
00123           -4400.00
00124           -4560.00
00125           -4560.00
00126           -4480.00
00127           -4640.00
00128           -4560.00
00129           -4560.00
00130           -4640.00
00131           -4640.00
00132           -4640.00
00133           -4640.00
00134           -4640.00
00135           -4640.00
00136           -4640.00
00137           -4720.00
00138           -4720.00
00139           -4720.00
00140           -4720.00
00141           -4720.00
00142           -4720.00
00143           -4800.00
00144           -4720.00
00145           -4880.00
00146           -4800.00
00147           -4880.00
00148           -4880.00
00149           -4880.00
00150           -4880.00
00151           -4880.00
00152           -4880.00
00153           -4880.00
00154           -4880.00
00155           -4960.00
00156           -4960.00
00157           -4960.00
00158           -4960.00
00159           -4960.00
00160           -4960.00
00161           -4960.00
00162           -4960.00
00163           -4960.00
00164           -4960.00
00165           -4960.00
00166           -4960.00
00167           -4960.00
00168           -4960.00
00169           -4960.00
00170           -4960.00
00171           -4960.00
00172           -4960.00
00173           -5040.00
00174           -5040.00
00175           -4960.00
00176           -4960.00
00177           -5040.00
00178           -5040.00
00179           -5040.00
00180           -5040.00
00181           -5040.00
00182           -5040.00
00183           -5040.00
00184           -5040.00
00185           -5040.00
00186           -5040.00
00187           -4960.00
00188           -5040.00
00189           -5040.00
00190           -5040.00
00191           -5040.00
00192           -5040.00
00193           -5040.00
00194           -5040.00
00195           -5040.00
00196           -5040.00
00197           -5040.00
00198           -5120.00
00199           -5040.00
00200           -5040.00
00201           -5120.00
00202           -5040.00
00203           -5040.00
00204           -5120.00
00205           -5040.00
00206           -5040.00
00207           -5200.00
00208           -5040.00
00209           -5040.00
00210           -5040.00
00211           -5040.00
00212           -5040.00
00213           -5120.00
00214           -5120.00
00215           -5040.00
00216           -5120.00
00217           -5040.00
00218           -5040.00
00219           -5040.00
00220           -5040.00
00221           -5040.00
00222           -5040.00
00223           -5040.00
00224           -5040.00
00225           -5040.00
00226           -5040.00
00227           -5040.00
00228           -5040.00
00229           -5040.00
00230           -5040.00
00231           -5040.00
00232           -4960.00
00233           -4960.00
00234           -4960.00
00235           -4960.00
00236           -4960.00
00237           -4960.00
00238           -4960.00
00239           -4960.00
00240           -4960.00
00241           -4960.00
00242           -4960.00
00243           -4960.00
00244           -4880.00
00245           -4960.00
00246           -4960.00
00247           -4960.00
00248           -4880.00
00249           -4880.00
00250           -4880.00
00251           -4880.00
00252           -4880.00
00253           -4720.00
00254           -4720.00
00255           -4800.00
00256           -4720.00
00257           -4720.00
00258           -4800.00
00259           -4720.00
00260           -4720.00
00261           -4720.00
00262           -4720.00
00263           -4720.00
00264           -4720.00
00265           -4720.00
00266           -4720.00
00267           -4720.00
00268           -4640.00
00269           -4640.00
00270           -4640.00
00271           -4640.00
00272           -4640.00
00273           -4640.00
00274           -4640.00
00275           -4640.00
00276           -4560.00
00277           -4560.00
00278           -4560.00
00279           -4560.00
00280           -4560.00
00281           -4560.00
00282           -4560.00
00283           -4480.00
00284           -4400.00
00285           -4400.00
00286           -4400.00
00287           -4400.00
00288           -4400.00
00289           -4400.00
00290           -4320.00
00291           -4320.00
00292           -4320.00
00293           -4320.00
00294           -4320.00
00295           -4320.00
00296           -4240.00
00297           -4240.00
00298           -4240.00
00299           -4160.00
00300           -4080.00
00301           -4160.00
00302           -4080.00
00303           -4080.00
00304           -4080.00
00305           -4080.00
00306           -4080.00
00307           -4000.00
00308           -4080.00
00309           -4000.00
00310           -4000.00
00311           -4000.00
00312           -4000.00
00313           -3920.00
00314           -3920.00
00315           -3920.00
00316           -3920.00
00317           -3840.00
00318           -3840.00
00319           -3760.00
00320           -3760.00
00321           -3760.00
00322           -3760.00
00323           -3680.00
00324           -3760.00
00325           -3680.00
00326           -3680.00
00327           -3680.00
00328           -3680.00
00329           -3680.00
00330           -3680.00
00331           -3600.00
00332           -3600.00
00333           -3440.00
00334           -3520.00
00335           -3440.00
00336           -3440.00
00337           -3440.00
00338           -3440.00
00339           -3440.00
00340           -3360.00
00341           -3360.00
00342           -3360.00
00343           -3360.00
00344           -3280.00
00345           -3280.00
00346           -3280.00
00347           -3200.00
00348           -3280.00
00349           -3120.00
00350           -3120.00
00351           -3120.00
00352           -3040.00
00353           -3040.00
00354           -3040.00
00355           -2960.00
00356           -2960.00
00357           -2960.00
00358           -2960.00
00359           -2960.00
00360           -2960.00
00361           -2800.00
00362           -2800.00
00363           -2800.00
00364           -2720.00
00365           -2720.00
00366           -2720.00
00367           -2720.00
00368           -2640.00
00369           -2640.00
00370           -2640.00
00371           -2480.00
00372           -2640.00
00373           -2480.00
00374           -2480.00
00375           -2480.00
00376           -2480.00
00377           -2480.00
00378           -2400.00
00379           -2320.00
00380           -2400.00
00381           -2320.00
00382           -2320.00
00383           -2240.00
00384           -2160.00
00385           -2160.00
00386           -2080.00
00387           -2080.00
00388           -2080.00
00389           -2080.00
00390           -2080.00
00391           -2080.00
00392           -2000.00
00393           -2000.00
00394           -2000.00
00395           -2000.00
00396           -1840.00
00397           -1840.00
00398           -1840.00
00399           -1840.00
00400           -1760.00
00401           -1760.00
00402           -1760.00
00403           -1680.00
00404           -1680.00
00405           -1680.00
00406           -1600.00
00407           -1520.00
00408           -1520.00
00409           -1520.00
00410           -1440.00
00411           -1440.00
00412           -1440.00
00413           -1440.00
00414           -1360.00
00415           -1360.00
00416           -1280.00
00417           -1200.00
00418           -1200.00
00419           -1200.00
00420           -1200.00
00421           -1120.00
00422           -1120.00
00423           -1120.00
00424           -1040.00
00425           -1040.00
00426            -960.00
00427            -960.00
00428            -960.00
00429            -880.00
00430            -880.00
00431            -800.00
00432            -800.00
00433            -800.00
00434            -800.00
00435            -720.00
00436            -720.00
00437            -560.00
00438            -560.00
00439            -560.00
00440            -480.00
00441            -480.00
00442            -480.00
00443            -480.00
00444            -400.00
00445            -400.00
00446            -400.00
00447            -240.00
00448            -320.00
00449            -240.00
00450            -240.00
00451            -160.00
00452            -160.00
00453            -160.00
00454             -80.00
00455             -80.00
00456             -80.00
00457              80.00
00458             -80.00
00459             -80.00
00460              80.00
00461              80.00
00462              80.00
00463              80.00
00464             160.00
00465             160.00
00466             240.00
00467             320.00
00468             240.00
00469             240.00
00470             240.00
00471             400.00
00472             480.00
00473             480.00
00474             400.00
00475             480.00
00476             560.00
00477             560.00
00478             640.00
00479             720.00
00480             720.00
00481             720.00
00482             720.00
00483             800.00
00484             800.00
00485             800.00
00486             880.00
00487             960.00
00488             880.00
00489            1040.00
00490            1040.00
00491            1040.00
00492            1040.00
00493            1120.00
00494            1120.00
00495            1120.00
00496            1120.00
00497            1280.00
00498            1360.00
00499            1360.00
00500            1280.00
00501            1360.00
00502            1360.00
00503            1440.00
00504            1440.00
00505            1520.00
00506            1440.00
00507            1520.00
00508            1520.00
00509            1600.00
00510            1520.00
00511            1680.00
00512            1680.00
00513            1760.00
00514            1760.00
00515            1760.00
00516            1760.00
00517            1840.00
00518            1840.00
00519            1920.00
00520            1840.00
00521            2000.00
00522            2000.00
00523            2080.00
00524            2080.00
00525            2080.00
00526            2080.00
00527            2160.00
00528            2080.00
00529            2160.00
00530            2160.00
00531            2240.00
00532            2320.00
00533            2320.00
00534            2320.00
00535            2320.00
00536            2320.00
00537            2320.00
00538            2400.00
00539            2480.00
00540            2480.00
00541            2480.00
00542            2640.00
00543            2480.00
00544            2640.00
00545            2640.00
00546            2640.00
00547            2720.00
00548            2720.00
00549            2720.00
00550            2720.00
00551            2720.00
00552            2800.00
00553            2800.00
00554            2800.00
00555            2960.00
00556            2960.00
00557            3040.00
00558            2960.00
00559            2960.00
00560            2960.00
00561            3120.00
00562            3120.00
00563            3120.00
00564            3120.00
00565            3120.00
00566            3200.00
00567            3280.00
00568            3280.00
00569            3280.00
00570            3280.00
00571            3360.00
00572            3360.00
00573            3360.00
00574            3360.00
00575            3360.00
00576            3360.00
00577            3440.00
00578            3520.00
00579            3520.00
00580            3600.00
00581            3520.00
00582            3600.00
00583            3600.00
00584            3600.00
00585            3600.00
00586            3680.00
00587            3680.00
00588            3680.00
00589            3680.00
00590            3680.00
00591            3760.00
00592            3760.00
00593            3760.00
00594            3920.00
00595            3920.00
00596            3840.00
00597            3840.00
00598            3920.00
00599            3920.00
00600            3920.00
00601            4000.00
00602            3920.00
00603            4000.00
00604            4000.00
00605            4000.00
00606            4080.00
00607            4000.00
00608            4080.00
00609            4080.00
00610            4160.00
00611            4080.00
00612            4240.00
00613            4240.00
00614            4240.00
00615            4240.00
00616            4240.00
00617            4320.00
00618            4240.00
00619            4320.00
00620            4320.00
00621            4320.00
00622            4320.00
00623            4320.00
00624            4400.00
00625            4320.00
00626            4400.00
00627            4400.00
00628            4400.00
00629            4480.00
00630            4480.00
00631            4480.00
00632            4560.00
00633            4560.00
00634            4560.00
00635            4640.00
00636            4560.00
00637            4640.00
00638            4640.00
00639            4640.00
00640            4640.00
00641            4640.00
00642            4640.00
00643            4640.00
00644            4720.00
00645            4640.00
00646            4720.00
00647            4720.00
00648            4720.00
00649            4720.00
00650            4720.00
00651            4720.00
00652            4880.00
00653            4720.00
00654            4720.00
00655            4880.00
00656            4880.00
00657            4880.00
00658            4800.00
00659            4880.00
00660            4880.00
00661            4880.00
00662            4880.00
00663            4880.00
00664            4880.00
00665            4880.00
00666            4880.00
00667            4960.00
00668            4880.00
00669            4880.00
00670            4960.00
00671            4880.00
00672            4960.00
00673            4960.00
00674            4960.00
00675            5040.00
00676            4960.00
00677            4960.00
00678            4960.00
00679            5040.00
00680            4960.00
00681            4960.00
00682            5040.00
00683            5040.00
00684            4960.00
00685            4960.00
00686            5040.00
00687            5040.00
00688            5040.00
00689            5040.00
00690            5040.00
00691            5040.00
00692            5040.00
00693            5120.00
00694            5040.00
00695            5120.00
00696            5200.00
00697            5200.00
00698            5120.00
00699            5120.00
00700            5200.00
00701            5120.00
00702            5200.00
00703            5040.00
00704            5200.00
00705            5200.00
00706            5120.00
00707            5200.00
00708            5040.00
00709            5200.00
00710            5200.00
00711            5200.00
00712            5120.00
00713            5200.00
00714            5200.00
00715            5200.00
00716            5040.00
00717            5040.00
00718            5040.00
00719            5040.00
00720            5200.00
00721            5040.00
00722            5120.00
00723            5040.00
00724            5040.00
00725            5040.00
00726            5200.00
00727            5040.00
00728            5040.00
00729            5040.00
00730            5040.00
00731            5040.00
00732            5040.00
00733            5040.00
00734            5040.00
00735            4960.00
00736            4960.00
00737            5040.00
00738            4960.00
00739            4960.00
00740            5040.00
00741            4960.00
00742            5040.00
00743            4960.00
00744            5040.00
00745            4960.00
00746            4960.00
00747            4960.00
00748            4960.00
00749            4960.00
00750            4960.00
00751            4880.00
00752            4960.00
00753            4880.00
00754            4960.00
00755            4960.00
00756            4960.00
00757            4880.00
00758            4960.00
00759            4880.00
00760            4880.00
00761            4880.00
00762            4880.00
00763            4880.00
00764            4880.00
00765            4880.00
00766            4880.00
00767            4880.00
00768            4880.00
00769            4880.00
00770            4800.00
00771            4800.00
00772            4800.00
00773            4800.00
00774            4720.00
00775            4720.00
00776            4720.00
00777            4640.00
00778            4720.00
00779            4720.00
00780            4640.00
00781            4640.00
00782            4640.00
00783            4640.00
00784            4640.00
00785            4640.00
00786            4560.00
00787            4560.00
00788            4560.00
00789            4560.00
00790            4560.00
00791            4560.00
00792            4560.00
00793            4400.00
00794            4400.00
00795            4480.00
00796            4400.00
00797            4400.00
00798            4320.00
00799            4400.00
00800            4320.00
00801            4320.00
00802            4320.00
00803            4320.00
00804            4320.00
00805            4240.00
00806            4320.00
00807            4240.00
00808            4240.00
00809            4240.00
00810            4240.00
00811            4080.00
00812            4240.00
00813            4160.00
00814            4080.00
00815            4080.00
00816            4080.00
00817            4080.00
00818            4080.00
00819            4000.00
00820            4000.00
00821            4000.00
00822            4000.00
00823            3920.00
00824            4000.00
00825            4000.00
00826            3920.00
00827            3920.00
00828            3920.00
00829            3920.00
00830            3920.00
00831            3840.00
00832            3760.00
00833            3760.00
00834            3760.00
00835            3680.00
00836            3680.00
00837            3680.00
00838            3680.00
00839            3600.00
00840            3600.00
00841            3600.00
00842            3600.00
00843            3600.00
00844            3520.00
00845            3600.00
00846            3520.00
00847            3440.00
00848            3440.00
00849            3360.00
00850            3360.00
00851            3360.00
00852            3360.00
00853            3360.00
00854            3280.00
00855            3280.00
00856            3280.00
00857            3280.00
00858            3200.00
00859            3200.00
00860            3120.00
00861            3120.00
00862            3040.00
00863            3120.00
00864            3040.00
00865            2960.00
00866            3040.00
00867            2960.00
00868            2880.00
00869            2880.00
00870            2800.00
00871            2880.00
00872            2800.00
00873            2800.00
00874            2720.00
00875            2720.00
00876            2720.00
00877            2720.00
00878            2720.00
00879            2640.00
00880            2640.00
00881            2640.00
00882            2480.00
00883            2480.00
00884            2480.00
00885            2480.00
00886            2480.00
00887            2480.00
00888            2400.00
00889            2400.00
00890            2320.00
00891            2400.00
00892            2320.00
00893            2320.00
00894            2320.00
00895            2320.00
00896            2160.00
00897            2160.00
00898            2160.00
00899            2080.00
00900            2080.00
00901            2080.00
00902            2080.00
00903            2080.00
00904            2000.00
00905            1920.00
00906            1920.00
00907            1840.00
00908            1840.00
00909            1760.00
00910            1760.00
00911            1760.00
00912            1760.00
00913            1680.00
00914            1680.00
00915            1680.00
00916            1520.00
00917            1520.00
00918            1520.00
00919            1440.00
00920            1440.00
00921            1440.00
00922            1360.00
00923            1440.00
00924            1360.00
00925            1280.00
00926            1200.00
00927            1200.00
00928            1120.00
00929            1120.00
00930            1200.00
00931            1120.00
00932            1120.00
00933            1040.00
00934            1040.00
00935            1040.00
00936            1040.00
00937            1040.00
00938             880.00
00939             880.00
00940             880.00
00941             800.00
00942             800.00
00943             720.00
00944             720.00
00945             720.00
00946             720.00
00947             720.00
00948             560.00
00949             560.00
00950             560.00
00951             560.00
00952             480.00
00953             560.00
00954             480.00
00955             480.00
00956             400.00
00957             400.00
00958             400.00
00959             240.00
00960             320.00
00961             240.00
00962             160.00
00963             160.00
00964             160.00
00965              80.00
00966              80.00
00967              80.00
00968               0.00
00969               0.00
00970               0.00
00971             -80.00
00972             -80.00
00973            -160.00
00974            -240.00
00975            -160.00
00976            -240.00
00977            -240.00
00978            -400.00
00979            -480.00
00980            -400.00
00981            -400.00
00982            -400.00
00983            -480.00
00984            -560.00
00985            -560.00
00986            -480.00
00987            -560.00
00988            -560.00
00989            -800.00
00990            -800.00
00991            -720.00
00992            -720.00
00993            -800.00
00994            -880.00
00995            -880.00
00996            -880.00
00997            -880.00
00998           -1040.00
00999            -960.00
01000           -1040.00
01001           -1120.00
01002           -1120.00
01003           -1120.00
01004           -1120.00
01005           -1120.00
01006           -1200.00
01007           -1120.00
01008           -1200.00
01009           -1360.00
01010           -1280.00
01011           -1280.00
01012           -1360.00
01013           -1440.00
01014           -1440.00
01015           -1440.00
01016           -1520.00
01017           -1440.00
01018           -1520.00
01019           -1600.00
01020           -1520.00
01021           -1520.00
01022           -1680.00
01023           -1680.00
01024           -1760.00
01025           -1760.00
01026           -1760.00
01027           -1760.00
01028           -1840.00
01029           -1840.00
01030           -1920.00
01031           -1840.00
01032           -2000.00
01033           -2000.00
01034           -2000.00
01035           -2080.00
01036           -2080.00
01037           -2080.00
01038           -2160.00
01039           -2160.00
01040           -2240.00
01041           -2160.00
01042           -2240.00
01043           -2320.00
01044           -2320.00
01045           -2400.00
01046           -2400.00
01047           -2400.00
01048           -2480.00
01049           -2480.00
01050           -2480.00
01051           -2480.00
01052           -2480.00
01053           -2640.00
01054           -2560.00
01055           -2640.00
01056           -2640.00
01057           -2720.00
01058           -2720.00
01059           -2800.00
01060           -2800.00
01061           -2800.00
01062           -2800.00
01063           -2800.00
01064           -2960.00
01065           -2960.00
01066           -2960.00
01067           -2960.00
01068           -3040.00
01069           -3040.00
01070           -3040.00
01071           -3120.00
01072           -3040.00
01073           -3120.00
01074           -3120.00
01075           -3280.00
01076           -3120.00
01077           -3200.00
01078           -3200.00
01079           -3280.00
01080           -3280.00
01081           -3280.00
01082           -3360.00
01083           -3360.00
01084           -3360.00
01085           -3360.00
01086           -3440.00
01087           -3360.00
01088           -3440.00
01089           -3440.00
01090           -3440.00
01091           -3440.00
01092           -3520.00
01093           -3600.00
01094           -3600.00
01095           -3600.00
01096           -3680.00
01097           -3680.00
01098           -3680.00
01099           -3680.00
01100           -3680.00
01101           -3680.00
01102           -3680.00
01103           -3760.00
01104           -3760.00
01105           -3760.00
01106           -3760.00
01107           -3920.00
01108           -3920.00
01109           -3920.00
01110           -4000.00
01111           -4000.00
01112           -4000.00
01113           -4000.00
01114           -4000.00
01115           -4000.00
01116           -4080.00
01117           -4080.00
01118           -4080.00
01119           -4080.00
01120           -4080.00
01121           -4080.00
01122           -4160.00
01123           -4080.00
01124           -4240.00
01125           -4240.00
01126           -4320.00
01127           -4240.00
01128           -4320.00
01129           -4320.00
01130           -4320.00
01131           -4320.00
01132           -4400.00
01133           -4400.00
01134           -4320.00
01135           -4400.00
01136           -4400.00
01137           -4400.00
01138           -4480.00
01139           -4400.00
01140           -4480.00
01141           -4400.00
01142           -4560.00
01143           -4560.00
01144           -4560.00
01145           -4560.00
01146           -4560.00
01147           -4560.00
01148           -4640.00
01149           -4560.00
01150           -4640.00
01151           -4640.00
01152           -4640.00
01153           -4560.00
01154           -4640.00
01155           -4640.00
01156           -4640.00
01157           -4720.00
01158           -4720.00
01159           -4640.00
01160           -4720.00
01161           -4720.00
01162           -4720.00
01163           -4720.00
01164           -4720.00
01165           -4720.00
01166           -4720.00
01167           -4720.00
01168           -4880.00
01169           -4880.00
01170           -4720.00
01171           -4880.00
01172           -4880.00
01173           -4960.00
01174           -4880.00
01175           -4880.00
01176           -4880.00
01177           -4960.00
01178           -4880.00
01179           -4960.00
01180           -4960.00
01181           -4960.00
01182           -4960.00
01183           -4960.00
01184           -4960.00
01185           -4960.00
01186           -4960.00
01187           -5040.00
01188           -4960.00
01189           -5040.00
01190           -5040.00
01191           -5040.00
01192           -5040.00
01193           -4960.00
01194           -5040.00
01195           -5040.00
01196           -5040.00
01197           -5040.00
01198           -5040.00
01199           -5040.00
01200           -5040.00
01201           -5040.00
01202           -5040.00
01203           -5040.00
01204           -5040.00
01205           -5040.00
01206           -5040.00
01207           -5040.00
01208           -5040.00
01209           -5040.00
01210           -5120.00
01211           -5040.00
01212           -5040.00
01213           -5040.00
01214           -5040.00
01215           -5040.00
01216           -5040.00
01217           -5040.00
01218           -5040.00
01219           -5120.00
01220           -5040.00
01221           -5040.00
01222           -5040.00
01223           -5040.00
01224           -5040.00
01225           -5040.00
01226           -5040.00
01227           -5040.00
01228           -5040.00
01229           -5040.00
01230           -5040.00
01231           -5040.00
01232           -5040.00
01233           -5040.00
01234           -5040.00
01235           -5040.00
01236           -5040.00
01237           -5040.00
01238           -5040.00
01239           -5040.00
01240           -5040.00
01241           -5040.00
01242           -5040.00
01243           -5040.00
01244           -5040.00
01245           -5040.00
01246           -5040.00
01247           -5040.00
01248           -5040.00
01249           -5040.00
01250           -5040.00
01251           -5040.00
01252           -4960.00
01253           -5040.00
01254           -4960.00
01255           -4960.00
01256           -5040.00
01257           -4960.00
01258           -4960.00
01259           -4960.00
01260           -5040.00
01261           -4960.00
01262           -4960.00
01263           -4960.00
01264           -4960.00
01265           -4880.00
01266           -4960.00
01267           -4880.00
01268           -4960.00
01269           -4880.00
01270           -4880.00
01271           -4880.00
01272           -4880.00
01273           -4880.00
01274           -4880.00
01275           -4800.00
01276           -4720.00
01277           -4720.00
01278           -4720.00
01279           -4720.00
01280           -4720.00
01281           -4720.00
01282           -4720.00
01283           -4720.00
01284           -4720.00
01285           -4720.00
01286           -4640.00
01287           -4640.00
01288           -4640.00
01289           -4640.00
01290           -4640.00
01291           -4640.00
01292           -4560.00
01293           -4640.00
01294           -4560.00
01295           -4640.00
01296           -4560.00
01297           -4560.00
01298           -4400.00
01299           -4480.00
01300           -4400.00
01301           -4400.00
01302           -4400.00
01303           -4400.00
01304           -4400.00
01305           -4400.00
01306           -4400.00
01307           -4400.00
01308           -4320.00
01309           -4400.00
01310           -4400.00
01311           -4320.00
01312           -4320.00
01313           -4320.00
01314           -4320.00
01315           -4240.00
01316           -4320.00
01317           -4240.00
01318           -4240.00
01319           -4240.00
01320           -4240.00
01321           -4160.00
01322           -4080.00
01323           -4080.00
01324           -4080.00
01325           -4080.00
01326           -4080.00
01327           -4080.00
01328           -4080.00
01329           -4080.00
01330           -4000.00
01331           -4000.00
01332           -3920.00
01333           -4000.00
01334           -3920.00
01335           -3840.00
01336           -3920.00
01337           -3760.00
01338           -3760.00
01339           -3760.00
01340           -3840.00
01341           -3760.00
01342           -3680.00
01343           -3760.00
01344           -3680.00
01345           -3680.00
01346           -3680.00
01347           -3680.00
01348           -3600.00
01349           -3600.00
01350           -3520.00
01351           -3520.00
01352           -3600.00
01353           -3440.00
01354           -3440.00
01355           -3440.00
01356           -3440.00
01357           -3360.00
01358           -3360.00
01359           -3360.00
01360           -3360.00
01361           -3280.00
01362           -3360.00
01363           -3280.00
01364           -3280.00
01365           -3280.00
01366           -3200.00
01367           -3120.00
01368           -3200.00
01369           -3120.00
01370           -3120.00
01371           -3120.00
01372           -3040.00
01373           -3040.00
01374           -3040.00
01375           -3040.00
01376           -2960.00
01377           -3040.00
01378           -2880.00
01379           -2880.00
01380           -2800.00
01381           -2880.00
01382           -2800.00
01383           -2800.00
01384           -2800.00
01385           -2720.00
01386           -2720.00
01387           -2640.00
01388           -2640.00
01389           -2720.00
01390           -2640.00
01391           -2560.00
01392           -2560.00
01393           -2480.00
01394           -2480.00
01395           -2480.00
01396           -2400.00
01397           -2400.00
01398           -2400.00
01399           -2320.00
01400           -2320.00
01401           -2320.00
01402           -2320.00
01403           -2240.00
01404           -2160.00
01405           -2160.00
01406           -2160.00
01407           -2080.00
01408           -2080.00
01409           -2080.00
01410           -2080.00
01411           -2000.00
01412           -2000.00
01413           -1840.00
01414           -1840.00
01415           -1840.00
01416           -1840.00
01417           -1840.00
01418           -1760.00
01419           -1760.00
01420           -1760.00
01421           -1680.00
01422           -1680.00
01423           -1680.00
01424           -1600.00
01425           -1600.00
01426           -1520.00
01427           -1520.00
01428           -1520.00
01429           -1440.00
01430           -1440.00
01431           -1440.00
01432           -1440.00
01433           -1360.00
01434           -1360.00
01435           -1360.00
01436           -1360.00
01437           -1200.00
01438           -1200.00
01439           -1200.00
01440           -1120.00
01441           -1120.00
01442           -1120.00
01443           -1120.00
01444           -1040.00
01445           -1040.00
01446           -1040.00
01447           -1040.00
01448            -880.00
01449            -880.00
01450            -880.00
01451            -800.00
01452            -880.00
01453            -800.00
01454            -720.00
01455            -720.00
01456            -720.00
01457            -720.00
01458            -560.00
01459            -560.00
01460            -560.00
01461            -480.00
01462            -480.00
01463            -480.00
01464            -480.00
01465            -400.00
01466            -400.00
01467            -240.00
01468            -240.00
01469            -240.00
01470            -240.00
01471            -240.00
01472            -160.00
01473            -160.00
01474            -160.00
01475             -80.00
01476             -80.00
01477               0.00
01478               0.00
01479              80.00
01480              80.00
01481             160.00
01482             160.00
01483             160.00
01484             240.00
01485             240.00
01486             240.00
01487             320.00
01488             240.00
01489             320.00
01490             400.00
01491             400.00
01492             560.00
01493             480.00
01494             480.00
01495             560.00
01496             560.00
01497             720.00
01498             720.00
01499             720.00
01500             640.00
01501             720.00
01502             800.00
01503             800.00
01504             800.00
01505             800.00
01506             880.00
01507            1040.00
01508             960.00
01509             880.00
01510            1040.00
01511            1040.00
01512            1040.00
01513            1040.00
01514            1120.00
01515            1120.00
01516            1200.00
01517            1200.00
01518            1200.00
01519            1200.00
01520            1360.00
01521            1360.00
01522            1360.00
01523            1360.00
01524            1440.00
01525            1440.00
01526            1520.00
01527            1520.00
01528            1520.00
01529            1520.00
01530            1680.00
01531            1680.00
01532            1680.00
01533            1680.00
01534            1760.00
01535            1760.00
01536            1760.00
01537            1760.00
01538            1840.00
01539            1840.00
01540            2000.00
01541            2000.00
01542            2080.00
01543            2000.00
01544            2080.00
01545            2080.00
01546            2160.00
01547            2160.00
01548            2160.00
01549            2160.00
01550            2320.00
01551            2160.00
01552            2320.00
01553            2320.00
01554            2320.00
01555            2400.00
01556            2320.00
01557            2400.00
01558            2480.00
01559            2480.00
01560            2480.00
01561            2480.00
01562            2640.00
01563            2640.00
01564            2640.00
01565            2640.00
01566            2720.00
01567            2720.00
01568            2720.00
01569            2720.00
01570            2720.00
01571            2720.00
01572            2800.00
01573            2800.00
01574            2800.00
01575            2880.00
01576            2960.00
01577            2960.00
01578            2960.00
01579            3040.00
01580            2960.00
01581            3040.00
01582            3120.00
01583            3120.00
01584            3120.00
01585            3120.00
01586            3280.00
01587            3200.00
01588            3200.00
01589            3280.00
01590            3280.00
01591            3280.00
01592            3360.00
01593            3360.00
01594            3360.00
01595            3440.00
01596            3360.00
01597            3440.00
01598            3440.00
01599            3440.00
01600            3600.00
01601            3520.00
01602            3600.00
01603            3600.00
01604            3600.00
01605            3680.00
01606            3680.00
01607            3680.00
01608            3680.00
01609            3760.00
01610            3760.00
01611            3760.00
01612            3760.00
01613            3760.00
01614            3920.00
01615            3840.00
01616            3920.00
01617            3920.00
01618            3920.00
01619            3920.00
01620            4000.00
01621            4000.00
01622            4000.00
01623            4000.00
01624            4080.00
01625            4080.00
01626            4000.00
01627            4080.00
01628            4080.00
01629            4080.00
01630            4240.00
01631            4080.00
01632            4160.00
01633            4240.00
01634            4240.00
01635            4240.00
01636            4240.00
01637            4240.00
01638            4320.00
01639            4320.00
01640            4320.00
01641            4320.00
01642            4320.00
01643            4320.00
01644            4320.00
01645            4400.00
01646            4400.00
01647            4400.00
01648            4400.00
01649            4400.00
01650            4400.00
01651            4560.00
01652            4560.00
01653            4560.00
01654            4560.00
01655            4560.00
01656            4640.00
01657            4640.00
01658            4640.00
01659            4640.00
01660            4640.00
01661            4640.00
01662            4640.00
01663            4640.00
01664            4640.00
01665            4720.00
01666            4640.00
01667            4720.00
01668            4720.00
01669            4720.00
01670            4800.00
01671            4880.00
01672            4800.00
01673            4880.00
01674            4800.00
01675            4880.00
01676            4880.00
01677            4880.00
01678            4880.00
01679            4880.00
01680            4880.00
01681            4880.00
01682            4880.00
01683            4880.00
01684            4960.00
01685            4880.00
01686            4960.00
01687            4960.00
01688            4960.00
01689            4960.00
01690            4960.00
01691            4960.00
01692            4960.00
01693            4960.00
01694            4960.00
01695            4960.00
01696            4960.00
01697            4960.00
01698            4960.00
01699            4960.00
01700            4960.00
01701            5040.00
01702            4960.00
01703            4960.00
01704            4960.00
01705            5040.00
01706            5040.00
01707            5040.00
01708            5040.00
01709            5040.00
01710            5040.00
01711            5040.00
01712            5040.00
01713            5040.00
01714            5040.00
01715            5040.00
01716            5040.00
01717            5040.00
01718            5040.00
01719            5040.00
01720            5040.00
01721            5040.00
01722            5040.00
01723            5120.00
01724            5040.00
01725            5200.00
01726            5200.00
01727            5120.00
01728            5040.00
01729            5200.00
01730            5200.00
01731            5120.00
01732            5200.00
01733            5200.00
01734            5040.00
01735            5120.00
01736            5120.00
01737            5200.00
01738            5120.00
01739            5120.00
01740            5120.00
01741            5200.00
01742            5040.00
01743            5040.00
01744            5120.00
01745            5120.00
01746            5120.00
01747            5200.00
01748            5040.00
01749            5040.00
01750            5040.00
01751            5040.00
01752            5040.00
01753            5040.00
01754            5040.00
01755            5040.00
01756            5040.00
01757            5040.00
01758            5040.00
01759            5040.00
01760            5040.00
01761            5040.00
01762            5040.00
01763            4960.00
01764            4960.00
01765            4960.00
01766            4960.00
01767            4960.00
01768            4960.00
01769            4960.00
01770            4960.00
01771            4960.00
01772            4880.00
01773            4960.00
01774            4880.00
01775            4880.00
01776            4960.00
01777            4880.00
01778            4880.00
01779            4880.00
01780            4880.00
01781            4880.00
01782            4880.00
01783            4880.00
01784            4880.00
01785            4720.00
01786            4880.00
01787            4720.00
01788            4880.00
01789            4800.00
01790            4880.00
01791            4720.00
01792            4720.00
01793            4720.00
01794            4640.00
01795            4720.00
01796            4720.00
01797            4640.00
01798            4720.00
01799            4640.00
01800            4640.00
01801            4640.00
01802            4640.00
01803            4640.00
01804            4640.00
01805            4560.00
01806            4640.00
01807            4560.00
01808            4560.00
01809            4560.00
01810            4560.00
01811            4480.00
01812            4560.00
01813            4480.00
01814            4400.00
01815            4400.00
01816            4400.00
01817            4400.00
01818            4400.00
01819            4400.00
01820            4320.00
01821            4320.00
01822            4320.00
01823            4320.00
01824            4320.00
01825            4240.00
01826            4320.00
01827            4240.00
01828            4240.00
01829            4240.00
01830            4160.00
01831            4240.00
01832            4080.00
01833            4080.00
01834            4080.00
01835            4080.00
01836            4000.00
01837            4000.00
01838            4000.00
01839            4000.00
01840            4000.00
01841            4000.00
01842            4000.00
01843            3920.00
01844            3920.00
01845            3920.00
01846            3920.00
01847            3920.00
01848            3840.00
01849            3760.00
01850            3760.00
01851            3760.00
01852            3760.00
01853            3680.00
01854            3680.00
01855            3600.00
01856            3680.00
01857            3680.00
01858            3600.00
01859            3600.00
01860            3600.00
01861            3600.00
01862            3520.00
01863            3440.00
01864            3440.00
01865            3440.00
01866            3440.00
01867            3440.00
01868            3440.00
01869            3360.00
01870            3360.00
01871            3360.00
01872            3280.00
01873            3360.00
01874            3280.00
01875            3280.00
01876            3280.00
01877            3200.00
01878            3120.00
01879            3120.00
01880            3120.00
01881            3120.00
01882            3040.00
01883            3040.00
01884            3040.00
01885            2960.00
01886            2960.00
01887            2960.00
01888            2960.00
01889            2960.00
01890            2800.00
01891            2800.00
01892            2800.00
01893            2720.00
01894            2720.00
01895            2720.00
01896            2720.00
01897            2640.00
01898            2640.00
01899            2640.00
01900            2640.00
01901            2560.00
01902            2480.00
01903            2480.00
01904            2480.00
01905            2400.00
01906            2400.00
01907            2400.00
01908            2320.00
01909            2320.00
01910            2320.00
01911            2320.00
01912            2320.00
01913            2160.00
01914            2240.00
01915            2160.00
01916            2160.00
01917            2160.00
01918            2080.00
01919            2160.00
01920            2080.00
01921            2080.00
01922            2000.00
01923            2000.00
01924            1920.00
01925            1840.00
01926            1840.00
01927            1840.00
01928            1760.00
01929            1760.00
01930            1760.00
01931            1680.00
01932            1680.00
01933            1680.00
01934            1680.00
01935            1600.00
01936            1600.00
01937            1520.00
01938            1520.00
01939            1520.00
01940            1520.00
01941            1440.00
01942            1440.00
01943            1360.00
01944            1360.00
01945            1360.00
01946            1360.00
01947            1280.00
01948            1200.00
01949            1200.00
01950            1200.00
01951            1120.00
01952            1120.00
01953            1040.00
01954            1040.00
01955            1040.00
01956            1040.00
01957             960.00
01958             880.00
01959             880.00
01960             800.00
01961             800.00
01962             800.00
01963             800.00
01964             720.00
01965             720.00
01966             720.00
01967             720.00
01968             560.00
01969             560.00
01970             480.00
01971             480.00
01972             480.00
01973             400.00
01974             400.00
01975             400.00
01976             400.00
01977             400.00
01978             240.00
01979             240.00
01980             160.00
01981             160.00
01982             160.00
01983             160.00
01984             160.00
01985              80.00
01986              80.00
01987              80.00
01988               0.00
01989             -80.00
01990             -80.00
01991             -80.00
01992            -160.00
01993            -160.00
01994            -160.00
01995            -240.00
01996            -240.00
01997            -240.00
01998            -400.00
01999            -400.00
02000            -320.00
02001            -240.00
02002            -400.00
02003            -480.00
02004            -480.00
02005            -480.00
02006            -560.00
02007            -560.00
02008            -640.00
02009            -720.00
02010            -720.00
02011            -720.00
02012            -720.00
02013            -800.00
02014            -800.00
02015            -880.00
02016            -880.00
02017            -880.00
02018            -960.00
02019           -1040.00
02020           -1040.00
02021           -1040.00
02022           -1120.00
02023           -1120.00
02024           -1120.00
02025           -1200.00
02026           -1200.00
02027           -1200.00
02028           -1280.00
02029           -1280.00
02030           -1360.00
02031           -1440.00
02032           -1440.00
02033           -1440.00
02034           -1440.00
02035           -1440.00
02036           -1520.00
02037           -1520.00
02038           -1600.00
02039           -1680.00
02040           -1680.00
02041           -1680.00
02042           -1680.00
02043           -1760.00
02044           -1760.00
02045           -1760.00
02046           -1840.00
02047           -1840.00
02048           -1840.00
02049           -1840.00
02050           -1840.00
02051           -1840.00
02052           -2000.00
02053           -2000.00
02054           -2080.00
02055           -2080.00
02056           -2160.00
02057           -2160.00
02058           -2160.00
02059           -2160.00
02060           -2160.00
02061           -2240.00
02062           -2320.00
02063           -2320.00
02064           -2320.00
02065           -2320.00
02066           -2400.00
02067           -2400.00
02068           -2480.00
02069           -2400.00
02070           -2480.00
02071           -2480.00
02072           -2480.00
02073           -2640.00
02074           -2560.00
02075           -2640.00
02076           -2640.00
02077           -2720.00
02078           -2720.00
02079           -2720.00
02080           -2800.00
02081           -2800.00
02082           -2800.00
02083           -2800.00
02084           -2960.00
02085           -2960.00
02086           -2960.00
02087           -2960.00
02088           -3040.00
02089           -3040.00
02090           -3040.00
02091           -3120.00
02092           -3040.00
02093           -3120.00
02094           -3120.00
02095           -3200.00
02096           -3280.00
02097           -3280.00
02098           -3280.00
02099           -3280.00
02100           -3360.00
02101           -3360.00
02102           -3360.00
02103           -3440.00
02104           -3360.00
02105           -3360.00
02106           -3440.00
02107           -3440.00
02108           -3440.00
02109           -3520.00
02110           -3440.00
02111           -3600.00
02112           -3600.00
02113           -3680.00
02114           -3600.00
02115           -3680.00
02116           -3680.00
02117           -3680.00
02118           -3680.00
02119           -3680.00
02120           -3680.00
02121           -3680.00
02122           -3760.00
02123           -3760.00
02124           -3760.00
02125           -3760.00
02126           -3760.00
02127           -3920.00
02128           -3920.00
02129           -3920.00
02130           -3920.00
02131           -3920.00
02132           -4000.00
02133           -3920.00
02134           -4080.00
02135           -4000.00
02136           -4080.00
02137           -4000.00
02138           -4080.00
02139           -4080.00
02140           -4080.00
02141           -4240.00
02142           -4160.00
02143           -4160.00
02144           -4080.00
02145           -4240.00
02146           -4240.00
02147           -4240.00
02148           -4240.00
02149           -4240.00
02150           -4320.00
02151           -4240.00
02152           -4320.00
02153           -4400.00
02154           -4400.00
02155           -4400.00
02156           -4400.00
02157           -4400.00
02158           -4400.00
02159           -4400.00
02160           -4480.00
02161           -4400.00
02162           -4560.00
02163           -4560.00
02164           -4560.00
02165           -4560.00
02166           -4640.00
02167           -4560.00
02168           -4640.00
02169           -4640.00
02170           -4640.00
02171           -4560.00
02172           -4640.00
02173           -4640.00
02174           -4640.00
02175           -4720.00
02176           -4800.00
02177           -4720.00
02178           -4720.00
02179           -4720.00
02180           -4720.00
02181           -4720.00
02182           -4720.00
02183           -4800.00
02184           -4720.00
02185           -4880.00
02186           -4720.00
02187           -4880.00
02188           -4880.00
02189           -4720.00
02190           -4880.00
02191           -4880.00
02192           -4880.00
02193           -4880.00
02194           -4960.00
02195           -4880.00
02196           -4880.00
02197           -4960.00
02198           -4960.00
02199           -4960.00
02200           -4960.00
02201           -4960.00
02202           -4960.00
02203           -4960.00
02204           -4960.00
02205           -4960.00
02206           -4960.00
02207           -4960.00
02208           -4960.00
02209           -4960.00
02210           -4960.00
02211           -5040.00
02212           -4960.00
02213           -5040.00
02214           -5040.00
02215           -5040.00
02216           -5040.00
02217           -5040.00
02218           -5040.00
02219           -5040.00
02220           -5040.00
02221           -5040.00
02222           -5040.00
02223           -5040.00
02224           -5040.00
02225           -5040.00
02226           -5040.00
02227           -5040.00
02228           -5040.00
02229           -5120.00
02230           -5040.00
02231           -5120.00
02232           -5040.00
02233           -5120.00
02234           -5120.00
02235           -5040.00
02236           -5120.00
02237           -5040.00
02238           -5040.00
02239           -5040.00
02240           -5120.00
02241           -5040.00
02242           -5120.00
02243           -5040.00
02244           -5200.00
02245           -5040.00
02246           -5120.00
02247           -5120.00
02248           -5040.00
02249           -5040.00
02250           -5040.00
02251           -5040.00
02252           -5040.00
02253           -5040.00
02254           -5040.00
02255           -5040.00
02256           -5040.00
02257           -5040.00
02258           -5040.00
02259           -5040.00
02260           -5040.00
02261           -5040.00
02262           -5040.00
02263           -5040.00
02264           -4960.00
02265           -4960.00
02266           -4960.00
02267           -5040.00
02268           -4960.00
02269           -5040.00
02270           -4960.00
02271           -4960.00
02272           -4960.00
02273           -4960.00
02274           -4960.00
02275           -4960.00
02276           -4960.00
02277           -4960.00
02278           -4960.00
02279           -4960.00
02280           -4960.00
02281           -4960.00
02282           -4960.00
02283           -4880.00
02284           -4960.00
02285           -4960.00
02286           -4960.00
02287           -4880.00
02288           -4880.00
02289           -4960.00
02290           -4880.00
02291           -4880.00
02292           -4880.00
02293           -4880.00
02294           -4800.00
02295           -4880.00
02296           -4720.00
02297           -4880.00
02298           -4720.00
02299           -4800.00
02300           -4720.00
02301           -4720.00
02302           -4720.00
02303           -4720.00
02304           -4720.00
02305           -4720.00
02306           -4720.00
02307           -4720.00
02308           -4640.00
02309           -4640.00
02310           -4640.00
02311           -4640.00
02312           -4640.00
02313           -4560.00
02314           -4560.00
02315           -4560.00
02316           -4560.00
02317           -4480.00
02318           -4480.00
02319           -4560.00
02320           -4400.00
02321           -4480.00
02322           -4480.00
02323           -4400.00
02324           -4400.00
02325           -4400.00
02326           -4400.00
02327           -4400.00
02328           -4400.00
02329           -4320.00
02330           -4320.00
02331           -4320.00
02332           -4320.00
02333           -4320.00
02334           -4240.00
02335           -4240.00
02336           -4240.00
02337           -4240.00
02338           -4240.00
02339           -4240.00
02340           -4080.00
02341           -4080.00
02342           -4080.00
02343           -4080.00
02344           -4080.00
02345           -4000.00
02346           -4000.00
02347           -4080.00
02348           -4000.00
02349           -4000.00
02350           -4000.00
02351           -4000.00
02352           -3920.00
02353           -4000.00
02354           -3920.00
02355           -3840.00
02356           -3920.00
02357           -3840.00
02358           -3920.00
02359           -3760.00
02360           -3760.00
02361           -3760.00
02362           -3680.00
02363           -3760.00
02364           -3680.00
02365           -3680.00
02366           -3680.00
02367           -3680.00
02368           -3600.00
02369           -3600.00
02370           -3520.00
02371           -3600.00
02372           -3440.00
02373           -3520.00
02374           -3440.00
02375           -3440.00
02376           -3360.00
02377           -3440.00
02378           -3360.00
02379           -3360.00
02380           -3360.00
02381           -3360.00
02382           -3280.00
02383           -3280.00
02384           -3280.00
02385           -3200.00
02386           -3120.00
02387           -3120.00
02388           -3040.00
02389           -3040.00
02390           -3040.00
02391           -3040.00
02392           -3040.00
02393           -3040.00
02394           -2960.00
02395           -2960.00
02396           -2880.00
02397           -2960.00
02398           -2800.00
02399           -2800.00
02400           -2800.00
02401           -2800.00
02402           -2800.00
02403           -2800.00
02404           -2720.00
02405           -2720.00
02406           -2640.00
02407           -2560.00
02408           -2720.00
02409           -2640.00
02410           -2640.00
02411           -2480.00
02412           -2560.00
02413           -2480.00
02414           -2480.00
02415           -2480.00
02416           -2480.00
02417           -2400.00
02418           -2400.00
02419           -2400.00
02420           -2400.00
02421           -2320.00
02422           -2320.00
02423           -2240.00
02424           -2160.00
02425           -2160.00
02426           -2160.00
02427           -2160.00
02428           -2080.00
02429           -2080.00
02430           -2000.00
02431           -2000.00
02432           -2000.00
02433           -2000.00
02434           -1840.00
02435           -1840.00
02436           -1840.00
02437           -1760.00
02438           -1760.00
02439           -1760.00
02440           -1760.00
02441           -1760.00
02442           -1680.00
02443           -1600.00
02444           -1520.00
02445           -1520.00
02446           -1520.00
02447           -1520.00
02448           -1440.00
02449           -1440.00
02450           -1440.00
02451           -1440.00
02452           -1360.00
02453           -1360.00
02454           -1360.00
02455           -1280.00
02456           -1200.00
02457           -1200.00
02458           -1200.00
02459           -1120.00
02460           -1120.00
02461           -1120.00
02462           -1120.00
02463           -1040.00
02464           -1040.00
02465            -960.00
02466            -880.00
02467            -880.00
02468            -880.00
02469            -800.00
02470            -800.00
02471            -800.00
02472            -800.00
02473            -720.00
02474            -720.00
02475            -720.00
02476            -640.00
02477            -560.00
02478            -560.00
02479            -560.00
02480            -480.00
02481            -480.00
02482            -480.00
02483            -400.00
02484            -400.00
02485            -400.00
02486            -320.00
02487            -240.00
02488            -240.00
02489            -240.00
02490            -240.00
02491            -160.00
02492            -160.00
02493            -160.00
02494             -80.00
02495             -80.00
02496             -80.00
02497             -80.00
02498              80.00
02499              80.00
02500              80.00
02501              80.00
02502              80.00
02503             160.00
02504             160.00
02505             240.00
02506             320.00
02507             320.00
02508             400.00
02509             240.00
02510             400.00
02511             480.00
02512             480.00
02513             480.00
02514             480.00
02515             480.00
02516             640.00
02517             720.00
02518             720.00
02519             720.00
02520             720.00
02521             800.00
02522             800.00
02523             880.00
02524             800.00
02525             880.00
02526             960.00
02527             880.00
02528            1040.00
02529            1040.00
02530            1120.00
02531            1120.00
02532            1120.00
02533            1120.00
02534            1120.00
02535            1200.00
02536            1200.00
02537            1200.00
02538            1200.00
02539            1360.00
02540            1360.00
02541            1360.00
02542            1440.00
02543            1440.00
02544            1440.00
02545            1440.00
02546            1520.00
02547            1520.00
02548            1520.00
02549            1680.00
02550            1520.00
02551            1680.00
02552            1760.00
02553            1680.00
02554            1760.00
02555            1760.00
02556            1840.00
02557            1840.00
02558            1840.00
02559            1920.00
02560            2000.00
02561            2000.00
02562            2000.00
02563            2080.00
02564            2080.00
02565            2080.00
02566            2080.00
02567            2160.00
02568            2160.00
02569            2160.00
02570            2240.00
02571            2320.00
02572            2320.00
02573            2320.00
02574            2320.00
02575            2400.00
02576            2400.00
02577            2400.00
02578            2480.00
02579            2480.00
02580            2480.00
02581            2560.00
02582            2640.00
02583            2640.00
02584            2640.00
02585            2720.00
02586            2720.00
02587            2720.00
02588            2720.00
02589            2720.00
02590            2800.00
02591            2800.00
02592            2880.00
02593            2960.00
02594            2880.00
02595            2960.00
02596            2960.00
02597            2960.00
02598            3040.00
02599            3040.00
02600            3040.00
02601            3120.00
02602            3040.00
02603            3120.00
02604            3200.00
02605            3200.00
02606            3280.00
02607            3280.00
02608            3280.00
02609            3280.00
02610            3280.00
02611            3280.00
02612            3360.00
02613            3360.00
02614            3360.00
02615            3440.00
02616            3360.00
02617            3440.00
02618            3440.00
02619            3520.00
02620            3600.00
02621            3600.00
02622            3600.00
02623            3600.00
02624            3600.00
02625            3600.00
02626            3600.00
02627            3680.00
02628            3680.00
02629            3680.00
02630            3760.00
02631            3680.00
02632            3760.00
02633            3760.00
02634            3760.00
02635            3760.00
02636            3920.00
02637            3920.00
02638            3920.00
02639            4000.00
02640            4000.00
02641            4000.00
02642            4000.00
02643            4000.00
02644            4000.00
02645            4080.00
02646            4080.00
02647            4080.00
02648            4080.00
02649            4160.00
02650            4240.00
02651            4240.00
02652            4240.00
02653            4240.00
02654            4240.00
02655            4240.00
02656            4240.00
02657            4320.00
02658            4320.00
02659            4320.00
02660            4320.00
02661            4400.00
02662            4400.00
02663            4320.00
02664            4400.00
02665            4400.00
02666            4400.00
02667            4400.00
02668            4560.00
02669            4560.00
02670            4480.00
02671            4560.00
02672            4560.00
02673            4560.00
02674            4560.00
02675            4560.00
02676            4560.00
02677            4640.00
02678            4640.00
02679            4560.00
02680            4640.00
02681            4640.00
02682            4640.00
02683            4640.00
02684            4720.00
02685            4640.00
02686            4640.00
02687            4720.00
02688            4640.00
02689            4640.00
02690            4720.00
02691            4720.00
02692            4720.00
02693            4720.00
02694            4720.00
02695            4880.00
02696            4800.00
02697            4800.00
02698            4880.00
02699            4880.00
02700            4880.00
02701            4880.00
02702            4880.00
02703            4960.00
02704            4880.00
02705            4880.00
02706            4960.00
02707            4880.00
02708            4960.00
02709            4960.00
02710            4960.00
02711            4960.00
02712            4960.00
02713            4960.00
02714            4960.00
02715            4960.00
02716            5040.00
02717            5040.00
02718            4960.00
02719            5040.00
02720            5040.00
02721            4960.00
02722            5040.00
02723            5040.00
02724            5040.00
02725            5040.00
02726            5040.00
02727            5040.00
02728            5040.00
02729            5120.00
02730            5040.00
02731            5120.00
02732            5200.00
02733            5120.00
02734            5040.00
02735            5200.00
02736            5040.00
02737            5200.00
02738            5120.00
02739            5120.00
02740            5040.00
02741            5200.00
02742            5040.00
02743            5040.00
02744            5040.00
02745            5200.00
02746            5040.00
02747            5040.00
02748            5040.00
02749            5040.00
02750            5120.00
02751            5040.00
02752            5120.00
02753            5040.00
02754            5120.00
02755            5040.00
02756            5120.00
02757            5040.00
02758            5120.00
02759            5040.00
02760            5120.00
02761            5040.00
02762            5040.00
02763            5040.00
02764            5040.00
02765            5120.00
02766            5040.00
02767            5040.00
02768            5040.00
02769            5200.00
02770            5040.00
02771            5040.00
02772            5040.00
02773            5040.00
02774            5040.00
02775            5040.00
02776            5040.00
02777            5040.00
02778            5040.00
02779            4960.00
02780            5040.00
02781            5040.00
02782            5040.00
02783            5040.00
02784            4960.00
02785            4960.00
02786            4960.00
02787            4960.00
02788            4960.00
02789            4960.00
02790            4960.00
02791            4960.00
02792            4960.00
02793            4960.00
02794            4880.00
02795            4960.00
02796            4960.00
02797            4960.00
02798            4880.00
02799            4960.00
02800            4880.00
02801            4880.00
02802            4880.00
02803            4880.00
02804            4880.00
02805            4800.00
02806            4800.00
02807            4800.00
02808            4720.00
02809            4800.00
02810            4720.00
02811            4880.00
02812            4720.00
02813            4720.00
02814            4640.00
02815            4720.00
02816            4720.00
02817            4640.00
02818            4720.00
02819            4640.00
02820            4560.00
02821            4640.00
02822            4640.00
02823            4640.00
02824            4560.00
02825            4560.00
02826            4560.00
02827            4560.00
02828            4560.00
02829            4560.00
02830            4480.00
02831            4480.00
02832            4560.00
02833            4400.00
02834            4400.00
02835            4480.00
02836            4400.00
02837            4400.00
02838            4400.00
02839            4400.00
02840            4320.00
02841            4320.00
02842            4320.00
02843            4320.00
02844            4320.00
02845            4240.00
02846            4240.00
02847            4240.00
02848            4240.00
02849            4240.00
02850            4160.00
02851            4240.00
02852            4080.00
02853            4080.00
02854            4080.00
02855            4080.00
02856            4000.00
02857            4080.00
02858            4080.00
02859            4000.00
02860            4000.00
02861            3920.00
02862            3920.00
02863            4000.00
02864            3920.00
02865            3920.00
02866            3920.00
02867            3840.00
02868            3840.00
02869            3840.00
02870            3760.00
02871            3680.00
02872            3760.00
02873            3680.00
02874            3680.00
02875            3600.00
02876            3680.00
02877            3600.00
02878            3600.00
02879            3600.00
02880            3600.00
02881            3440.00
02882            3440.00
02883            3440.00
02884            3440.00
02885            3360.00
02886            3440.00
02887            3360.00
02888            3360.00
02889            3360.00
02890            3360.00
02891            3280.00
02892            3360.00
02893            3280.00
02894            3200.00
02895            3280.00
02896            3200.00
02897            3120.00
02898            3120.00
02899            3120.00
02900            3120.00
02901            3040.00
02902            3040.00
02903            3040.00
02904            3040.00
02905            2960.00
02906            2960.00
02907            2960.00
02908            2960.00
02909            2960.00
02910            2800.00
02911            2800.00
02912            2720.00
02913            2800.00
02914            2720.00
02915            2720.00
02916            2720.00
02917            2720.00
02918            2640.00
02919            2640.00
02920            2640.00
02921            2640.00
02922            2480.00
02923            2480.00
02924            2480.00
02925            2400.00
02926            2400.00
02927            2400.00
02928            2400.00
02929            2320.00
02930            2320.00
02931            2320.00
02932            2240.00
02933            2160.00
02934            2160.00
02935            2160.00
02936            2080.00
02937            2080.00
02938            2080.00
02939            2080.00
02940            2000.00
02941            2000.00
02942            2000.00
02943            1920.00
02944            1840.00
02945            1840.00
02946            1840.00
02947            1760.00
02948            1760.00
02949            1760.00
02950            1760.00
02951            1680.00
02952            1680.00
02953            1680.00
02954            1680.00
02955            1600.00
02956            1520.00
02957            1520.00
02958            1440.00
02959            1440.00
02960            1440.00
02961            1360.00
02962            1440.00
02963            1360.00
02964            1360.00
02965            1360.00
02966            1200.00
02967            1200.00
02968            1200.00
02969            1200.00
02970            1120.00
02971            1120.00
02972            1120.00
02973            1040.00
02974            1120.00
02975            1040.00
02976             960.00
02977            1040.00
02978             960.00
02979             880.00
02980             800.00
02981             800.00
02982             800.00
02983             720.00
02984             720.00
02985             720.00
02986             720.00
02987             640.00
02988             560.00
02989             560.00
02990             480.00
02991             480.00
02992             480.00
02993             480.00
02994             400.00
02995             400.00
02996             400.00
02997             240.00
02998             240.00
02999             240.00
03000             240.00
03001             160.00
03002             160.00
03003             160.00
03004              80.00
03005              80.00
03006              80.00
03007              80.00
03008             -80.00
03009             -80.00
03010             -80.00
03011            -160.00
03012            -160.00
03013            -240.00
03014            -240.00
03015            -240.00
03016            -320.00
03017            -400.00
03018            -480.00
03019            -400.00
03020            -400.00
03021            -400.00
03022            -480.00
03023            -480.00
03024            -560.00
03025            -560.00
03026            -560.00
03027            -560.00
03028            -720.00
03029            -720.00
03030            -720.00
03031            -720.00
03032            -720.00
03033            -880.00
03034            -800.00
03035            -880.00
03036            -880.00
03037            -880.00
03038           -1040.00
03039            -880.00
03040           -1040.00
03041           -1040.00
03042           -1120.00
03043           -1120.00
03044           -1200.00
03045           -1200.00
03046           -1120.00
03047           -1200.00
03048           -1200.00
03049           -1200.00
03050           -1280.00
03051           -1360.00
03052           -1440.00
03053           -1440.00
03054           -1440.00
03055           -1520.00
03056           -1520.00
03057           -1520.00
03058           -1520.00
03059           -1680.00
03060           -1680.00
03061           -1680.00
03062           -1680.00
03063           -1760.00
03064           -1760.00
03065           -1760.00
03066           -1840.00
03067           -1840.00
03068           -1840.00
03069           -2000.00
03070           -2000.00
03071           -2000.00
03072           -2000.00
03073           -2080.00
03074           -2080.00
03075           -2080.00
03076           -2080.00
03077           -2160.00
03078           -2160.00
03079           -2240.00
03080           -2240.00
03081           -2320.00
03082           -2320.00
03083           -2400.00
03084           -2400.00
03085           -2400.00
03086           -2400.00
03087           -2400.00
03088           -2480.00
03089           -2400.00
03090           -2640.00
03091           -2560.00
03092           -2480.00
03093           -2640.00
03094           -2640.00
03095           -2640.00
03096           -2720.00
03097           -2720.00
03098           -2800.00
03099           -2800.00
03100           -2800.00
03101           -2800.00
03102           -2800.00
03103           -2800.00
03104           -2880.00
03105           -2960.00
03106           -2880.00
03107           -3040.00
03108           -2960.00
03109           -3040.00
03110           -3040.00
03111           -3120.00
03112           -3120.00
03113           -3120.00
03114           -3040.00
03115           -3120.00
03116           -3120.00
03117           -3280.00
03118           -3200.00
03119           -3360.00
03120           -3280.00
03121           -3360.00
03122           -3360.00
03123           -3360.00
03124           -3360.00
03125           -3440.00
03126           -3440.00
03127           -3440.00
03128           -3440.00
03129           -3520.00
03130           -3600.00
03131           -3520.00
03132           -3600.00
03133           -3600.00
03134           -3600.00
03135           -3680.00
03136           -3680.00
03137           -3680.00
03138           -3760.00
03139           -3760.00
03140           -3760.00
03141           -3760.00
03142           -3760.00
03143           -3840.00
03144           -3760.00
03145           -3760.00
03146           -3840.00
03147           -3920.00
03148           -3920.00
03149           -3920.00
03150           -4000.00
03151           -4000.00
03152           -4000.00
03153           -4080.00
03154           -4080.00
03155           -4080.00
03156           -4080.00
03157           -4080.00
03158           -4080.00
03159           -4080.00
03160           -4080.00
03161           -4080.00
03162           -4080.00
03163           -4160.00
03164           -4080.00
03165           -4240.00
03166           -4320.00
03167           -4320.00
03168           -4320.00
03169           -4240.00
03170           -4320.00
03171           -4320.00
03172           -4320.00
03173           -4400.00
03174           -4400.00
03175           -4320.00
03176           -4400.00
03177           -4400.00
03178           -4400.00
03179           -4400.00
03180           -4480.00
03181           -4400.00
03182           -4560.00
03183           -4560.00
03184           -4480.00
03185           -4560.00
03186           -4560.00
03187           -4560.00
03188           -4560.00
03189           -4560.00
03190           -4640.00
03191           -4640.00
03192           -4640.00
03193           -4720.00
03194           -4640.00
03195           -4720.00
03196           -4720.00
03197           -4720.00
03198           -4720.00
03199           -4720.00
03200           -4720.00
03201           -4720.00
03202           -4720.00
03203           -4720.00
03204           -4880.00
03205           -4720.00
03206           -4880.00
03207           -4880.00
03208           -4880.00
03209           -4880.00
03210           -4880.00
03211           -4880.00
03212           -4960.00
03213           -4880.00
03214           -4960.00
03215           -4960.00
03216           -4960.00
03217           -4960.00
03218           -4960.00
03219           -4960.00
03220           -4880.00
03221           -4960.00
03222           -4960.00
03223           -4960.00
03224           -4960.00
03225           -4960.00
03226           -4960.00
03227           -4960.00
03228           -4960.00
03229           -4960.00
03230           -4960.00
03231           -5040.00
03232           -5040.00
03233           -4960.00
03234           -4960.00
03235           -5040.00
03236           -4960.00
03237           -5040.00
03238           -5040.00
03239           -5040.00
03240           -5040.00
03241           -5040.00
03242           -5040.00
03243           -5120.00
03244           -5040.00
03245           -5040.00
03246           -5040.00
03247           -5040.00
03248           -5120.00
03249           -5040.00
03250           -5040.00
03251           -5040.00
03252           -5040.00
03253           -5040.00
03254           -5040.00
03255           -5040.00
03256           -5040.00
03257           -5040.00
03258           -5040.00
03259           -5040.00
03260           -5040.00
03261           -5040.00
03262           -5040.00
03263           -5040.00
03264           -5040.00
03265           -5040.00
03266           -5040.00
03267           -5120.00
03268           -5040.00
03269           -5040.00
03270           -5040.00
03271           -5040.00
03272           -5040.00
03273           -5040.00
03274           -5120.00
03275           -5040.00
03276           -5040.00
03277           -5040.00
03278           -5040.00
03279           -5040.00
03280           -5040.00
03281           -5040.00
03282           -5040.00
03283           -5040.00
03284           -4960.00
03285           -5040.00
03286           -5040.00
03287           -5040.00
03288           -5040.00
03289           -4960.00
03290           -5040.00
03291           -5040.00
03292           -4960.00
03293           -4960.00
03294           -4960.00
03295           -4960.00
03296           -4960.00
03297           -4960.00
03298           -4960.00
03299           -4960.00
03300           -4960.00
03301           -4880.00
03302           -4960.00
03303           -4960.00
03304           -4880.00
03305           -4960.00
03306           -4800.00
03307           -4880.00
03308           -4880.00
03309           -4880.00
03310           -4880.00
03311           -4880.00
03312           -4800.00
03313           -4720.00
03314           -4720.00
03315           -4720.00
03316           -4720.00
03317           -4720.00
03318           -4720.00
03319           -4720.00
03320           -4720.00
03321           -4640.00
03322           -4720.00
03323           -4640.00
03324           -4720.00
03325           -4720.00
03326           -4640.00
03327           -4640.00
03328           -4640.00
03329           -4640.00
03330           -4640.00
03331           -4640.00
03332           -4720.00
03333           -4560.00
03334           -4560.00
03335           -4640.00
03336           -4560.00
03337           -4560.00
03338           -4640.00
03339           -4560.00
03340           -4480.00
03341           -4480.00
03342           -4400.00
03343           -4400.00
03344           -4400.00
03345           -4400.00
03346           -4400.00
03347           -4400.00
03348           -4400.00
03349           -4320.00
03350           -4320.00
03351           -4320.00
03352           -4320.00
03353           -4320.00
03354           -4240.00
03355           -4240.00
03356           -4160.00
03357           -4240.00
03358           -4080.00
03359           -4080.00
03360           -4160.00
03361           -4240.00
03362           -4080.00
03363           -4080.00
03364           -4080.00
03365           -4080.00
03366           -4000.00
03367           -4000.00
03368           -3920.00
03369           -4000.00
03370           -4000.00
03371           -3920.00
03372           -3920.00
03373           -3920.00
03374           -3840.00
03375           -3840.00
03376           -3760.00
03377           -3840.00
03378           -3760.00
03379           -3760.00
03380           -3760.00
03381           -3680.00
03382           -3760.00
03383           -3680.00
03384           -3680.00
03385           -3680.00
03386           -3600.00
03387           -3600.00
03388           -3600.00
03389           -3600.00
03390           -3520.00
03391           -3520.00
03392           -3600.00
03393           -3520.00
03394           -3440.00
03395           -3440.00
03396           -3440.00
03397           -3440.00
03398           -3360.00
03399           -3360.00
03400           -3360.00
03401           -3280.00
03402           -3280.00
03403           -3280.00
03404           -3280.00
03405           -3280.00
03406           -3120.00
03407           -3120.00
03408           -3120.00
03409           -3120.00
03410           -3040.00
03411           -3040.00
03412           -3040.00
03413           -3040.00
03414           -3040.00
03415           -2960.00
03416           -2960.00
03417           -2880.00
03418           -2960.00
03419           -2800.00
03420           -2800.00
03421           -2800.00
03422           -2800.00
03423           -2800.00
03424           -2720.00
03425           -2720.00
03426           -2720.00
03427           -2640.00
03428           -2640.00
03429           -2640.00
03430           -2560.00
03431           -2480.00
03432           -2480.00
03433           -2400.00
03434           -2480.00
03435           -2400.00
03436           -2400.00
03437           -2400.00
03438           -2400.00
03439           -2320.00
03440           -2320.00
03441           -2320.00
03442           -2160.00
03443           -2160.00
03444           -2160.00
03445           -2080.00
03446           -2160.00
03447           -2080.00
03448           -2080.00
03449           -2080.00
03450           -2000.00
03451           -2000.00
03452           -1920.00
03453           -2000.00
03454           -1920.00
03455           -1840.00
03456           -1840.00
03457           -1760.00
03458           -1840.00
03459           -1760.00
03460           -1760.00
03461           -1760.00
03462           -1680.00
03463           -1600.00
03464           -1680.00
03465           -1520.00
03466           -1520.00
03467           -1520.00
03468           -1440.00
03469           -1520.00
03470           -1440.00
03471           -1440.00
03472           -1440.00
03473           -1360.00
03474           -1280.00
03475           -1280.00
03476           -1360.00
03477           -1200.00
03478           -1200.00
03479           -1120.00
03480           -1120.00
03481           -1120.00
03482           -1120.00
03483           -1040.00
03484           -1040.00
03485           -1040.00
03486            -960.00
03487            -880.00
03488            -880.00
03489            -880.00
03490            -800.00
03491            -800.00
03492            -800.00
03493            -720.00
03494            -720.00
03495            -560.00
03496            -720.00
03497            -560.00
03498            -560.00
03499            -480.00
03500            -480.00
03501            -480.00
03502            -400.00
03503            -400.00
03504            -400.00
03505            -240.00
03506            -320.00
03507            -240.00
03508            -240.00
03509            -160.00
03510            -240.00
03511            -160.00
03512            -160.00
03513             -80.00
03514            -160.00
03515             -80.00
03516               0.00
03517              80.00
03518              80.00
03519              80.00
03520             160.00
03521             160.00
03522             160.00
03523             240.00
03524             240.00
03525             240.00
03526             320.00
03527             320.00
03528             240.00
03529             320.00
03530             400.00
03531             560.00
03532             480.00
03533             480.00
03534             480.00
03535             560.00
03536             560.00
03537             720.00
03538             720.00
03539             720.00
03540             720.00
03541             800.00
03542             800.00
03543             800.00
03544             880.00
03545             880.00
03546             960.00
03547            1040.00
03548             880.00
03549            1040.00
03550            1120.00
03551            1120.00
03552            1120.00
03553            1200.00
03554            1200.00
03555            1200.00
03556            1280.00
03557            1280.00
03558            1280.00
03559            1360.00
03560            1360.00
03561            1440.00
03562            1440.00
03563            1440.00
03564            1440.00
03565            1520.00
03566            1520.00
03567            1680.00
03568            1600.00
03569            1680.00
03570            1680.00
03571            1760.00
03572            1760.00
03573            1760.00
03574            1760.00
03575            1840.00
03576            1840.00
03577            1840.00
03578            2000.00
03579            2000.00
03580            2080.00
03581            2000.00
03582            2080.00
03583            2080.00
03584            2080.00
03585            2080.00
03586            2160.00
03587            2160.00
03588            2160.00
03589            2160.00
03590            2240.00
03591            2320.00
03592            2320.00
03593            2320.00
03594            2320.00
03595            2400.00
03596            2400.00
03597            2400.00
03598            2480.00
03599            2480.00
03600            2480.00
03601            2560.00
03602            2640.00
03603            2640.00
03604            2640.00
03605            2720.00
03606            2720.00
03607            2720.00
03608            2720.00
03609            2800.00
03610            2800.00
03611            2800.00
03612            2800.00
03613            2960.00
03614            2960.00
03615            2960.00
03616            3040.00
03617            2960.00
03618            3040.00
03619            3040.00
03620            3040.00
03621            3120.00
03622            3040.00
03623            3120.00
03624            3120.00
03625            3280.00
03626            3120.00
03627            3280.00
03628            3280.00
03629            3360.00
03630            3360.00
03631            3360.00
03632            3360.00
03633            3360.00
03634            3360.00
03635            3440.00
03636            3440.00
03637            3440.00
03638            3600.00
03639            3600.00
03640            3600.00
03641            3600.00
03642            3600.00
03643            3600.00
03644            3600.00
03645            3680.00
03646            3680.00
03647            3760.00
03648            3760.00
03649            3760.00
03650            3760.00
03651            3840.00
03652            3760.00
03653            3840.00
03654            3920.00
03655            3840.00
03656            3920.00
03657            3920.00
03658            3920.00
03659            3920.00
03660            4000.00
03661            4000.00
03662            4000.00
03663            4000.00
03664            4000.00
03665            4080.00
03666            4000.00
03667            4080.00
03668            4080.00
03669            4080.00
03670            4160.00
03671            4240.00
03672            4240.00
03673            4240.00
03674            4240.00
03675            4240.00
03676            4240.00
03677            4240.00
03678            4240.00
03679            4320.00
03680            4320.00
03681            4320.00
03682            4400.00
03683            4400.00
03684            4400.00
03685            4400.00
03686            4400.00
03687            4400.00
03688            4400.00
03689            4480.00
03690            4560.00
03691            4560.00
03692            4560.00
03693            4560.00
03694            4640.00
03695            4640.00
03696            4560.00
03697            4640.00
03698            4640.00
03699            4640.00
03700            4640.00
03701            4720.00
03702            4640.00
03703            4640.00
03704            4720.00
03705            4640.00
03706            4720.00
03707            4720.00
03708            4720.00
03709            4720.00
03710            4720.00
03711            4800.00
03712            4720.00
03713            4880.00
03714            4800.00
03715            4880.00
03716            4880.00
03717            4880.00
03718            4880.00
03719            4880.00
03720            4880.00
03721            4880.00
03722            4880.00
03723            4880.00
03724            4880.00
03725            4880.00
03726            4880.00
03727            4880.00
03728            4880.00
03729            4960.00
03730            4960.00
03731            4960.00
03732            4960.00
03733            4880.00
03734            4960.00
03735            4960.00
03736            4960.00
03737            4960.00
03738            4960.00
03739            4960.00
03740            5040.00
03741            5040.00
03742            5040.00
03743            4960.00
03744            5040.00
03745            5040.00
03746            5040.00
03747            5040.00
03748            5040.00
03749            5200.00
03750            5040.00
03751            5040.00
03752            5040.00
03753            5040.00
03754            5040.00
03755            5120.00
03756            5200.00
03757            5120.00
03758            5040.00
03759            5200.00
03760            5200.00
03761            5120.00
03762            5120.00
03763            5200.00
03764            5200.00
03765            5200.00
03766            5200.00
03767            5200.00
03768            5200.00
03769            5200.00
03770            5200.00
03771            5120.00
03772            5200.00
03773            5120.00
03774            5200.00
03775            5200.00
03776            5200.00
03777            5200.00
03778            5040.00
03779            5120.00
03780            5200.00
03781            5040.00
03782            5120.00
03783            5040.00
03784            5040.00
03785            5040.00
03786            5120.00
03787            5040.00
03788            5040.00
03789            5040.00
03790            5040.00
03791            5040.00
03792            5040.00
03793            5040.00
03794            4960.00
03795            5040.00
03796            5040.00
03797            5040.00
03798            5040.00
03799            5040.00
03800            4960.00
03801            5040.00
03802            4960.00
03803            4960.00
03804            4960.00
03805            4960.00
03806            4960.00
03807            4880.00
03808            4960.00
03809            4960.00
03810            4960.00
03811            4880.00
03812            4960.00
03813            4880.00
03814            4960.00
03815            4960.00
03816            4960.00
03817            4880.00
03818            4880.00
03819            4880.00
03820            4880.00
03821            4880.00
03822            4880.00
03823            4880.00
03824            4880.00
03825            4880.00
03826            4720.00
03827            4720.00
03828            4880.00
03829            4720.00
03830            4720.00
03831            4720.00
03832            4720.00
03833            4720.00
03834            4720.00
03835            4720.00
03836            4640.00
03837            4640.00
03838            4640.00
03839            4640.00
03840            4640.00
03841            4640.00
03842            4640.00
03843            4640.00
03844            4640.00
03845            4560.00
03846            4560.00
03847            4560.00
03848            4560.00
03849            4480.00
03850            4560.00
03851            4400.00
03852            4400.00
03853            4400.00
03854            4400.00
03855            4400.00
03856            4400.00
03857            4320.00
03858            4320.00
03859            4320.00
03860            4320.00
03861            4320.00
03862            4240.00
03863            4320.00
03864            4240.00
03865            4240.00
03866            4240.00
03867            4240.00
03868            4240.00
03869            4160.00
03870            4160.00
03871            4080.00
03872            4160.00
03873            4080.00
03874            4160.00
03875            4080.00
03876            4080.00
03877            4080.00
03878            4000.00
03879            3920.00
03880            4000.00
03881            4000.00
03882            3920.00
03883            3920.00
03884            3920.00
03885            3920.00
03886            3920.00
03887            3920.00
03888            3920.00
03889            3760.00
03890            3760.00
03891            3760.00
03892            3680.00
03893            3760.00
03894            3680.00
03895            3680.00
03896            3600.00
03897            3680.00
03898            3600.00
03899            3600.00
03900            3600.00
03901            3600.00
03902            3600.00
03903            3600.00
03904            3440.00
03905            3440.00
03906            3440.00
03907            3360.00
03908            3360.00
03909            3360.00
03910            3360.00
03911            3360.00
03912            3280.00
03913            3280.00
03914            3280.00
03915            3200.00
03916            3120.00
03917            3200.00
03918            3120.00
03919            3120.00
03920            3040.00
03921            3040.00
03922            3040.00
03923            3040.00
03924            2960.00
03925            2960.00
03926            2960.00
03927            2960.00
03928            2800.00
03929            2960.00
03930            2800.00
03931            2800.00
03932            2800.00
03933            2720.00
03934            2720.00
03935            2720.00
03936            2720.00
03937            2640.00
03938            2640.00
03939            2560.00
03940            2640.00
03941            2560.00
03942            2640.00
03943            2480.00
03944            2480.00
03945            2480.00
03946            2400.00
03947            2400.00
03948            2400.00
03949            2320.00
03950            2320.00
03951            2320.00
03952            2320.00
03953            2240.00
03954            2160.00
03955            2160.00
03956            2080.00
03957            2160.00
03958            2080.00
03959            2080.00
03960            2080.00
03961            2000.00
03962            2000.00
03963            1920.00
03964            1920.00
03965            1840.00
03966            1840.00
03967            1920.00
03968            1760.00
03969            1760.00
03970            1760.00
03971            1680.00
03972            1680.00
03973            1680.00
03974            1680.00
03975            1600.00
03976            1520.00
03977            1440.00
03978            1440.00
03979            1440.00
03980            1440.00
03981            1440.00
03982            1360.00
03983            1280.00
03984            1360.00
03985            1280.00
03986            1200.00
03987            1200.00
03988            1120.00
03989            1120.00
03990            1120.00
03991            1040.00
03992            1040.00
03993            1040.00
03994            1040.00
03995             960.00
03996             960.00
03997             880.00
03998             800.00
03999             880.00
04000             800.00
04001             720.00
04002             720.00
04003             720.00
04004             720.00
04005             720.00
04006             640.00
04007             560.00
04008             560.00
04009             480.00
04010             560.00
04011             480.00
04012             480.00
04013             480.00
04014             400.00
04015             400.00
04016             240.00
04017             240.00
04018             240.00
04019             240.00
04020             160.00
04021             160.00
04022             160.00
04023             160.00
04024              80.00
04025              80.00
04026              80.00
04027              80.00
04028               0.00
04029             -80.00
04030            -160.00
04031            -160.00
04032            -160.00
04033            -160.00
04034            -240.00
04035            -240.00
04036            -240.00
04037            -400.00
04038            -400.00
04039            -320.00
04040            -240.00
04041            -400.00
04042            -480.00
04043            -480.00
04044            -560.00
04045            -560.00
04046            -640.00
04047            -720.00
04048            -720.00
04049            -720.00
04050            -720.00
04051            -800.00
04052            -880.00
04053            -880.00
04054            -880.00
04055            -880.00
04056            -880.00
04057           -1040.00
04058           -1040.00
04059           -1120.00
04060           -1040.00
04061           -1120.00
04062           -1120.00
04063           -1120.00
04064           -1200.00
04065           -1200.00
04066           -1200.00
04067           -1360.00
04068           -1360.00
04069           -1360.00
04070           -1360.00
04071           -1440.00
04072           -1440.00
04073           -1440.00
04074           -1520.00
04075           -1520.00
04076           -1440.00
04077           -1600.00
04078           -1680.00
04079           -1520.00
04080           -1680.00
04081           -1680.00
04082           -1760.00
04083           -1680.00
04084           -1760.00
04085           -1840.00
04086           -1840.00
04087           -1840.00
04088           -1840.00
04089           -1920.00
04090           -1840.00
04091           -2000.00
04092           -2000.00
04093           -2080.00
04094           -2080.00
04095           -2080.00
04096           -2080.00
04097           -2160.00
04098           -2160.00
04099           -2160.00
04100           -2160.00
04101           -2320.00
04102           -2320.00
04103           -2320.00
04104           -2400.00
04105           -2400.00
04106           -2480.00
04107           -2480.00
04108           -2480.00
04109           -2480.00
04110           -2560.00
04111           -2640.00
04112           -2640.00
04113           -2640.00
04114           -2640.00
04115           -2720.00
04116           -2720.00
04117           -2720.00
04118           -2720.00
04119           -2800.00
04120           -2800.00
04121           -2800.00
04122           -2800.00
04123           -2880.00
04124           -2960.00
04125           -2960.00
04126           -2960.00
04127           -3040.00
04128           -3040.00
04129           -3040.00
04130           -3120.00
04131           -3120.00
04132           -3120.00
04133           -3120.00
04134           -3200.00
04135           -3120.00
04136           -3200.00
04137           -3280.00
04138           -3280.00
04139           -3280.00
04140           -3360.00
04141           -3360.00
04142           -3360.00
04143           -3360.00
04144           -3440.00
04145           -3440.00
04146           -3440.00
04147           -3440.00
04148           -3520.00
04149           -3440.00
04150           -3440.00
04151           -3600.00
04152           -3600.00
04153           -3600.00
04154           -3680.00
04155           -3680.00
04156           -3680.00
04157           -3680.00
04158           -3680.00
04159           -3680.00
04160           -3680.00
04161           -3760.00
04162           -3760.00
04163           -3760.00
04164           -3760.00
04165           -3760.00
04166           -3920.00
04167           -3920.00
04168           -3920.00
04169           -3920.00
04170           -3920.00
04171           -4000.00
04172           -4000.00
04173           -4000.00
04174           -4080.00
04175           -4000.00
04176           -4080.00
04177           -4080.00
04178           -4080.00
04179           -4160.00
04180           -4160.00
04181           -4160.00
04182           -4240.00
04183           -4240.00
04184           -4240.00
04185           -4240.00
04186           -4240.00
04187           -4320.00
04188           -4320.00
04189           -4320.00
04190           -4320.00
04191           -4320.00
04192           -4400.00
04193           -4400.00
04194           -4400.00
04195           -4400.00
04196           -4480.00
04197           -4400.00
04198           -4480.00
04199           -4560.00
04200           -4560.00
04201           -4560.00
04202           -4560.00
04203           -4560.00
04204           -4560.00
04205           -4560.00
04206           -4560.00
04207           -4640.00
04208           -4640.00
04209           -4560.00
04210           -4640.00
04211           -4640.00
04212           -4640.00
04213           -4640.00
04214           -4720.00
04215           -4640.00
04216           -4720.00
04217           -4640.00
04218           -4720.00
04219           -4720.00
04220           -4720.00
04221           -4720.00
04222           -4720.00
04223           -4720.00
04224           -4720.00
04225           -4880.00
04226           -4800.00
04227           -4800.00
04228           -4880.00
04229           -4880.00
04230           -4880.00
04231           -4880.00
04232           -4880.00
04233           -4960.00
04234           -4960.00
04235           -4880.00
04236           -4880.00
04237           -4960.00
04238           -4960.00
04239           -4960.00
04240           -4960.00
04241           -4960.00
04242           -4960.00
04243           -4960.00
04244           -4960.00
04245           -4960.00
04246           -4960.00
04247           -4960.00
04248           -4960.00
04249           -4960.00
04250           -5040.00
04251           -5040.00
04252           -5040.00
04253           -5040.00
04254           -5040.00
04255           -5040.00
04256           -5040.00
04257           -5040.00
04258           -5040.00
04259           -5040.00
04260           -5040.00
04261           -5040.00
04262           -5040.00
04263           -5040.00
04264           -5040.00
04265           -5040.00
04266           -5040.00
04267           -5040.00
04268           -5120.00
04269           -5040.00
04270           -5040.00
04271           -5040.00
04272           -5120.00
04273           -5040.00
04274           -5040.00
04275           -5040.00
04276           -5120.00
04277           -5040.00
04278           -5040.00
04279           -5040.00
04280           -5040.00
04281           -5040.00
04282           -5040.00
04283           -5040.00
04284           -5120.00
04285           -5040.00
04286           -5040.00
04287           -5040.00
04288           -5040.00
04289           -5040.00
04290           -5040.00
04291           -5040.00
04292           -5040.00
04293           -5040.00
04294           -5040.00
04295           -5040.00
04296           -5040.00
04297           -5040.00
04298           -5040.00
04299           -5040.00
04300           -4960.00
04301           -5040.00
04302           -4960.00
04303           -5040.00
04304           -5040.00
04305           -5040.00
04306           -5040.00
04307           -5040.00
04308           -5040.00
04309           -5040.00
04310           -4960.00
04311           -5040.00
04312           -4960.00
04313           -4960.00
04314           -4960.00
04315           -4960.00
04316           -4960.00
04317           -4960.00
04318           -4960.00
04319           -4960.00
04320           -4960.00
04321           -4960.00
04322           -4960.00
04323           -4880.00
04324           -4880.00
04325           -4960.00
04326           -4960.00
04327           -4880.00
04328           -4960.00
04329           -4880.00
04330           -4880.00
04331           -4880.00
04332           -4880.00
04333           -4880.00
04334           -4880.00
04335           -4720.00
04336           -4720.00
04337           -4720.00
04338           -4800.00
04339           -4720.00
04340           -4720.00
04341           -4720.00
04342           -4640.00
04343           -4720.00
04344           -4640.00
04345           -4720.00
04346           -4640.00
04347           -4640.00
04348           -4640.00
04349           -4640.00
04350           -4640.00
04351           -4640.00
04352           -4560.00
04353           -4560.00
04354           -4560.00
04355           -4560.00
04356           -4560.00
04357           -4400.00
04358           -4560.00
04359           -4560.00
04360           -4400.00
04361           -4400.00
04362           -4400.00
04363           -4400.00
04364           -4400.00
04365           -4400.00
04366           -4400.00
04367           -4400.00
04368           -4320.00
04369           -4320.00
04370           -4320.00
04371           -4320.00
04372           -4320.00
04373           -4320.00
04374           -4240.00
04375           -4240.00
04376           -4240.00
04377           -4240.00
04378           -4240.00
04379           -4080.00
04380           -4240.00
04381           -4080.00
04382           -4080.00
04383           -4080.00
04384           -4080.00
04385           -4080.00
04386           -4080.00
04387           -4000.00
04388           -4000.00
04389           -3920.00
04390           -4000.00
04391           -3920.00
04392           -4000.00
04393           -3920.00
04394           -3760.00
04395           -3840.00
04396           -3840.00
04397           -3760.00
04398           -3760.00
04399           -3760.00
04400           -3760.00
04401           -3760.00
04402           -3680.00
04403           -3680.00
04404           -3680.00
04405           -3680.00
04406           -3600.00
04407           -3600.00
04408           -3600.00
04409           -3600.00
04410           -3600.00
04411           -3440.00
04412           -3440.00
04413           -3440.00
04414           -3440.00
04415           -3440.00
04416           -3360.00
04417           -3360.00
04418           -3360.00
04419           -3360.00
04420           -3360.00
04421           -3280.00
04422           -3280.00
04423           -3280.00
04424           -3120.00
04425           -3280.00
04426           -3200.00
04427           -3120.00
04428           -3120.00
04429           -3040.00
04430           -3040.00
04431           -3040.00
04432           -2960.00
04433           -2960.00
04434           -2960.00
04435           -2960.00
04436           -2960.00
04437           -2960.00
04438           -2960.00
04439           -2880.00
04440           -2800.00
04441           -2800.00
04442           -2800.00
04443           -2800.00
04444           -2720.00
04445           -2720.00
04446           -2720.00
04447           -2640.00
04448           -2560.00
04449           -2640.00
04450           -2640.00
04451           -2480.00
04452           -2480.00
04453           -2400.00
04454           -2480.00
04455           -2400.00
04456           -2400.00
04457           -2400.00
04458           -2400.00
04459           -2400.00
04460           -2240.00
04461           -2320.00
04462           -2160.00
04463           -2160.00
04464           -2160.00
04465           -2160.00
04466           -2160.00
04467           -2080.00
04468           -2080.00
04469           -2000.00
04470           -2000.00
04471           -1920.00
04472           -1840.00
04473           -1840.00
04474           -1840.00
04475           -1840.00
04476           -1840.00
04477           -1760.00
04478           -1760.00
04479           -1680.00
04480           -1680.00
04481           -1600.00
04482           -1680.00
04483           -1680.00
04484           -1520.00
04485           -1520.00
04486           -1520.00
04487           -1440.00
04488           -1440.00
04489           -1440.00
04490           -1360.00
04491           -1440.00
04492           -1360.00
04493           -1360.00
04494           -1280.00
04495           -1200.00
04496           -1200.00
04497           -1120.00
04498           -1200.00
04499           -1120.00
04500           -1120.00
04501           -1120.00
04502           -1040.00
04503           -1040.00
04504            -960.00
04505            -960.00
04506            -880.00
04507            -880.00
04508            -880.00
04509            -880.00
04510            -800.00
04511            -800.00
04512            -720.00
04513            -720.00
04514            -720.00
04515            -720.00
04516            -640.00
04517            -560.00
04518            -560.00
04519            -480.00
04520            -480.00
04521            -480.00
04522            -480.00
04523            -400.00
04524            -400.00
04525            -320.00
04526            -240.00
04527            -240.00
04528            -160.00
04529            -240.00
04530            -160.00
04531            -160.00
04532            -160.00
04533             -80.00
04534             -80.00
04535             -80.00
04536               0.00
04537              80.00
04538              80.00
04539              80.00
04540             160.00
04541             160.00
04542             160.00
04543             240.00
04544             240.00
04545             400.00
04546             240.00
04547             400.00
04548             320.00
04549             400.00
04550             560.00
04551             560.00
04552             480.00
04553             560.00
04554             560.00
04555             720.00
04556             720.00
04557             720.00
04558             720.00
04559             720.00
04560             800.00
04561             800.00
04562             800.00
04563             800.00
04564             880.00
04565             880.00
04566             960.00
04567            1040.00
04568             880.00
04569            1040.00
04570            1120.00
04571            1120.00
04572            1120.00
04573            1200.00
04574            1120.00
04575            1200.00
04576            1200.00
04577            1280.00
04578            1360.00
04579            1360.00
04580            1440.00
04581            1360.00
04582            1440.00
04583            1360.00
04584            1440.00
04585            1520.00
04586            1520.00
04587            1680.00
04588            1520.00
04589            1680.00
04590            1680.00
04591            1680.00
04592            1680.00
04593            1760.00
04594            1760.00
04595            1840.00
04596            1840.00
04597            1840.00
04598            1840.00
04599            2000.00
04600            2000.00
04601            2080.00
04602            2000.00
04603            2080.00
04604            2080.00
04605            2160.00
04606            2160.00
04607            2160.00
04608            2160.00
04609            2240.00
04610            2320.00
04611            2320.00
04612            2320.00
04613            2320.00
04614            2400.00
04615            2400.00
04616            2480.00
04617            2480.00
04618            2480.00
04619            2640.00
04620            2640.00
04621            2640.00
04622            2640.00
04623            2640.00
04624            2640.00
04625            2720.00
04626            2720.00
04627            2720.00
04628            2720.00
04629            2720.00
04630            2800.00
04631            2800.00
04632            2800.00
04633            2960.00
04634            2960.00
04635            2960.00
04636            2960.00
04637            3040.00
04638            3040.00
04639            3040.00
04640            3040.00
04641            3120.00
04642            3120.00
04643            3120.00
04644            3280.00
04645            3120.00
04646            3280.00
04647            3280.00
04648            3280.00
04649            3360.00
04650            3280.00
04651            3360.00
04652            3360.00
04653            3360.00
04654            3440.00
04655            3440.00
04656            3360.00
04657            3520.00
04658            3600.00
04659            3600.00
04660            3600.00
04661            3600.00
04662            3600.00
04663            3600.00
04664            3680.00
04665            3680.00
04666            3680.00
04667            3760.00
04668            3760.00
04669            3760.00
04670            3920.00
04671            3760.00
04672            3920.00
04673            3840.00
04674            3920.00
04675            3920.00
04676            3920.00
04677            3920.00
04678            4000.00
04679            4000.00
04680            4000.00
04681            4000.00
04682            4000.00
04683            4000.00
04684            4080.00
04685            4080.00
04686            4000.00
04687            4160.00
04688            4080.00
04689            4160.00
04690            4240.00
04691            4240.00
04692            4240.00
04693            4240.00
04694            4320.00
04695            4240.00
04696            4240.00
04697            4320.00
04698            4320.00
04699            4320.00
04700            4320.00
04701            4320.00
04702            4400.00
04703            4320.00
04704            4400.00
04705            4400.00
04706            4400.00
04707            4480.00
04708            4400.00
04709            4560.00
04710            4400.00
04711            4560.00
04712            4480.00
04713            4560.00
04714            4640.00
04715            4560.00
04716            4560.00
04717            4560.00
04718            4640.00
04719            4640.00
04720            4640.00
04721            4640.00
04722            4640.00
04723            4640.00
04724            4640.00
04725            4720.00
04726            4720.00
04727            4720.00
04728            4720.00
04729            4720.00
04730            4880.00
04731            4720.00
04732            4880.00
04733            4720.00
04734            4880.00
04735            4880.00
04736            4880.00
04737            4880.00
04738            4880.00
04739            4880.00
04740            4880.00
04741            4880.00
04742            4880.00
04743            4960.00
04744            4880.00
04745            4960.00
04746            4880.00
04747            4960.00
04748            4960.00
04749            4960.00
04750            4960.00
04751            4960.00
04752            5040.00
04753            4960.00
04754            4960.00
04755            4960.00
04756            5040.00
04757            4960.00
04758            4960.00
04759            4960.00
04760            4960.00
04761            5040.00
04762            5040.00
04763            5040.00
04764            5040.00
04765            5040.00
04766            5040.00
04767            5040.00
04768            5040.00
04769            5040.00
04770            5040.00
04771            5040.00
04772            5040.00
04773            5040.00
04774            5040.00
04775            5040.00
04776            5120.00
04777            5040.00
04778            5040.00
04779            5040.00
04780            5120.00
04781            5120.00
04782            5040.00
04783            5040.00
04784            5040.00
04785            5120.00
04786            5200.00
04787            5040.00
04788            5120.00
04789            5200.00
04790            5120.00
04791            5040.00
04792            5200.00
04793            5200.00
04794            5040.00
04795            5040.00
04796            5040.00
04797            5200.00
04798            5200.00
04799            5040.00
04800            5200.00
04801            5120.00
04802            5200.00
04803            5040.00
04804            5200.00
04805            5200.00
04806            5120.00
04807            5040.00
04808            5200.00
04809            5040.00
04810            5200.00
04811            5040.00
04812            5040.00
04813            5120.00
04814            5120.00
04815            5040.00
04816            5040.00
04817            5040.00
04818            5040.00
04819            5040.00
04820            5040.00
04821            5040.00
04822            4960.00
04823            5040.00
04824            5040.00
04825            5040.00
04826            4960.00
04827            4960.00
04828            4960.00
04829            4960.00
04830            4960.00
04831            4880.00
04832            4880.00
04833            4880.00
04834            4880.00
04835            4880.00
04836            4880.00
04837            4880.00
04838            4880.00
04839            4880.00
04840            4880.00
04841            4880.00
04842            4880.00
04843            4880.00
04844            4880.00
04845            4720.00
04846            4800.00
04847            4720.00
04848            4720.00
04849            4720.00
04850            4720.00
04851            4720.00
04852            4720.00
04853            4720.00
04854            4640.00
04855            4640.00
04856            4640.00
04857            4720.00
04858            4640.00
04859            4640.00
04860            4640.00
04861            4640.00
04862            4640.00
04863            4640.00
04864            4640.00
04865            4560.00
04866            4560.00
04867            4560.00
04868            4560.00
04869            4560.00
04870            4480.00
04871            4400.00
04872            4400.00
04873            4480.00
04874            4400.00
04875            4480.00
04876            4400.00
04877            4400.00
04878            4320.00
04879            4400.00
04880            4320.00
04881            4320.00
04882            4320.00
04883            4240.00
04884            4320.00
04885            4240.00
04886            4240.00
04887            4240.00
04888            4240.00
04889            4240.00
04890            4080.00
04891            4080.00
04892            4080.00
04893            4000.00
04894            4080.00
04895            4000.00
04896            4000.00
04897            4000.00
04898            4000.00
04899            3920.00
04900            3920.00
04901            3920.00
04902            3920.00
04903            3920.00
04904            3920.00
04905            3920.00
04906            3840.00
04907            3760.00
04908            3840.00
04909            3760.00
04910            3760.00
04911            3680.00
04912            3680.00
04913            3680.00
04914            3680.00
04915            3600.00
04916            3600.00
04917            3600.00
04918            3600.00
04919            3600.00
04920            3600.00
04921            3520.00
04922            3440.00
04923            3440.00
04924            3440.00
04925            3360.00
04926            3440.00
04927            3360.00
04928            3360.00
04929            3360.00
04930            3360.00
04931            3360.00
04932            3360.00
04933            3280.00
04934            3280.00
04935            3200.00
04936            3120.00
04937            3120.00
04938            3120.00
04939            3120.00
04940            3040.00
04941            3040.00
04942            3040.00
04943            2960.00
04944            2960.00
04945            2960.00
04946            2960.00
04947            2960.00
04948            2880.00
04949            2960.00
04950            2800.00
04951            2880.00
04952            2800.00
04953            2720.00
04954            2720.00
04955            2640.00
04956            2640.00
04957            2640.00
04958            2640.00
04959            2640.00
04960            2560.00
04961            2480.00
04962            2480.00
04963            2400.00
04964            2400.00
04965            2400.00
04966            2400.00
04967            2320.00
04968            2320.00
04969            2320.00
04970            2320.00
04971            2160.00
04972            2240.00
04973            2080.00
04974            2080.00
04975            2160.00
04976            2080.00
04977            2080.00
04978            2080.00
04979            2000.00
04980            2000.00
04981            2000.00
04982            2000.00
04983            1920.00
04984            1840.00
04985            1840.00
04986            1840.00
04987            1840.00
04988            1760.00
04989            1760.00
04990            1680.00
04991            1680.00
04992            1680.00
04993            1680.00
04994            1680.00
04995            1600.00
04996            1440.00
04997            1600.00
04998            1440.00
04999            1440.00
05000            1360.00
