Unit:(mV)
                     CH1
Frequency     98.097 kHz
00001           -1920.00
00002           -2000.00
00003           -2000.00
00004           -2080.00
00005           -2080.00
00006           -2080.00
00007           -2160.00
00008           -2160.00
00009           -2320.00
00010           -2320.00
00011           -2400.00
00012           -2400.00
00013           -2400.00
00014           -2400.00
00015           -2400.00
00016           -2480.00
00017           -2480.00
00018           -2480.00
00019           -2640.00
00020           -2640.00
00021           -2720.00
00022           -2720.00
00023           -2720.00
00024           -2800.00
00025           -2800.00
00026           -2800.00
00027           -2800.00
00028           -2800.00
00029           -2960.00
00030           -3040.00
00031           -2960.00
00032           -3040.00
00033           -3040.00
00034           -3120.00
00035           -3120.00
00036           -3120.00
00037           -3280.00
00038           -3200.00
00039           -3280.00
00040           -3280.00
00041           -3360.00
00042           -3360.00
00043           -3360.00
00044           -3440.00
00045           -3440.00
00046           -3440.00
00047           -3600.00
00048           -3600.00
00049           -3600.00
00050           -3680.00
00051           -3680.00
00052           -3760.00
00053           -3760.00
00054           -3840.00
00055           -3760.00
00056           -3840.00
00057           -3920.00
00058           -3920.00
00059           -3920.00
00060           -4000.00
00061           -4000.00
00062           -4000.00
00063           -4080.00
00064           -4080.00
00065           -4080.00
00066           -4080.00
00067           -4240.00
00068           -4240.00
00069           -4240.00
00070           -4240.00
00071           -4320.00
00072           -4320.00
00073           -4320.00
00074           -4320.00
00075           -4320.00
00076           -4400.00
00077           -4400.00
00078           -4400.00
00079           -4400.00
00080           -4480.00
00081           -4560.00
00082           -4560.00
00083           -4560.00
00084           -4640.00
00085           -4640.00
00086           -4720.00
00087           -4720.00
00088           -4720.00
00089           -4720.00
00090           -4800.00
00091           -4720.00
00092           -4880.00
00093           -4880.00
00094           -4880.00
00095           -4880.00
00096           -4960.00
00097           -4960.00
00098           -4960.00
00099           -4960.00
00100           -4960.00
00101           -5040.00
00102           -5040.00
00103           -5040.00
00104           -5200.00
00105           -5120.00
00106           -5200.00
00107           -5200.00
00108           -5280.00
00109           -5280.00
00110           -5280.00
00111           -5280.00
00112           -5360.00
00113           -5360.00
00114           -5360.00
00115           -5360.00
00116           -5360.00
00117           -5360.00
00118           -5440.00
00119           -5360.00
00120           -5440.00
00121           -5520.00
00122           -5600.00
00123           -5520.00
00124           -5520.00
00125           -5600.00
00126           -5600.00
00127           -5600.00
00128           -5600.00
00129           -5600.00
00130           -5600.00
00131           -5600.00
00132           -5680.00
00133           -5680.00
00134           -5680.00
00135           -5760.00
00136           -5680.00
00137           -5680.00
00138           -5840.00
00139           -5840.00
00140           -5840.00
00141           -5840.00
00142           -5840.00
00143           -5840.00
00144           -5920.00
00145           -5920.00
00146           -5840.00
00147           -5920.00
00148           -5920.00
00149           -5920.00
00150           -5920.00
00151           -5920.00
00152           -5920.00
00153           -5920.00
00154           -6000.00
00155           -5920.00
00156           -6000.00
00157           -6000.00
00158           -6000.00
00159           -6000.00
00160           -6080.00
00161           -6000.00
00162           -6000.00
00163           -6080.00
00164           -6000.00
00165           -6160.00
00166           -6080.00
00167           -6160.00
00168           -6160.00
00169           -6160.00
00170           -6160.00
00171           -6160.00
00172           -6160.00
00173           -6160.00
00174           -6160.00
00175           -6240.00
00176           -6160.00
00177           -6160.00
00178           -6240.00
00179           -6240.00
00180           -6240.00
00181           -6160.00
00182           -6240.00
00183           -6240.00
00184           -6240.00
00185           -6160.00
00186           -6240.00
00187           -6240.00
00188           -6320.00
00189           -6240.00
00190           -6240.00
00191           -6240.00
00192           -6240.00
00193           -6240.00
00194           -6240.00
00195           -6320.00
00196           -6320.00
00197           -6240.00
00198           -6320.00
00199           -6240.00
00200           -6240.00
00201           -6240.00
00202           -6240.00
00203           -6240.00
00204           -6320.00
00205           -6240.00
00206           -6320.00
00207           -6320.00
00208           -6240.00
00209           -6240.00
00210           -6240.00
00211           -6320.00
00212           -6240.00
00213           -6240.00
00214           -6240.00
00215           -6240.00
00216           -6240.00
00217           -6240.00
00218           -6240.00
00219           -6240.00
00220           -6240.00
00221           -6240.00
00222           -6240.00
00223           -6240.00
00224           -6240.00
00225           -6240.00
00226           -6240.00
00227           -6240.00
00228           -6240.00
00229           -6160.00
00230           -6240.00
00231           -6160.00
00232           -6240.00
00233           -6240.00
00234           -6160.00
00235           -6160.00
00236           -6240.00
00237           -6160.00
00238           -6160.00
00239           -6160.00
00240           -6160.00
00241           -6160.00
00242           -6000.00
00243           -6160.00
00244           -6080.00
00245           -6000.00
00246           -6000.00
00247           -6000.00
00248           -6000.00
00249           -6000.00
00250           -6000.00
00251           -6000.00
00252           -6000.00
00253           -6000.00
00254           -6000.00
00255           -6000.00
00256           -6000.00
00257           -6000.00
00258           -5920.00
00259           -5920.00
00260           -5920.00
00261           -5920.00
00262           -5840.00
00263           -5920.00
00264           -5840.00
00265           -5840.00
00266           -5840.00
00267           -5840.00
00268           -5840.00
00269           -5680.00
00270           -5680.00
00271           -5680.00
00272           -5680.00
00273           -5680.00
00274           -5600.00
00275           -5680.00
00276           -5600.00
00277           -5600.00
00278           -5600.00
00279           -5600.00
00280           -5600.00
00281           -5600.00
00282           -5600.00
00283           -5520.00
00284           -5520.00
00285           -5520.00
00286           -5360.00
00287           -5520.00
00288           -5360.00
00289           -5360.00
00290           -5360.00
00291           -5360.00
00292           -5360.00
00293           -5360.00
00294           -5360.00
00295           -5280.00
00296           -5360.00
00297           -5280.00
00298           -5280.00
00299           -5280.00
00300           -5200.00
00301           -5200.00
00302           -5200.00
00303           -5200.00
00304           -5200.00
00305           -5120.00
00306           -5040.00
00307           -5040.00
00308           -5040.00
00309           -5040.00
00310           -4960.00
00311           -4960.00
00312           -4960.00
00313           -4880.00
00314           -4880.00
00315           -4880.00
00316           -4880.00
00317           -4880.00
00318           -4880.00
00319           -4720.00
00320           -4720.00
00321           -4720.00
00322           -4720.00
00323           -4640.00
00324           -4640.00
00325           -4640.00
00326           -4640.00
00327           -4560.00
00328           -4480.00
00329           -4400.00
00330           -4400.00
00331           -4480.00
00332           -4400.00
00333           -4400.00
00334           -4400.00
00335           -4320.00
00336           -4320.00
00337           -4320.00
00338           -4320.00
00339           -4240.00
00340           -4240.00
00341           -4160.00
00342           -4080.00
00343           -4080.00
00344           -4000.00
00345           -4080.00
00346           -4000.00
00347           -3920.00
00348           -4000.00
00349           -3920.00
00350           -3920.00
00351           -3920.00
00352           -3840.00
00353           -3760.00
00354           -3760.00
00355           -3680.00
00356           -3680.00
00357           -3680.00
00358           -3680.00
00359           -3600.00
00360           -3600.00
00361           -3520.00
00362           -3440.00
00363           -3440.00
00364           -3440.00
00365           -3440.00
00366           -3440.00
00367           -3360.00
00368           -3360.00
00369           -3360.00
00370           -3280.00
00371           -3280.00
00372           -3280.00
00373           -3120.00
00374           -3120.00
00375           -3120.00
00376           -3040.00
00377           -3120.00
00378           -3040.00
00379           -2960.00
00380           -2960.00
00381           -2960.00
00382           -2880.00
00383           -2800.00
00384           -2800.00
00385           -2800.00
00386           -2720.00
00387           -2720.00
00388           -2720.00
00389           -2720.00
00390           -2640.00
00391           -2560.00
00392           -2480.00
00393           -2400.00
00394           -2480.00
00395           -2400.00
00396           -2400.00
00397           -2400.00
00398           -2320.00
00399           -2160.00
00400           -2320.00
00401           -2160.00
00402           -2160.00
00403           -2080.00
00404           -2080.00
00405           -2080.00
00406           -2000.00
00407           -2000.00
00408           -2000.00
00409           -1840.00
00410           -1840.00
00411           -1840.00
00412           -1760.00
00413           -1760.00
00414           -1760.00
00415           -1680.00
00416           -1680.00
00417           -1680.00
00418           -1520.00
00419           -1520.00
00420           -1520.00
00421           -1440.00
00422           -1440.00
00423           -1440.00
00424           -1360.00
00425           -1360.00
00426           -1360.00
00427           -1200.00
00428           -1200.00
00429           -1120.00
00430           -1120.00
00431           -1120.00
00432           -1120.00
00433           -1040.00
00434            -960.00
00435            -880.00
00436            -880.00
00437            -880.00
00438            -880.00
00439            -800.00
00440            -800.00
00441            -720.00
00442            -720.00
00443            -720.00
00444            -560.00
00445            -560.00
00446            -480.00
00447            -480.00
00448            -480.00
00449            -400.00
00450            -400.00
00451            -400.00
00452            -240.00
00453            -320.00
00454            -240.00
00455            -240.00
00456            -160.00
00457            -160.00
00458            -160.00
00459             -80.00
00460              80.00
00461               0.00
00462              80.00
00463             160.00
00464             160.00
00465             240.00
00466             240.00
00467             240.00
00468             320.00
00469             400.00
00470             480.00
00471             480.00
00472             480.00
00473             480.00
00474             560.00
00475             560.00
00476             640.00
00477             720.00
00478             720.00
00479             720.00
00480             800.00
00481             880.00
00482             880.00
00483             880.00
00484            1040.00
00485            1040.00
00486            1040.00
00487            1120.00
00488            1120.00
00489            1200.00
00490            1120.00
00491            1200.00
00492            1200.00
00493            1360.00
00494            1360.00
00495            1360.00
00496            1360.00
00497            1440.00
00498            1440.00
00499            1440.00
00500            1520.00
00501            1600.00
00502            1680.00
00503            1680.00
00504            1680.00
00505            1760.00
00506            1760.00
00507            1760.00
00508            1840.00
00509            1840.00
00510            1920.00
00511            2000.00
00512            2000.00
00513            2080.00
00514            2080.00
00515            2160.00
00516            2160.00
00517            2160.00
00518            2160.00
00519            2320.00
00520            2320.00
00521            2320.00
00522            2400.00
00523            2400.00
00524            2400.00
00525            2480.00
00526            2480.00
00527            2640.00
00528            2640.00
00529            2640.00
00530            2720.00
00531            2720.00
00532            2720.00
00533            2800.00
00534            2800.00
00535            2800.00
00536            2960.00
00537            2960.00
00538            2960.00
00539            2960.00
00540            3040.00
00541            3040.00
00542            3120.00
00543            3120.00
00544            3200.00
00545            3280.00
00546            3280.00
00547            3280.00
00548            3280.00
00549            3360.00
00550            3360.00
00551            3440.00
00552            3440.00
00553            3440.00
00554            3600.00
00555            3520.00
00556            3440.00
00557            3600.00
00558            3600.00
00559            3680.00
00560            3680.00
00561            3760.00
00562            3760.00
00563            3760.00
00564            3760.00
00565            3760.00
00566            3920.00
00567            3920.00
00568            3920.00
00569            4000.00
00570            4000.00
00571            4000.00
00572            4000.00
00573            4080.00
00574            4080.00
00575            4080.00
00576            4240.00
00577            4240.00
00578            4240.00
00579            4240.00
00580            4320.00
00581            4240.00
00582            4320.00
00583            4400.00
00584            4400.00
00585            4400.00
00586            4400.00
00587            4400.00
00588            4560.00
00589            4560.00
00590            4560.00
00591            4640.00
00592            4640.00
00593            4640.00
00594            4720.00
00595            4720.00
00596            4720.00
00597            4800.00
00598            4880.00
00599            4880.00
00600            4800.00
00601            4880.00
00602            4880.00
00603            4880.00
00604            4880.00
00605            5040.00
00606            4960.00
00607            5040.00
00608            4960.00
00609            5040.00
00610            5200.00
00611            5120.00
00612            5200.00
00613            5200.00
00614            5200.00
00615            5200.00
00616            5280.00
00617            5280.00
00618            5200.00
00619            5280.00
00620            5280.00
00621            5280.00
00622            5360.00
00623            5360.00
00624            5360.00
00625            5440.00
00626            5440.00
00627            5440.00
00628            5440.00
00629            5520.00
00630            5520.00
00631            5520.00
00632            5520.00
00633            5520.00
00634            5520.00
00635            5600.00
00636            5600.00
00637            5600.00
00638            5600.00
00639            5600.00
00640            5680.00
00641            5680.00
00642            5680.00
00643            5840.00
00644            5680.00
00645            5840.00
00646            5680.00
00647            5760.00
00648            5840.00
00649            5840.00
00650            5840.00
00651            5840.00
00652            5840.00
00653            5840.00
00654            5920.00
00655            5920.00
00656            5920.00
00657            5920.00
00658            5920.00
00659            6000.00
00660            5920.00
00661            6000.00
00662            6000.00
00663            6000.00
00664            6000.00
00665            6160.00
00666            6000.00
00667            6160.00
00668            6160.00
00669            6160.00
00670            6160.00
00671            6160.00
00672            6160.00
00673            6160.00
00674            6240.00
00675            6160.00
00676            6160.00
00677            6160.00
00678            6160.00
00679            6160.00
00680            6160.00
00681            6240.00
00682            6160.00
00683            6240.00
00684            6240.00
00685            6160.00
00686            6240.00
00687            6240.00
00688            6240.00
00689            6160.00
00690            6240.00
00691            6240.00
00692            6240.00
00693            6240.00
00694            6240.00
00695            6320.00
00696            6240.00
00697            6320.00
00698            6240.00
00699            6240.00
00700            6240.00
00701            6320.00
00702            6320.00
00703            6240.00
00704            6240.00
00705            6240.00
00706            6240.00
00707            6320.00
00708            6320.00
00709            6240.00
00710            6320.00
00711            6320.00
00712            6320.00
00713            6320.00
00714            6320.00
00715            6320.00
00716            6320.00
00717            6320.00
00718            6240.00
00719            6240.00
00720            6240.00
00721            6240.00
00722            6320.00
00723            6320.00
00724            6320.00
00725            6240.00
00726            6320.00
00727            6240.00
00728            6240.00
00729            6320.00
00730            6240.00
00731            6240.00
00732            6240.00
00733            6240.00
00734            6240.00
00735            6240.00
00736            6240.00
00737            6320.00
00738            6240.00
00739            6240.00
00740            6240.00
00741            6240.00
00742            6160.00
00743            6240.00
00744            6240.00
00745            6240.00
00746            6160.00
00747            6240.00
00748            6160.00
00749            6160.00
00750            6160.00
00751            6160.00
00752            6160.00
00753            6160.00
00754            6080.00
00755            6160.00
00756            6080.00
00757            6160.00
00758            6160.00
00759            6000.00
00760            6000.00
00761            6000.00
00762            6000.00
00763            6000.00
00764            6000.00
00765            6000.00
00766            6000.00
00767            5920.00
00768            5920.00
00769            5920.00
00770            6000.00
00771            5920.00
00772            5920.00
00773            5920.00
00774            5920.00
00775            5840.00
00776            5840.00
00777            5840.00
00778            5840.00
00779            5840.00
00780            5840.00
00781            5840.00
00782            5840.00
00783            5760.00
00784            5760.00
00785            5680.00
00786            5680.00
00787            5680.00
00788            5680.00
00789            5600.00
00790            5600.00
00791            5520.00
00792            5600.00
00793            5600.00
00794            5600.00
00795            5520.00
00796            5520.00
00797            5520.00
00798            5520.00
00799            5520.00
00800            5440.00
00801            5440.00
00802            5440.00
00803            5360.00
00804            5360.00
00805            5360.00
00806            5360.00
00807            5280.00
00808            5280.00
00809            5280.00
00810            5280.00
00811            5200.00
00812            5200.00
00813            5200.00
00814            5120.00
00815            5200.00
00816            5120.00
00817            5040.00
00818            5040.00
00819            5040.00
00820            4960.00
00821            4960.00
00822            4960.00
00823            4880.00
00824            4880.00
00825            4880.00
00826            4880.00
00827            4880.00
00828            4880.00
00829            4720.00
00830            4720.00
00831            4720.00
00832            4640.00
00833            4640.00
00834            4640.00
00835            4640.00
00836            4560.00
00837            4640.00
00838            4560.00
00839            4480.00
00840            4480.00
00841            4480.00
00842            4400.00
00843            4320.00
00844            4400.00
00845            4320.00
00846            4320.00
00847            4320.00
00848            4240.00
00849            4240.00
00850            4240.00
00851            4240.00
00852            4240.00
00853            4160.00
00854            4080.00
00855            4080.00
00856            4080.00
00857            4000.00
00858            4000.00
00859            3920.00
00860            3920.00
00861            3920.00
00862            3920.00
00863            3920.00
00864            3760.00
00865            3760.00
00866            3760.00
00867            3760.00
00868            3680.00
00869            3600.00
00870            3600.00
00871            3600.00
00872            3600.00
00873            3520.00
00874            3520.00
00875            3440.00
00876            3440.00
00877            3360.00
00878            3360.00
00879            3360.00
00880            3360.00
00881            3280.00
00882            3280.00
00883            3120.00
00884            3200.00
00885            3120.00
00886            3120.00
00887            3040.00
00888            3040.00
00889            2960.00
00890            2960.00
00891            2960.00
00892            2800.00
00893            2960.00
00894            2800.00
00895            2720.00
00896            2720.00
00897            2720.00
00898            2640.00
00899            2640.00
00900            2640.00
00901            2640.00
00902            2480.00
00903            2480.00
00904            2400.00
00905            2400.00
00906            2400.00
00907            2320.00
00908            2320.00
00909            2320.00
00910            2320.00
00911            2160.00
00912            2160.00
00913            2080.00
00914            2160.00
00915            2080.00
00916            2080.00
00917            2000.00
00918            2000.00
00919            2000.00
00920            1840.00
00921            1840.00
00922            1840.00
00923            1760.00
00924            1760.00
00925            1760.00
00926            1680.00
00927            1600.00
00928            1680.00
00929            1520.00
00930            1520.00
00931            1440.00
00932            1520.00
00933            1440.00
00934            1360.00
00935            1360.00
00936            1360.00
00937            1360.00
00938            1200.00
00939            1200.00
00940            1200.00
00941            1120.00
00942            1120.00
00943            1040.00
00944            1040.00
00945            1040.00
00946             880.00
00947             880.00
00948             880.00
00949             800.00
00950             800.00
00951             800.00
00952             720.00
00953             560.00
00954             640.00
00955             560.00
00956             480.00
00957             480.00
00958             480.00
00959             480.00
00960             400.00
00961             400.00
00962             240.00
00963             240.00
00964             160.00
00965             160.00
00966             160.00
00967              80.00
00968              80.00
00969              80.00
00970               0.00
00971             -80.00
00972            -160.00
00973             -80.00
00974            -160.00
00975            -240.00
00976            -240.00
00977            -240.00
00978            -240.00
00979            -480.00
00980            -400.00
00981            -480.00
00982            -480.00
00983            -480.00
00984            -480.00
00985            -560.00
00986            -560.00
00987            -720.00
00988            -640.00
00989            -800.00
00990            -800.00
00991            -800.00
00992            -880.00
00993            -880.00
00994            -880.00
00995            -880.00
00996           -1040.00
00997           -1040.00
00998           -1120.00
00999           -1120.00
01000           -1120.00
01001           -1200.00
01002           -1200.00
01003           -1200.00
01004           -1280.00
01005           -1360.00
01006           -1360.00
01007           -1440.00
01008           -1440.00
01009           -1520.00
01010           -1520.00
01011           -1520.00
01012           -1600.00
01013           -1680.00
01014           -1680.00
01015           -1680.00
01016           -1760.00
01017           -1840.00
01018           -1840.00
01019           -1840.00
01020           -2000.00
01021           -2000.00
01022           -2000.00
01023           -2080.00
01024           -2080.00
01025           -2160.00
01026           -2160.00
01027           -2160.00
01028           -2240.00
01029           -2160.00
01030           -2320.00
01031           -2400.00
01032           -2400.00
01033           -2400.00
01034           -2480.00
01035           -2480.00
01036           -2480.00
01037           -2640.00
01038           -2560.00
01039           -2720.00
01040           -2720.00
01041           -2720.00
01042           -2800.00
01043           -2800.00
01044           -2800.00
01045           -2800.00
01046           -2800.00
01047           -2960.00
01048           -2960.00
01049           -3040.00
01050           -2960.00
01051           -3040.00
01052           -3040.00
01053           -3120.00
01054           -3120.00
01055           -3120.00
01056           -3200.00
01057           -3280.00
01058           -3280.00
01059           -3360.00
01060           -3360.00
01061           -3360.00
01062           -3360.00
01063           -3360.00
01064           -3440.00
01065           -3440.00
01066           -3520.00
01067           -3600.00
01068           -3600.00
01069           -3680.00
01070           -3680.00
01071           -3680.00
01072           -3680.00
01073           -3760.00
01074           -3760.00
01075           -3760.00
01076           -3840.00
01077           -3920.00
01078           -3920.00
01079           -3920.00
01080           -3920.00
01081           -4080.00
01082           -4000.00
01083           -4000.00
01084           -4080.00
01085           -4080.00
01086           -4160.00
01087           -4240.00
01088           -4240.00
01089           -4320.00
01090           -4320.00
01091           -4320.00
01092           -4320.00
01093           -4400.00
01094           -4320.00
01095           -4400.00
01096           -4400.00
01097           -4560.00
01098           -4400.00
01099           -4560.00
01100           -4560.00
01101           -4640.00
01102           -4640.00
01103           -4640.00
01104           -4640.00
01105           -4720.00
01106           -4640.00
01107           -4720.00
01108           -4720.00
01109           -4720.00
01110           -4880.00
01111           -4880.00
01112           -4800.00
01113           -4880.00
01114           -4880.00
01115           -4960.00
01116           -4960.00
01117           -4960.00
01118           -4960.00
01119           -5040.00
01120           -5040.00
01121           -5040.00
01122           -5040.00
01123           -5040.00
01124           -5120.00
01125           -5200.00
01126           -5200.00
01127           -5200.00
01128           -5280.00
01129           -5200.00
01130           -5200.00
01131           -5280.00
01132           -5280.00
01133           -5360.00
01134           -5360.00
01135           -5360.00
01136           -5360.00
01137           -5360.00
01138           -5360.00
01139           -5440.00
01140           -5440.00
01141           -5440.00
01142           -5520.00
01143           -5520.00
01144           -5520.00
01145           -5520.00
01146           -5600.00
01147           -5600.00
01148           -5600.00
01149           -5600.00
01150           -5600.00
01151           -5680.00
01152           -5680.00
01153           -5680.00
01154           -5680.00
01155           -5840.00
01156           -5680.00
01157           -5680.00
01158           -5840.00
01159           -5840.00
01160           -5840.00
01161           -5840.00
01162           -5920.00
01163           -5840.00
01164           -5920.00
01165           -5920.00
01166           -5920.00
01167           -5920.00
01168           -5920.00
01169           -5920.00
01170           -5920.00
01171           -6000.00
01172           -6000.00
01173           -5920.00
01174           -6000.00
01175           -6000.00
01176           -6000.00
01177           -6000.00
01178           -6000.00
01179           -6000.00
01180           -6000.00
01181           -6080.00
01182           -6000.00
01183           -6160.00
01184           -6160.00
01185           -6080.00
01186           -6160.00
01187           -6160.00
01188           -6080.00
01189           -6160.00
01190           -6160.00
01191           -6160.00
01192           -6160.00
01193           -6160.00
01194           -6160.00
01195           -6160.00
01196           -6240.00
01197           -6160.00
01198           -6160.00
01199           -6240.00
01200           -6240.00
01201           -6240.00
01202           -6240.00
01203           -6240.00
01204           -6160.00
01205           -6240.00
01206           -6240.00
01207           -6240.00
01208           -6240.00
01209           -6240.00
01210           -6240.00
01211           -6240.00
01212           -6240.00
01213           -6240.00
01214           -6240.00
01215           -6240.00
01216           -6240.00
01217           -6240.00
01218           -6320.00
01219           -6240.00
01220           -6240.00
01221           -6240.00
01222           -6240.00
01223           -6240.00
01224           -6240.00
01225           -6240.00
01226           -6320.00
01227           -6240.00
01228           -6240.00
01229           -6320.00
01230           -6320.00
01231           -6320.00
01232           -6320.00
01233           -6240.00
01234           -6240.00
01235           -6240.00
01236           -6240.00
01237           -6320.00
01238           -6240.00
01239           -6240.00
01240           -6240.00
01241           -6320.00
01242           -6240.00
01243           -6240.00
01244           -6240.00
01245           -6240.00
01246           -6240.00
01247           -6240.00
01248           -6160.00
01249           -6160.00
01250           -6240.00
01251           -6160.00
01252           -6160.00
01253           -6240.00
01254           -6240.00
01255           -6160.00
01256           -6160.00
01257           -6160.00
01258           -6160.00
01259           -6080.00
01260           -6160.00
01261           -6000.00
01262           -6080.00
01263           -6080.00
01264           -6000.00
01265           -6000.00
01266           -6000.00
01267           -6000.00
01268           -6000.00
01269           -6000.00
01270           -6000.00
01271           -6000.00
01272           -5920.00
01273           -6000.00
01274           -5920.00
01275           -6000.00
01276           -5920.00
01277           -5920.00
01278           -5920.00
01279           -5920.00
01280           -5920.00
01281           -5920.00
01282           -5920.00
01283           -5920.00
01284           -5840.00
01285           -5840.00
01286           -5840.00
01287           -5840.00
01288           -5840.00
01289           -5760.00
01290           -5760.00
01291           -5680.00
01292           -5680.00
01293           -5680.00
01294           -5760.00
01295           -5680.00
01296           -5600.00
01297           -5600.00
01298           -5600.00
01299           -5600.00
01300           -5600.00
01301           -5600.00
01302           -5600.00
01303           -5600.00
01304           -5520.00
01305           -5520.00
01306           -5520.00
01307           -5520.00
01308           -5440.00
01309           -5360.00
01310           -5360.00
01311           -5360.00
01312           -5360.00
01313           -5360.00
01314           -5280.00
01315           -5280.00
01316           -5280.00
01317           -5200.00
01318           -5200.00
01319           -5200.00
01320           -5200.00
01321           -5120.00
01322           -5200.00
01323           -5040.00
01324           -5040.00
01325           -5040.00
01326           -5040.00
01327           -4960.00
01328           -4960.00
01329           -4960.00
01330           -4960.00
01331           -4960.00
01332           -4960.00
01333           -4880.00
01334           -4720.00
01335           -4880.00
01336           -4800.00
01337           -4720.00
01338           -4720.00
01339           -4720.00
01340           -4640.00
01341           -4720.00
01342           -4640.00
01343           -4640.00
01344           -4640.00
01345           -4640.00
01346           -4560.00
01347           -4560.00
01348           -4560.00
01349           -4480.00
01350           -4480.00
01351           -4320.00
01352           -4400.00
01353           -4400.00
01354           -4320.00
01355           -4320.00
01356           -4240.00
01357           -4320.00
01358           -4320.00
01359           -4240.00
01360           -4160.00
01361           -4160.00
01362           -4080.00
01363           -4080.00
01364           -4080.00
01365           -4000.00
01366           -4000.00
01367           -4000.00
01368           -4000.00
01369           -3920.00
01370           -3920.00
01371           -3920.00
01372           -3760.00
01373           -3760.00
01374           -3760.00
01375           -3680.00
01376           -3680.00
01377           -3680.00
01378           -3600.00
01379           -3680.00
01380           -3600.00
01381           -3600.00
01382           -3440.00
01383           -3440.00
01384           -3440.00
01385           -3360.00
01386           -3360.00
01387           -3360.00
01388           -3360.00
01389           -3280.00
01390           -3280.00
01391           -3200.00
01392           -3120.00
01393           -3120.00
01394           -3040.00
01395           -3120.00
01396           -3040.00
01397           -3040.00
01398           -3040.00
01399           -2960.00
01400           -2800.00
01401           -2800.00
01402           -2800.00
01403           -2800.00
01404           -2720.00
01405           -2720.00
01406           -2720.00
01407           -2640.00
01408           -2640.00
01409           -2640.00
01410           -2640.00
01411           -2480.00
01412           -2560.00
01413           -2480.00
01414           -2480.00
01415           -2400.00
01416           -2400.00
01417           -2320.00
01418           -2320.00
01419           -2320.00
01420           -2160.00
01421           -2160.00
01422           -2160.00
01423           -2080.00
01424           -2160.00
01425           -2080.00
01426           -2000.00
01427           -2000.00
01428           -1840.00
01429           -1840.00
01430           -1840.00
01431           -1760.00
01432           -1840.00
01433           -1760.00
01434           -1680.00
01435           -1680.00
01436           -1680.00
01437           -1600.00
01438           -1520.00
01439           -1520.00
01440           -1440.00
01441           -1440.00
01442           -1440.00
01443           -1360.00
01444           -1280.00
01445           -1280.00
01446           -1200.00
01447           -1200.00
01448           -1120.00
01449           -1120.00
01450           -1040.00
01451           -1120.00
01452           -1040.00
01453           -1040.00
01454            -880.00
01455            -880.00
01456            -880.00
01457            -800.00
01458            -800.00
01459            -800.00
01460            -720.00
01461            -640.00
01462            -640.00
01463            -560.00
01464            -480.00
01465            -560.00
01466            -480.00
01467            -480.00
01468            -480.00
01469            -320.00
01470            -240.00
01471            -240.00
01472            -240.00
01473            -240.00
01474            -160.00
01475            -160.00
01476             -80.00
01477             -80.00
01478             -80.00
01479             -80.00
01480              80.00
01481              80.00
01482              80.00
01483             160.00
01484             160.00
01485             240.00
01486             240.00
01487             240.00
01488             400.00
01489             400.00
01490             480.00
01491             480.00
01492             480.00
01493             480.00
01494             480.00
01495             640.00
01496             640.00
01497             640.00
01498             720.00
01499             800.00
01500             800.00
01501             800.00
01502             800.00
01503             880.00
01504             960.00
01505            1040.00
01506            1040.00
01507            1040.00
01508            1120.00
01509            1120.00
01510            1200.00
01511            1200.00
01512            1280.00
01513            1360.00
01514            1360.00
01515            1360.00
01516            1440.00
01517            1440.00
01518            1440.00
01519            1520.00
01520            1680.00
01521            1600.00
01522            1680.00
01523            1680.00
01524            1760.00
01525            1760.00
01526            1760.00
01527            1840.00
01528            2000.00
01529            1840.00
01530            2000.00
01531            2000.00
01532            2080.00
01533            2080.00
01534            2080.00
01535            2160.00
01536            2160.00
01537            2240.00
01538            2320.00
01539            2320.00
01540            2320.00
01541            2400.00
01542            2400.00
01543            2400.00
01544            2480.00
01545            2480.00
01546            2480.00
01547            2640.00
01548            2640.00
01549            2640.00
01550            2720.00
01551            2720.00
01552            2720.00
01553            2720.00
01554            2800.00
01555            2880.00
01556            2800.00
01557            2960.00
01558            2960.00
01559            3040.00
01560            3040.00
01561            3040.00
01562            3120.00
01563            3120.00
01564            3200.00
01565            3280.00
01566            3280.00
01567            3280.00
01568            3360.00
01569            3360.00
01570            3360.00
01571            3360.00
01572            3440.00
01573            3440.00
01574            3440.00
01575            3520.00
01576            3600.00
01577            3600.00
01578            3600.00
01579            3680.00
01580            3680.00
01581            3680.00
01582            3760.00
01583            3840.00
01584            3920.00
01585            3920.00
01586            3920.00
01587            3920.00
01588            4000.00
01589            4000.00
01590            4000.00
01591            4080.00
01592            4080.00
01593            4080.00
01594            4160.00
01595            4240.00
01596            4240.00
01597            4240.00
01598            4320.00
01599            4240.00
01600            4320.00
01601            4320.00
01602            4400.00
01603            4400.00
01604            4400.00
01605            4560.00
01606            4400.00
01607            4560.00
01608            4480.00
01609            4560.00
01610            4560.00
01611            4640.00
01612            4560.00
01613            4640.00
01614            4640.00
01615            4640.00
01616            4640.00
01617            4720.00
01618            4880.00
01619            4880.00
01620            4800.00
01621            4880.00
01622            4880.00
01623            4880.00
01624            4880.00
01625            4960.00
01626            4960.00
01627            4960.00
01628            4960.00
01629            5040.00
01630            5040.00
01631            5120.00
01632            5200.00
01633            5200.00
01634            5200.00
01635            5200.00
01636            5200.00
01637            5200.00
01638            5280.00
01639            5280.00
01640            5280.00
01641            5280.00
01642            5360.00
01643            5360.00
01644            5360.00
01645            5360.00
01646            5360.00
01647            5440.00
01648            5520.00
01649            5520.00
01650            5520.00
01651            5600.00
01652            5520.00
01653            5600.00
01654            5600.00
01655            5680.00
01656            5600.00
01657            5600.00
01658            5680.00
01659            5680.00
01660            5680.00
01661            5680.00
01662            5840.00
01663            5840.00
01664            5680.00
01665            5840.00
01666            5840.00
01667            5840.00
01668            5840.00
01669            5840.00
01670            5840.00
01671            5840.00
01672            5840.00
01673            5840.00
01674            5920.00
01675            5920.00
01676            5920.00
01677            5920.00
01678            6000.00
01679            6000.00
01680            5920.00
01681            6000.00
01682            5920.00
01683            6000.00
01684            6080.00
01685            6080.00
01686            6000.00
01687            6080.00
01688            6160.00
01689            6160.00
01690            6160.00
01691            6080.00
01692            6160.00
01693            6160.00
01694            6160.00
01695            6160.00
01696            6160.00
01697            6160.00
01698            6160.00
01699            6160.00
01700            6160.00
01701            6160.00
01702            6240.00
01703            6160.00
01704            6240.00
01705            6160.00
01706            6240.00
01707            6240.00
01708            6240.00
01709            6240.00
01710            6240.00
01711            6240.00
01712            6240.00
01713            6240.00
01714            6240.00
01715            6240.00
01716            6240.00
01717            6240.00
01718            6240.00
01719            6240.00
01720            6320.00
01721            6320.00
01722            6320.00
01723            6320.00
01724            6320.00
01725            6320.00
01726            6240.00
01727            6320.00
01728            6320.00
01729            6320.00
01730            6240.00
01731            6320.00
01732            6320.00
01733            6240.00
01734            6320.00
01735            6320.00
01736            6320.00
01737            6240.00
01738            6320.00
01739            6240.00
01740            6240.00
01741            6240.00
01742            6320.00
01743            6320.00
01744            6240.00
01745            6240.00
01746            6240.00
01747            6240.00
01748            6320.00
01749            6240.00
01750            6240.00
01751            6240.00
01752            6320.00
01753            6240.00
01754            6240.00
01755            6240.00
01756            6240.00
01757            6240.00
01758            6240.00
01759            6240.00
01760            6160.00
01761            6160.00
01762            6240.00
01763            6160.00
01764            6160.00
01765            6160.00
01766            6240.00
01767            6160.00
01768            6160.00
01769            6240.00
01770            6160.00
01771            6160.00
01772            6160.00
01773            6160.00
01774            6160.00
01775            6160.00
01776            6160.00
01777            6000.00
01778            6160.00
01779            6160.00
01780            6000.00
01781            6000.00
01782            6080.00
01783            6000.00
01784            6000.00
01785            5920.00
01786            6000.00
01787            6000.00
01788            6000.00
01789            5920.00
01790            5920.00
01791            5920.00
01792            5920.00
01793            5920.00
01794            5920.00
01795            5840.00
01796            5920.00
01797            5840.00
01798            5840.00
01799            5840.00
01800            5680.00
01801            5840.00
01802            5680.00
01803            5680.00
01804            5680.00
01805            5680.00
01806            5600.00
01807            5680.00
01808            5600.00
01809            5600.00
01810            5600.00
01811            5600.00
01812            5520.00
01813            5600.00
01814            5600.00
01815            5520.00
01816            5520.00
01817            5520.00
01818            5440.00
01819            5520.00
01820            5360.00
01821            5360.00
01822            5360.00
01823            5360.00
01824            5280.00
01825            5280.00
01826            5280.00
01827            5280.00
01828            5280.00
01829            5200.00
01830            5200.00
01831            5200.00
01832            5200.00
01833            5120.00
01834            5200.00
01835            5040.00
01836            5040.00
01837            5040.00
01838            5040.00
01839            4960.00
01840            4960.00
01841            4960.00
01842            4960.00
01843            4960.00
01844            4880.00
01845            4880.00
01846            4880.00
01847            4880.00
01848            4800.00
01849            4720.00
01850            4720.00
01851            4720.00
01852            4640.00
01853            4640.00
01854            4640.00
01855            4640.00
01856            4640.00
01857            4640.00
01858            4560.00
01859            4400.00
01860            4480.00
01861            4480.00
01862            4400.00
01863            4400.00
01864            4400.00
01865            4320.00
01866            4320.00
01867            4240.00
01868            4240.00
01869            4240.00
01870            4160.00
01871            4160.00
01872            4080.00
01873            4000.00
01874            4080.00
01875            4000.00
01876            4000.00
01877            4000.00
01878            4000.00
01879            4000.00
01880            3920.00
01881            3920.00
01882            3840.00
01883            3760.00
01884            3760.00
01885            3680.00
01886            3680.00
01887            3680.00
01888            3600.00
01889            3600.00
01890            3520.00
01891            3600.00
01892            3440.00
01893            3440.00
01894            3520.00
01895            3440.00
01896            3360.00
01897            3360.00
01898            3360.00
01899            3360.00
01900            3280.00
01901            3280.00
01902            3280.00
01903            3120.00
01904            3120.00
01905            3120.00
01906            3040.00
01907            3040.00
01908            3040.00
01909            3040.00
01910            2960.00
01911            2960.00
01912            2960.00
01913            2800.00
01914            2800.00
01915            2720.00
01916            2720.00
01917            2720.00
01918            2720.00
01919            2720.00
01920            2640.00
01921            2640.00
01922            2480.00
01923            2480.00
01924            2480.00
01925            2400.00
01926            2400.00
01927            2320.00
01928            2320.00
01929            2320.00
01930            2240.00
01931            2160.00
01932            2160.00
01933            2080.00
01934            2080.00
01935            2080.00
01936            2000.00
01937            2000.00
01938            2000.00
01939            1840.00
01940            1840.00
01941            1840.00
01942            1760.00
01943            1760.00
01944            1680.00
01945            1680.00
01946            1680.00
01947            1680.00
01948            1520.00
01949            1520.00
01950            1520.00
01951            1440.00
01952            1440.00
01953            1360.00
01954            1360.00
01955            1360.00
01956            1280.00
01957            1200.00
01958            1200.00
01959            1120.00
01960            1120.00
01961            1040.00
01962            1040.00
01963            1040.00
01964             960.00
01965            1040.00
01966             800.00
01967             800.00
01968             800.00
01969             800.00
01970             720.00
01971             720.00
01972             720.00
01973             640.00
01974             560.00
01975             560.00
01976             560.00
01977             480.00
01978             480.00
01979             400.00
01980             400.00
01981             320.00
01982             240.00
01983             240.00
01984             160.00
01985             160.00
01986             160.00
01987              80.00
01988             160.00
01989             -80.00
01990               0.00
01991               0.00
01992             -80.00
01993            -160.00
01994            -160.00
01995            -240.00
01996            -240.00
01997            -240.00
01998            -400.00
01999            -400.00
02000            -480.00
02001            -480.00
02002            -480.00
02003            -480.00
02004            -560.00
02005            -560.00
02006            -720.00
02007            -800.00
02008            -800.00
02009            -800.00
02010            -800.00
02011            -880.00
02012            -880.00
02013            -880.00
02014            -960.00
02015           -1040.00
02016           -1040.00
02017           -1120.00
02018           -1120.00
02019           -1120.00
02020           -1200.00
02021           -1200.00
02022           -1280.00
02023           -1360.00
02024           -1440.00
02025           -1360.00
02026           -1440.00
02027           -1520.00
02028           -1440.00
02029           -1520.00
02030           -1520.00
02031           -1680.00
02032           -1680.00
02033           -1680.00
02034           -1760.00
02035           -1760.00
02036           -1840.00
02037           -1840.00
02038           -1840.00
02039           -1840.00
02040           -1840.00
02041           -2000.00
02042           -2080.00
02043           -2080.00
02044           -2080.00
02045           -2080.00
02046           -2160.00
02047           -2160.00
02048           -2160.00
02049           -2240.00
02050           -2320.00
02051           -2400.00
02052           -2320.00
02053           -2400.00
02054           -2400.00
02055           -2480.00
02056           -2480.00
02057           -2480.00
02058           -2640.00
02059           -2640.00
02060           -2640.00
02061           -2720.00
02062           -2800.00
02063           -2800.00
02064           -2800.00
02065           -2800.00
02066           -2800.00
02067           -2960.00
02068           -2960.00
02069           -3040.00
02070           -3040.00
02071           -3120.00
02072           -3040.00
02073           -3120.00
02074           -3120.00
02075           -3120.00
02076           -3280.00
02077           -3280.00
02078           -3280.00
02079           -3360.00
02080           -3360.00
02081           -3440.00
02082           -3440.00
02083           -3440.00
02084           -3520.00
02085           -3600.00
02086           -3600.00
02087           -3600.00
02088           -3680.00
02089           -3680.00
02090           -3680.00
02091           -3680.00
02092           -3680.00
02093           -3680.00
02094           -3840.00
02095           -3760.00
02096           -3920.00
02097           -3920.00
02098           -3920.00
02099           -4000.00
02100           -4000.00
02101           -4000.00
02102           -4080.00
02103           -4080.00
02104           -4080.00
02105           -4080.00
02106           -4080.00
02107           -4240.00
02108           -4240.00
02109           -4240.00
02110           -4240.00
02111           -4320.00
02112           -4320.00
02113           -4320.00
02114           -4400.00
02115           -4400.00
02116           -4400.00
02117           -4400.00
02118           -4400.00
02119           -4560.00
02120           -4400.00
02121           -4560.00
02122           -4640.00
02123           -4640.00
02124           -4640.00
02125           -4640.00
02126           -4720.00
02127           -4720.00
02128           -4720.00
02129           -4880.00
02130           -4880.00
02131           -4880.00
02132           -4960.00
02133           -4960.00
02134           -4960.00
02135           -4960.00
02136           -4960.00
02137           -5040.00
02138           -5040.00
02139           -5040.00
02140           -5040.00
02141           -5200.00
02142           -5200.00
02143           -5120.00
02144           -5200.00
02145           -5200.00
02146           -5280.00
02147           -5280.00
02148           -5200.00
02149           -5280.00
02150           -5280.00
02151           -5360.00
02152           -5360.00
02153           -5360.00
02154           -5360.00
02155           -5360.00
02156           -5360.00
02157           -5360.00
02158           -5360.00
02159           -5440.00
02160           -5520.00
02161           -5520.00
02162           -5520.00
02163           -5520.00
02164           -5520.00
02165           -5600.00
02166           -5600.00
02167           -5600.00
02168           -5600.00
02169           -5600.00
02170           -5600.00
02171           -5600.00
02172           -5680.00
02173           -5680.00
02174           -5680.00
02175           -5680.00
02176           -5680.00
02177           -5680.00
02178           -5680.00
02179           -5840.00
02180           -5760.00
02181           -5840.00
02182           -5840.00
02183           -5840.00
02184           -5920.00
02185           -5840.00
02186           -5920.00
02187           -5920.00
02188           -5920.00
02189           -6000.00
02190           -6000.00
02191           -5920.00
02192           -5920.00
02193           -6000.00
02194           -6000.00
02195           -6000.00
02196           -6000.00
02197           -6000.00
02198           -6000.00
02199           -6000.00
02200           -6000.00
02201           -6000.00
02202           -6080.00
02203           -6160.00
02204           -6080.00
02205           -6160.00
02206           -6080.00
02207           -6160.00
02208           -6160.00
02209           -6160.00
02210           -6160.00
02211           -6240.00
02212           -6240.00
02213           -6160.00
02214           -6160.00
02215           -6240.00
02216           -6240.00
02217           -6240.00
02218           -6160.00
02219           -6240.00
02220           -6240.00
02221           -6160.00
02222           -6240.00
02223           -6240.00
02224           -6240.00
02225           -6240.00
02226           -6240.00
02227           -6240.00
02228           -6240.00
02229           -6240.00
02230           -6240.00
02231           -6240.00
02232           -6240.00
02233           -6240.00
02234           -6240.00
02235           -6240.00
02236           -6240.00
02237           -6240.00
02238           -6240.00
02239           -6240.00
02240           -6240.00
02241           -6240.00
02242           -6240.00
02243           -6240.00
02244           -6240.00
02245           -6240.00
02246           -6240.00
02247           -6240.00
02248           -6240.00
02249           -6240.00
02250           -6160.00
02251           -6240.00
02252           -6240.00
02253           -6240.00
02254           -6240.00
02255           -6240.00
02256           -6240.00
02257           -6240.00
02258           -6240.00
02259           -6240.00
02260           -6240.00
02261           -6240.00
02262           -6240.00
02263           -6160.00
02264           -6240.00
02265           -6240.00
02266           -6240.00
02267           -6160.00
02268           -6240.00
02269           -6160.00
02270           -6160.00
02271           -6240.00
02272           -6160.00
02273           -6240.00
02274           -6160.00
02275           -6160.00
02276           -6240.00
02277           -6160.00
02278           -6160.00
02279           -6160.00
02280           -6160.00
02281           -6160.00
02282           -6080.00
02283           -6000.00
02284           -6160.00
02285           -6160.00
02286           -6000.00
02287           -6080.00
02288           -6000.00
02289           -6000.00
02290           -6000.00
02291           -6000.00
02292           -6000.00
02293           -5920.00
02294           -5920.00
02295           -6000.00
02296           -5920.00
02297           -5920.00
02298           -5920.00
02299           -5920.00
02300           -5840.00
02301           -5920.00
02302           -5920.00
02303           -5840.00
02304           -5840.00
02305           -5840.00
02306           -5840.00
02307           -5680.00
02308           -5760.00
02309           -5760.00
02310           -5680.00
02311           -5760.00
02312           -5680.00
02313           -5680.00
02314           -5680.00
02315           -5600.00
02316           -5600.00
02317           -5600.00
02318           -5600.00
02319           -5520.00
02320           -5600.00
02321           -5600.00
02322           -5520.00
02323           -5520.00
02324           -5600.00
02325           -5520.00
02326           -5520.00
02327           -5360.00
02328           -5440.00
02329           -5360.00
02330           -5360.00
02331           -5360.00
02332           -5360.00
02333           -5360.00
02334           -5280.00
02335           -5280.00
02336           -5280.00
02337           -5280.00
02338           -5280.00
02339           -5200.00
02340           -5200.00
02341           -5120.00
02342           -5200.00
02343           -5040.00
02344           -5040.00
02345           -5040.00
02346           -5040.00
02347           -5040.00
02348           -4960.00
02349           -4960.00
02350           -4960.00
02351           -4960.00
02352           -4960.00
02353           -4880.00
02354           -4880.00
02355           -4800.00
02356           -4720.00
02357           -4720.00
02358           -4720.00
02359           -4640.00
02360           -4720.00
02361           -4640.00
02362           -4640.00
02363           -4640.00
02364           -4560.00
02365           -4560.00
02366           -4560.00
02367           -4480.00
02368           -4480.00
02369           -4480.00
02370           -4400.00
02371           -4320.00
02372           -4400.00
02373           -4320.00
02374           -4320.00
02375           -4240.00
02376           -4240.00
02377           -4240.00
02378           -4160.00
02379           -4080.00
02380           -4240.00
02381           -4080.00
02382           -4080.00
02383           -4080.00
02384           -4000.00
02385           -4080.00
02386           -4000.00
02387           -4000.00
02388           -3920.00
02389           -3920.00
02390           -3760.00
02391           -3760.00
02392           -3840.00
02393           -3760.00
02394           -3760.00
02395           -3680.00
02396           -3680.00
02397           -3680.00
02398           -3680.00
02399           -3600.00
02400           -3600.00
02401           -3520.00
02402           -3440.00
02403           -3440.00
02404           -3440.00
02405           -3360.00
02406           -3440.00
02407           -3360.00
02408           -3360.00
02409           -3280.00
02410           -3280.00
02411           -3280.00
02412           -3120.00
02413           -3120.00
02414           -3120.00
02415           -3040.00
02416           -3040.00
02417           -3040.00
02418           -2960.00
02419           -2960.00
02420           -2800.00
02421           -2800.00
02422           -2800.00
02423           -2800.00
02424           -2720.00
02425           -2720.00
02426           -2720.00
02427           -2640.00
02428           -2640.00
02429           -2560.00
02430           -2480.00
02431           -2480.00
02432           -2480.00
02433           -2400.00
02434           -2400.00
02435           -2400.00
02436           -2320.00
02437           -2320.00
02438           -2160.00
02439           -2160.00
02440           -2160.00
02441           -2080.00
02442           -2080.00
02443           -2000.00
02444           -2080.00
02445           -2000.00
02446           -2000.00
02447           -1920.00
02448           -1840.00
02449           -1840.00
02450           -1760.00
02451           -1840.00
02452           -1760.00
02453           -1760.00
02454           -1680.00
02455           -1680.00
02456           -1680.00
02457           -1680.00
02458           -1520.00
02459           -1520.00
02460           -1520.00
02461           -1440.00
02462           -1440.00
02463           -1360.00
02464           -1360.00
02465           -1360.00
02466           -1200.00
02467           -1200.00
02468           -1120.00
02469           -1120.00
02470           -1120.00
02471           -1120.00
02472           -1040.00
02473           -1040.00
02474           -1040.00
02475            -880.00
02476            -880.00
02477            -880.00
02478            -800.00
02479            -720.00
02480            -720.00
02481            -720.00
02482            -640.00
02483            -560.00
02484            -480.00
02485            -480.00
02486            -480.00
02487            -400.00
02488            -400.00
02489            -400.00
02490            -400.00
02491            -240.00
02492            -240.00
02493            -160.00
02494            -160.00
02495            -240.00
02496             -80.00
02497             -80.00
02498              80.00
02499              80.00
02500             160.00
02501             160.00
02502             160.00
02503             160.00
02504             240.00
02505             240.00
02506             320.00
02507             400.00
02508             400.00
02509             480.00
02510             480.00
02511             480.00
02512             560.00
02513             560.00
02514             640.00
02515             720.00
02516             720.00
02517             720.00
02518             720.00
02519             800.00
02520             880.00
02521             800.00
02522             880.00
02523            1040.00
02524             960.00
02525            1040.00
02526            1040.00
02527            1120.00
02528            1120.00
02529            1200.00
02530            1200.00
02531            1280.00
02532            1280.00
02533            1360.00
02534            1360.00
02535            1440.00
02536            1440.00
02537            1440.00
02538            1520.00
02539            1520.00
02540            1680.00
02541            1600.00
02542            1680.00
02543            1680.00
02544            1760.00
02545            1760.00
02546            1760.00
02547            1840.00
02548            1840.00
02549            2000.00
02550            2000.00
02551            2080.00
02552            2080.00
02553            2080.00
02554            2080.00
02555            2160.00
02556            2240.00
02557            2240.00
02558            2320.00
02559            2320.00
02560            2400.00
02561            2400.00
02562            2400.00
02563            2480.00
02564            2480.00
02565            2640.00
02566            2640.00
02567            2640.00
02568            2640.00
02569            2720.00
02570            2800.00
02571            2720.00
02572            2800.00
02573            2800.00
02574            2880.00
02575            2960.00
02576            2960.00
02577            3040.00
02578            3040.00
02579            3040.00
02580            3040.00
02581            3040.00
02582            3120.00
02583            3120.00
02584            3120.00
02585            3280.00
02586            3280.00
02587            3280.00
02588            3280.00
02589            3360.00
02590            3360.00
02591            3360.00
02592            3440.00
02593            3440.00
02594            3440.00
02595            3600.00
02596            3600.00
02597            3600.00
02598            3680.00
02599            3600.00
02600            3760.00
02601            3680.00
02602            3920.00
02603            3760.00
02604            3840.00
02605            3920.00
02606            3920.00
02607            3920.00
02608            4000.00
02609            4000.00
02610            4000.00
02611            4000.00
02612            4080.00
02613            4160.00
02614            4160.00
02615            4240.00
02616            4240.00
02617            4240.00
02618            4320.00
02619            4240.00
02620            4320.00
02621            4320.00
02622            4400.00
02623            4400.00
02624            4400.00
02625            4400.00
02626            4560.00
02627            4560.00
02628            4560.00
02629            4560.00
02630            4640.00
02631            4640.00
02632            4720.00
02633            4720.00
02634            4720.00
02635            4720.00
02636            4800.00
02637            4720.00
02638            4880.00
02639            4880.00
02640            4880.00
02641            4880.00
02642            4880.00
02643            4880.00
02644            4960.00
02645            4960.00
02646            4960.00
02647            5040.00
02648            5040.00
02649            5040.00
02650            5040.00
02651            5040.00
02652            5200.00
02653            5200.00
02654            5200.00
02655            5200.00
02656            5200.00
02657            5280.00
02658            5200.00
02659            5280.00
02660            5280.00
02661            5280.00
02662            5280.00
02663            5360.00
02664            5360.00
02665            5360.00
02666            5440.00
02667            5360.00
02668            5520.00
02669            5520.00
02670            5520.00
02671            5520.00
02672            5600.00
02673            5600.00
02674            5600.00
02675            5520.00
02676            5600.00
02677            5600.00
02678            5680.00
02679            5680.00
02680            5760.00
02681            5680.00
02682            5760.00
02683            5680.00
02684            5680.00
02685            5840.00
02686            5840.00
02687            5760.00
02688            5920.00
02689            5840.00
02690            5920.00
02691            5920.00
02692            5840.00
02693            5920.00
02694            5920.00
02695            5920.00
02696            5920.00
02697            5920.00
02698            6000.00
02699            6000.00
02700            6000.00
02701            6000.00
02702            6080.00
02703            6000.00
02704            6000.00
02705            6000.00
02706            6160.00
02707            6080.00
02708            6160.00
02709            6080.00
02710            6160.00
02711            6160.00
02712            6160.00
02713            6160.00
02714            6160.00
02715            6160.00
02716            6160.00
02717            6160.00
02718            6160.00
02719            6240.00
02720            6160.00
02721            6160.00
02722            6160.00
02723            6160.00
02724            6160.00
02725            6240.00
02726            6160.00
02727            6240.00
02728            6240.00
02729            6240.00
02730            6240.00
02731            6320.00
02732            6240.00
02733            6240.00
02734            6320.00
02735            6240.00
02736            6240.00
02737            6240.00
02738            6240.00
02739            6320.00
02740            6320.00
02741            6320.00
02742            6320.00
02743            6320.00
02744            6320.00
02745            6320.00
02746            6320.00
02747            6240.00
02748            6320.00
02749            6320.00
02750            6320.00
02751            6400.00
02752            6320.00
02753            6320.00
02754            6320.00
02755            6320.00
02756            6320.00
02757            6400.00
02758            6320.00
02759            6320.00
02760            6320.00
02761            6320.00
02762            6320.00
02763            6320.00
02764            6320.00
02765            6320.00
02766            6320.00
02767            6320.00
02768            6320.00
02769            6320.00
02770            6240.00
02771            6320.00
02772            6240.00
02773            6240.00
02774            6240.00
02775            6320.00
02776            6240.00
02777            6240.00
02778            6240.00
02779            6240.00
02780            6160.00
02781            6240.00
02782            6160.00
02783            6160.00
02784            6160.00
02785            6160.00
02786            6160.00
02787            6160.00
02788            6160.00
02789            6160.00
02790            6160.00
02791            6160.00
02792            6160.00
02793            6080.00
02794            6160.00
02795            6160.00
02796            6000.00
02797            6000.00
02798            6080.00
02799            6000.00
02800            6000.00
02801            6000.00
02802            6000.00
02803            5920.00
02804            6000.00
02805            5920.00
02806            5920.00
02807            5920.00
02808            5920.00
02809            5920.00
02810            5920.00
02811            5920.00
02812            5920.00
02813            5920.00
02814            5840.00
02815            5840.00
02816            5840.00
02817            5840.00
02818            5840.00
02819            5760.00
02820            5840.00
02821            5840.00
02822            5760.00
02823            5680.00
02824            5680.00
02825            5680.00
02826            5680.00
02827            5680.00
02828            5680.00
02829            5600.00
02830            5600.00
02831            5600.00
02832            5600.00
02833            5520.00
02834            5600.00
02835            5520.00
02836            5520.00
02837            5520.00
02838            5360.00
02839            5360.00
02840            5360.00
02841            5360.00
02842            5360.00
02843            5280.00
02844            5280.00
02845            5280.00
02846            5280.00
02847            5280.00
02848            5280.00
02849            5280.00
02850            5200.00
02851            5200.00
02852            5200.00
02853            5120.00
02854            5040.00
02855            5040.00
02856            4960.00
02857            4960.00
02858            4960.00
02859            4960.00
02860            4880.00
02861            4960.00
02862            4960.00
02863            4880.00
02864            4880.00
02865            4880.00
02866            4800.00
02867            4800.00
02868            4720.00
02869            4720.00
02870            4720.00
02871            4640.00
02872            4640.00
02873            4640.00
02874            4640.00
02875            4640.00
02876            4560.00
02877            4560.00
02878            4560.00
02879            4400.00
02880            4400.00
02881            4480.00
02882            4400.00
02883            4400.00
02884            4400.00
02885            4320.00
02886            4320.00
02887            4240.00
02888            4240.00
02889            4240.00
02890            4240.00
02891            4240.00
02892            4080.00
02893            4080.00
02894            4080.00
02895            4080.00
02896            4000.00
02897            4000.00
02898            3920.00
02899            3920.00
02900            3920.00
02901            3760.00
02902            3840.00
02903            3840.00
02904            3760.00
02905            3760.00
02906            3680.00
02907            3680.00
02908            3600.00
02909            3600.00
02910            3600.00
02911            3520.00
02912            3440.00
02913            3360.00
02914            3360.00
02915            3440.00
02916            3280.00
02917            3360.00
02918            3360.00
02919            3280.00
02920            3280.00
02921            3280.00
02922            3120.00
02923            3120.00
02924            3040.00
02925            3040.00
02926            3040.00
02927            3040.00
02928            2960.00
02929            2960.00
02930            2880.00
02931            2880.00
02932            2800.00
02933            2800.00
02934            2720.00
02935            2720.00
02936            2640.00
02937            2640.00
02938            2640.00
02939            2640.00
02940            2640.00
02941            2480.00
02942            2480.00
02943            2480.00
02944            2400.00
02945            2400.00
02946            2320.00
02947            2320.00
02948            2320.00
02949            2160.00
02950            2320.00
02951            2240.00
02952            2160.00
02953            2160.00
02954            2080.00
02955            2080.00
02956            2000.00
02957            2000.00
02958            2000.00
02959            1840.00
02960            1840.00
02961            1840.00
02962            1760.00
02963            1760.00
02964            1760.00
02965            1680.00
02966            1680.00
02967            1600.00
02968            1520.00
02969            1440.00
02970            1520.00
02971            1440.00
02972            1360.00
02973            1360.00
02974            1280.00
02975            1200.00
02976            1200.00
02977            1200.00
02978            1120.00
02979            1120.00
02980            1120.00
02981            1040.00
02982            1040.00
02983             960.00
02984             880.00
02985             880.00
02986             880.00
02987             800.00
02988             800.00
02989             720.00
02990             720.00
02991             720.00
02992             720.00
02993             560.00
02994             560.00
02995             480.00
02996             480.00
02997             400.00
02998             400.00
02999             320.00
03000             400.00
03001             240.00
03002             240.00
03003             240.00
03004             160.00
03005             160.00
03006             160.00
03007              80.00
03008             -80.00
03009               0.00
03010             -80.00
03011             -80.00
03012            -160.00
03013            -160.00
03014            -160.00
03015            -240.00
03016            -240.00
03017            -240.00
03018            -400.00
03019            -480.00
03020            -400.00
03021            -480.00
03022            -480.00
03023            -480.00
03024            -560.00
03025            -640.00
03026            -720.00
03027            -720.00
03028            -800.00
03029            -720.00
03030            -880.00
03031            -880.00
03032            -880.00
03033            -880.00
03034            -880.00
03035           -1040.00
03036           -1040.00
03037           -1120.00
03038           -1120.00
03039           -1120.00
03040           -1200.00
03041           -1280.00
03042           -1200.00
03043           -1360.00
03044           -1440.00
03045           -1440.00
03046           -1520.00
03047           -1520.00
03048           -1520.00
03049           -1520.00
03050           -1600.00
03051           -1680.00
03052           -1680.00
03053           -1680.00
03054           -1760.00
03055           -1760.00
03056           -1840.00
03057           -1840.00
03058           -1840.00
03059           -1840.00
03060           -2080.00
03061           -2080.00
03062           -2000.00
03063           -2080.00
03064           -2160.00
03065           -2160.00
03066           -2320.00
03067           -2160.00
03068           -2320.00
03069           -2320.00
03070           -2320.00
03071           -2400.00
03072           -2400.00
03073           -2480.00
03074           -2480.00
03075           -2480.00
03076           -2640.00
03077           -2640.00
03078           -2720.00
03079           -2640.00
03080           -2720.00
03081           -2720.00
03082           -2720.00
03083           -2800.00
03084           -2800.00
03085           -2880.00
03086           -2880.00
03087           -2960.00
03088           -2960.00
03089           -2960.00
03090           -3040.00
03091           -3040.00
03092           -3120.00
03093           -3120.00
03094           -3200.00
03095           -3280.00
03096           -3280.00
03097           -3280.00
03098           -3360.00
03099           -3360.00
03100           -3440.00
03101           -3440.00
03102           -3360.00
03103           -3440.00
03104           -3520.00
03105           -3520.00
03106           -3600.00
03107           -3680.00
03108           -3680.00
03109           -3680.00
03110           -3680.00
03111           -3760.00
03112           -3760.00
03113           -3760.00
03114           -3840.00
03115           -3920.00
03116           -3920.00
03117           -3920.00
03118           -3920.00
03119           -3920.00
03120           -4000.00
03121           -4000.00
03122           -4080.00
03123           -4080.00
03124           -4080.00
03125           -4080.00
03126           -4240.00
03127           -4160.00
03128           -4320.00
03129           -4240.00
03130           -4320.00
03131           -4320.00
03132           -4320.00
03133           -4320.00
03134           -4400.00
03135           -4400.00
03136           -4400.00
03137           -4400.00
03138           -4400.00
03139           -4560.00
03140           -4560.00
03141           -4640.00
03142           -4640.00
03143           -4640.00
03144           -4640.00
03145           -4720.00
03146           -4720.00
03147           -4720.00
03148           -4720.00
03149           -4800.00
03150           -4880.00
03151           -4880.00
03152           -4880.00
03153           -4880.00
03154           -4960.00
03155           -4960.00
03156           -4960.00
03157           -4960.00
03158           -5040.00
03159           -5040.00
03160           -5040.00
03161           -5120.00
03162           -5040.00
03163           -5040.00
03164           -5200.00
03165           -5120.00
03166           -5200.00
03167           -5200.00
03168           -5280.00
03169           -5280.00
03170           -5360.00
03171           -5280.00
03172           -5360.00
03173           -5360.00
03174           -5360.00
03175           -5360.00
03176           -5520.00
03177           -5440.00
03178           -5520.00
03179           -5440.00
03180           -5520.00
03181           -5600.00
03182           -5600.00
03183           -5600.00
03184           -5600.00
03185           -5600.00
03186           -5600.00
03187           -5600.00
03188           -5600.00
03189           -5600.00
03190           -5680.00
03191           -5680.00
03192           -5760.00
03193           -5680.00
03194           -5760.00
03195           -5760.00
03196           -5680.00
03197           -5840.00
03198           -5840.00
03199           -5840.00
03200           -5840.00
03201           -5840.00
03202           -5920.00
03203           -5840.00
03204           -5920.00
03205           -5920.00
03206           -5920.00
03207           -5920.00
03208           -5920.00
03209           -6000.00
03210           -6000.00
03211           -5920.00
03212           -6000.00
03213           -5920.00
03214           -6000.00
03215           -6000.00
03216           -6000.00
03217           -6000.00
03218           -6000.00
03219           -6000.00
03220           -6000.00
03221           -6080.00
03222           -6160.00
03223           -6160.00
03224           -6000.00
03225           -6160.00
03226           -6080.00
03227           -6160.00
03228           -6160.00
03229           -6160.00
03230           -6160.00
03231           -6160.00
03232           -6160.00
03233           -6240.00
03234           -6160.00
03235           -6240.00
03236           -6240.00
03237           -6240.00
03238           -6160.00
03239           -6240.00
03240           -6240.00
03241           -6240.00
03242           -6240.00
03243           -6240.00
03244           -6240.00
03245           -6240.00
03246           -6240.00
03247           -6240.00
03248           -6240.00
03249           -6240.00
03250           -6240.00
03251           -6240.00
03252           -6240.00
03253           -6240.00
03254           -6240.00
03255           -6240.00
03256           -6320.00
03257           -6240.00
03258           -6240.00
03259           -6240.00
03260           -6240.00
03261           -6240.00
03262           -6240.00
03263           -6240.00
03264           -6240.00
03265           -6240.00
03266           -6240.00
03267           -6240.00
03268           -6240.00
03269           -6240.00
03270           -6240.00
03271           -6240.00
03272           -6240.00
03273           -6240.00
03274           -6240.00
03275           -6240.00
03276           -6240.00
03277           -6240.00
03278           -6240.00
03279           -6240.00
03280           -6240.00
03281           -6240.00
03282           -6240.00
03283           -6160.00
03284           -6160.00
03285           -6160.00
03286           -6160.00
03287           -6240.00
03288           -6160.00
03289           -6240.00
03290           -6240.00
03291           -6160.00
03292           -6160.00
03293           -6160.00
03294           -6160.00
03295           -6160.00
03296           -6000.00
03297           -6160.00
03298           -6160.00
03299           -6160.00
03300           -6160.00
03301           -6160.00
03302           -6080.00
03303           -6000.00
03304           -6000.00
03305           -6080.00
03306           -6000.00
03307           -6000.00
03308           -6000.00
03309           -6000.00
03310           -6000.00
03311           -6000.00
03312           -6000.00
03313           -6000.00
03314           -6000.00
03315           -5920.00
03316           -5920.00
03317           -5920.00
03318           -5920.00
03319           -5840.00
03320           -5920.00
03321           -5920.00
03322           -5840.00
03323           -5920.00
03324           -5840.00
03325           -5920.00
03326           -5840.00
03327           -5840.00
03328           -5760.00
03329           -5760.00
03330           -5680.00
03331           -5680.00
03332           -5760.00
03333           -5680.00
03334           -5600.00
03335           -5600.00
03336           -5600.00
03337           -5600.00
03338           -5600.00
03339           -5600.00
03340           -5600.00
03341           -5520.00
03342           -5520.00
03343           -5520.00
03344           -5360.00
03345           -5360.00
03346           -5440.00
03347           -5360.00
03348           -5360.00
03349           -5360.00
03350           -5360.00
03351           -5360.00
03352           -5360.00
03353           -5280.00
03354           -5280.00
03355           -5280.00
03356           -5280.00
03357           -5200.00
03358           -5200.00
03359           -5200.00
03360           -5200.00
03361           -5040.00
03362           -5120.00
03363           -5040.00
03364           -5200.00
03365           -5040.00
03366           -5040.00
03367           -5040.00
03368           -4960.00
03369           -5040.00
03370           -4960.00
03371           -4960.00
03372           -4880.00
03373           -4960.00
03374           -4880.00
03375           -4800.00
03376           -4880.00
03377           -4720.00
03378           -4720.00
03379           -4720.00
03380           -4720.00
03381           -4640.00
03382           -4640.00
03383           -4640.00
03384           -4640.00
03385           -4560.00
03386           -4560.00
03387           -4560.00
03388           -4560.00
03389           -4400.00
03390           -4400.00
03391           -4400.00
03392           -4400.00
03393           -4400.00
03394           -4320.00
03395           -4240.00
03396           -4240.00
03397           -4240.00
03398           -4240.00
03399           -4160.00
03400           -4080.00
03401           -4080.00
03402           -4080.00
03403           -4000.00
03404           -4000.00
03405           -4000.00
03406           -3920.00
03407           -3920.00
03408           -3840.00
03409           -3920.00
03410           -3760.00
03411           -3920.00
03412           -3760.00
03413           -3760.00
03414           -3680.00
03415           -3680.00
03416           -3680.00
03417           -3600.00
03418           -3600.00
03419           -3440.00
03420           -3440.00
03421           -3440.00
03422           -3440.00
03423           -3440.00
03424           -3360.00
03425           -3360.00
03426           -3280.00
03427           -3280.00
03428           -3280.00
03429           -3280.00
03430           -3200.00
03431           -3120.00
03432           -3120.00
03433           -3120.00
03434           -3120.00
03435           -3040.00
03436           -3040.00
03437           -2960.00
03438           -3040.00
03439           -2960.00
03440           -2800.00
03441           -2880.00
03442           -2800.00
03443           -2800.00
03444           -2800.00
03445           -2640.00
03446           -2720.00
03447           -2640.00
03448           -2640.00
03449           -2480.00
03450           -2480.00
03451           -2480.00
03452           -2480.00
03453           -2400.00
03454           -2400.00
03455           -2400.00
03456           -2400.00
03457           -2320.00
03458           -2240.00
03459           -2160.00
03460           -2160.00
03461           -2080.00
03462           -2080.00
03463           -2080.00
03464           -2000.00
03465           -2000.00
03466           -2000.00
03467           -1840.00
03468           -1840.00
03469           -1840.00
03470           -1760.00
03471           -1760.00
03472           -1760.00
03473           -1680.00
03474           -1680.00
03475           -1680.00
03476           -1520.00
03477           -1520.00
03478           -1520.00
03479           -1520.00
03480           -1360.00
03481           -1440.00
03482           -1280.00
03483           -1360.00
03484           -1280.00
03485           -1200.00
03486           -1200.00
03487           -1120.00
03488           -1120.00
03489           -1040.00
03490           -1040.00
03491           -1040.00
03492           -1040.00
03493            -880.00
03494            -960.00
03495            -880.00
03496            -880.00
03497            -800.00
03498            -720.00
03499            -720.00
03500            -720.00
03501            -720.00
03502            -560.00
03503            -560.00
03504            -560.00
03505            -480.00
03506            -480.00
03507            -400.00
03508            -400.00
03509            -400.00
03510            -240.00
03511            -240.00
03512            -240.00
03513            -160.00
03514            -160.00
03515            -160.00
03516             -80.00
03517             -80.00
03518               0.00
03519               0.00
03520              80.00
03521             160.00
03522             160.00
03523             160.00
03524             160.00
03525             240.00
03526             400.00
03527             400.00
03528             400.00
03529             480.00
03530             400.00
03531             480.00
03532             560.00
03533             720.00
03534             560.00
03535             720.00
03536             720.00
03537             720.00
03538             800.00
03539             880.00
03540             880.00
03541             880.00
03542             880.00
03543            1040.00
03544            1040.00
03545            1040.00
03546            1120.00
03547            1120.00
03548            1200.00
03549            1200.00
03550            1360.00
03551            1360.00
03552            1360.00
03553            1440.00
03554            1360.00
03555            1440.00
03556            1440.00
03557            1520.00
03558            1520.00
03559            1520.00
03560            1680.00
03561            1600.00
03562            1680.00
03563            1680.00
03564            1760.00
03565            1840.00
03566            1760.00
03567            1840.00
03568            1840.00
03569            2000.00
03570            2000.00
03571            2080.00
03572            2080.00
03573            2080.00
03574            2160.00
03575            2160.00
03576            2160.00
03577            2320.00
03578            2320.00
03579            2320.00
03580            2320.00
03581            2400.00
03582            2480.00
03583            2480.00
03584            2480.00
03585            2640.00
03586            2560.00
03587            2640.00
03588            2720.00
03589            2720.00
03590            2720.00
03591            2800.00
03592            2800.00
03593            2800.00
03594            2960.00
03595            2960.00
03596            2960.00
03597            2960.00
03598            3040.00
03599            3040.00
03600            3120.00
03601            3120.00
03602            3200.00
03603            3200.00
03604            3280.00
03605            3280.00
03606            3280.00
03607            3360.00
03608            3360.00
03609            3360.00
03610            3440.00
03611            3360.00
03612            3440.00
03613            3440.00
03614            3520.00
03615            3600.00
03616            3600.00
03617            3680.00
03618            3680.00
03619            3680.00
03620            3760.00
03621            3840.00
03622            3760.00
03623            3920.00
03624            3920.00
03625            3920.00
03626            4000.00
03627            3920.00
03628            4000.00
03629            4000.00
03630            4000.00
03631            4080.00
03632            4080.00
03633            4080.00
03634            4160.00
03635            4160.00
03636            4240.00
03637            4240.00
03638            4240.00
03639            4320.00
03640            4320.00
03641            4320.00
03642            4320.00
03643            4400.00
03644            4480.00
03645            4400.00
03646            4400.00
03647            4560.00
03648            4560.00
03649            4640.00
03650            4560.00
03651            4640.00
03652            4640.00
03653            4640.00
03654            4720.00
03655            4720.00
03656            4800.00
03657            4800.00
03658            4880.00
03659            4880.00
03660            4880.00
03661            4880.00
03662            4960.00
03663            4960.00
03664            4960.00
03665            5040.00
03666            4960.00
03667            5040.00
03668            5040.00
03669            5120.00
03670            5200.00
03671            5120.00
03672            5200.00
03673            5200.00
03674            5200.00
03675            5280.00
03676            5280.00
03677            5280.00
03678            5280.00
03679            5280.00
03680            5280.00
03681            5360.00
03682            5360.00
03683            5360.00
03684            5360.00
03685            5520.00
03686            5440.00
03687            5520.00
03688            5520.00
03689            5520.00
03690            5520.00
03691            5600.00
03692            5600.00
03693            5520.00
03694            5600.00
03695            5600.00
03696            5600.00
03697            5680.00
03698            5600.00
03699            5680.00
03700            5680.00
03701            5680.00
03702            5840.00
03703            5680.00
03704            5840.00
03705            5680.00
03706            5840.00
03707            5840.00
03708            5840.00
03709            5840.00
03710            5840.00
03711            5840.00
03712            5840.00
03713            5920.00
03714            5840.00
03715            5920.00
03716            5920.00
03717            5920.00
03718            5920.00
03719            6000.00
03720            5920.00
03721            6000.00
03722            6000.00
03723            6000.00
03724            6080.00
03725            6000.00
03726            6080.00
03727            6080.00
03728            6160.00
03729            6160.00
03730            6160.00
03731            6160.00
03732            6160.00
03733            6160.00
03734            6160.00
03735            6160.00
03736            6160.00
03737            6240.00
03738            6160.00
03739            6160.00
03740            6240.00
03741            6160.00
03742            6240.00
03743            6240.00
03744            6240.00
03745            6160.00
03746            6240.00
03747            6160.00
03748            6240.00
03749            6160.00
03750            6240.00
03751            6240.00
03752            6240.00
03753            6240.00
03754            6240.00
03755            6240.00
03756            6320.00
03757            6320.00
03758            6240.00
03759            6320.00
03760            6240.00
03761            6240.00
03762            6240.00
03763            6320.00
03764            6320.00
03765            6240.00
03766            6320.00
03767            6320.00
03768            6240.00
03769            6240.00
03770            6320.00
03771            6320.00
03772            6320.00
03773            6240.00
03774            6240.00
03775            6320.00
03776            6240.00
03777            6320.00
03778            6320.00
03779            6240.00
03780            6320.00
03781            6320.00
03782            6240.00
03783            6320.00
03784            6320.00
03785            6240.00
03786            6240.00
03787            6320.00
03788            6240.00
03789            6240.00
03790            6240.00
03791            6240.00
03792            6240.00
03793            6240.00
03794            6240.00
03795            6240.00
03796            6240.00
03797            6240.00
03798            6240.00
03799            6240.00
03800            6240.00
03801            6240.00
03802            6160.00
03803            6240.00
03804            6160.00
03805            6160.00
03806            6160.00
03807            6160.00
03808            6160.00
03809            6160.00
03810            6160.00
03811            6160.00
03812            6160.00
03813            6080.00
03814            6160.00
03815            6160.00
03816            6160.00
03817            6080.00
03818            6000.00
03819            6000.00
03820            6080.00
03821            6000.00
03822            6000.00
03823            6000.00
03824            5920.00
03825            6000.00
03826            5920.00
03827            5920.00
03828            5920.00
03829            5920.00
03830            5840.00
03831            5920.00
03832            5840.00
03833            5840.00
03834            5840.00
03835            5840.00
03836            5840.00
03837            5760.00
03838            5760.00
03839            5760.00
03840            5680.00
03841            5840.00
03842            5680.00
03843            5680.00
03844            5600.00
03845            5600.00
03846            5600.00
03847            5600.00
03848            5600.00
03849            5600.00
03850            5600.00
03851            5600.00
03852            5520.00
03853            5520.00
03854            5520.00
03855            5520.00
03856            5520.00
03857            5440.00
03858            5440.00
03859            5360.00
03860            5520.00
03861            5360.00
03862            5360.00
03863            5360.00
03864            5280.00
03865            5280.00
03866            5280.00
03867            5280.00
03868            5280.00
03869            5200.00
03870            5280.00
03871            5200.00
03872            5040.00
03873            5200.00
03874            5120.00
03875            5200.00
03876            5040.00
03877            5040.00
03878            5040.00
03879            5040.00
03880            4880.00
03881            4960.00
03882            4880.00
03883            4880.00
03884            4880.00
03885            4800.00
03886            4720.00
03887            4720.00
03888            4720.00
03889            4720.00
03890            4640.00
03891            4640.00
03892            4640.00
03893            4640.00
03894            4560.00
03895            4560.00
03896            4560.00
03897            4480.00
03898            4400.00
03899            4400.00
03900            4400.00
03901            4400.00
03902            4320.00
03903            4320.00
03904            4320.00
03905            4240.00
03906            4240.00
03907            4240.00
03908            4240.00
03909            4240.00
03910            4080.00
03911            4080.00
03912            4080.00
03913            4000.00
03914            4000.00
03915            4000.00
03916            4000.00
03917            4000.00
03918            3920.00
03919            3920.00
03920            3920.00
03921            3760.00
03922            3840.00
03923            3760.00
03924            3760.00
03925            3680.00
03926            3680.00
03927            3680.00
03928            3600.00
03929            3600.00
03930            3600.00
03931            3600.00
03932            3440.00
03933            3440.00
03934            3360.00
03935            3360.00
03936            3360.00
03937            3360.00
03938            3280.00
03939            3280.00
03940            3280.00
03941            3280.00
03942            3120.00
03943            3120.00
03944            3120.00
03945            3040.00
03946            3040.00
03947            3040.00
03948            2960.00
03949            2960.00
03950            2880.00
03951            2800.00
03952            2800.00
03953            2720.00
03954            2720.00
03955            2720.00
03956            2640.00
03957            2640.00
03958            2640.00
03959            2560.00
03960            2480.00
03961            2480.00
03962            2480.00
03963            2400.00
03964            2400.00
03965            2320.00
03966            2320.00
03967            2320.00
03968            2320.00
03969            2160.00
03970            2240.00
03971            2080.00
03972            2080.00
03973            2080.00
03974            2000.00
03975            2000.00
03976            2000.00
03977            1840.00
03978            1920.00
03979            1840.00
03980            1760.00
03981            1760.00
03982            1760.00
03983            1680.00
03984            1680.00
03985            1600.00
03986            1680.00
03987            1520.00
03988            1520.00
03989            1440.00
03990            1440.00
03991            1440.00
03992            1360.00
03993            1440.00
03994            1360.00
03995            1200.00
03996            1280.00
03997            1200.00
03998            1120.00
03999            1120.00
04000            1040.00
04001            1040.00
04002            1040.00
04003            1040.00
04004             880.00
04005             880.00
04006             880.00
04007             800.00
04008             800.00
04009             800.00
04010             720.00
04011             640.00
04012             640.00
04013             720.00
04014             560.00
04015             480.00
04016             480.00
04017             400.00
04018             400.00
04019             400.00
04020             320.00
04021             240.00
04022             240.00
04023             160.00
04024             160.00
04025              80.00
04026              80.00
04027              80.00
04028             -80.00
04029             -80.00
04030             -80.00
04031            -160.00
04032            -160.00
04033            -160.00
04034            -240.00
04035            -240.00
04036            -240.00
04037            -400.00
04038            -480.00
04039            -480.00
04040            -480.00
04041            -480.00
04042            -480.00
04043            -560.00
04044            -560.00
04045            -720.00
04046            -800.00
04047            -720.00
04048            -720.00
04049            -880.00
04050            -880.00
04051            -880.00
04052            -880.00
04053           -1040.00
04054           -1040.00
04055           -1120.00
04056           -1040.00
04057           -1120.00
04058           -1120.00
04059           -1200.00
04060           -1200.00
04061           -1360.00
04062           -1360.00
04063           -1360.00
04064           -1440.00
04065           -1440.00
04066           -1440.00
04067           -1520.00
04068           -1520.00
04069           -1520.00
04070           -1680.00
04071           -1680.00
04072           -1680.00
04073           -1760.00
04074           -1760.00
04075           -1760.00
04076           -1760.00
04077           -1840.00
04078           -1840.00
04079           -2000.00
04080           -2000.00
04081           -2000.00
04082           -2080.00
04083           -2080.00
04084           -2160.00
04085           -2160.00
04086           -2240.00
04087           -2320.00
04088           -2320.00
04089           -2400.00
04090           -2400.00
04091           -2400.00
04092           -2480.00
04093           -2480.00
04094           -2480.00
04095           -2560.00
04096           -2640.00
04097           -2640.00
04098           -2720.00
04099           -2720.00
04100           -2800.00
04101           -2800.00
04102           -2800.00
04103           -2800.00
04104           -2800.00
04105           -2960.00
04106           -2960.00
04107           -2960.00
04108           -3040.00
04109           -3040.00
04110           -3040.00
04111           -3120.00
04112           -3120.00
04113           -3280.00
04114           -3280.00
04115           -3280.00
04116           -3280.00
04117           -3360.00
04118           -3360.00
04119           -3360.00
04120           -3440.00
04121           -3440.00
04122           -3440.00
04123           -3440.00
04124           -3440.00
04125           -3600.00
04126           -3600.00
04127           -3600.00
04128           -3680.00
04129           -3680.00
04130           -3680.00
04131           -3680.00
04132           -3760.00
04133           -3760.00
04134           -3840.00
04135           -3920.00
04136           -3920.00
04137           -3920.00
04138           -3920.00
04139           -4000.00
04140           -4000.00
04141           -4080.00
04142           -4080.00
04143           -4080.00
04144           -4080.00
04145           -4160.00
04146           -4160.00
04147           -4240.00
04148           -4320.00
04149           -4320.00
04150           -4320.00
04151           -4320.00
04152           -4400.00
04153           -4400.00
04154           -4400.00
04155           -4400.00
04156           -4480.00
04157           -4560.00
04158           -4560.00
04159           -4640.00
04160           -4560.00
04161           -4640.00
04162           -4720.00
04163           -4640.00
04164           -4720.00
04165           -4720.00
04166           -4880.00
04167           -4720.00
04168           -4800.00
04169           -4880.00
04170           -4880.00
04171           -4880.00
04172           -4960.00
04173           -4960.00
04174           -4960.00
04175           -4960.00
04176           -4960.00
04177           -5040.00
04178           -5040.00
04179           -5040.00
04180           -5040.00
04181           -5120.00
04182           -5040.00
04183           -5200.00
04184           -5200.00
04185           -5200.00
04186           -5200.00
04187           -5280.00
04188           -5280.00
04189           -5200.00
04190           -5280.00
04191           -5360.00
04192           -5360.00
04193           -5360.00
04194           -5360.00
04195           -5360.00
04196           -5360.00
04197           -5520.00
04198           -5440.00
04199           -5520.00
04200           -5520.00
04201           -5520.00
04202           -5520.00
04203           -5520.00
04204           -5600.00
04205           -5600.00
04206           -5600.00
04207           -5600.00
04208           -5600.00
04209           -5600.00
04210           -5600.00
04211           -5680.00
04212           -5680.00
04213           -5680.00
04214           -5680.00
04215           -5760.00
04216           -5840.00
04217           -5840.00
04218           -5840.00
04219           -5840.00
04220           -5840.00
04221           -5920.00
04222           -5920.00
04223           -5920.00
04224           -5920.00
04225           -5920.00
04226           -5920.00
04227           -6000.00
04228           -5920.00
04229           -6000.00
04230           -6000.00
04231           -6000.00
04232           -6000.00
04233           -6000.00
04234           -6000.00
04235           -6000.00
04236           -6000.00
04237           -6000.00
04238           -6000.00
04239           -6080.00
04240           -6000.00
04241           -6000.00
04242           -6080.00
04243           -6160.00
04244           -6080.00
04245           -6160.00
04246           -6000.00
04247           -6160.00
04248           -6240.00
04249           -6160.00
04250           -6160.00
04251           -6240.00
04252           -6160.00
04253           -6160.00
04254           -6160.00
04255           -6240.00
04256           -6240.00
04257           -6240.00
04258           -6160.00
04259           -6240.00
04260           -6240.00
04261           -6240.00
04262           -6240.00
04263           -6240.00
04264           -6240.00
04265           -6240.00
04266           -6240.00
04267           -6240.00
04268           -6240.00
04269           -6240.00
04270           -6240.00
04271           -6240.00
04272           -6240.00
04273           -6240.00
04274           -6240.00
04275           -6240.00
04276           -6240.00
04277           -6240.00
04278           -6240.00
04279           -6240.00
04280           -6320.00
04281           -6320.00
04282           -6320.00
04283           -6240.00
04284           -6240.00
04285           -6240.00
04286           -6320.00
04287           -6240.00
04288           -6320.00
04289           -6320.00
04290           -6240.00
04291           -6240.00
04292           -6240.00
04293           -6240.00
04294           -6240.00
04295           -6240.00
04296           -6240.00
04297           -6240.00
04298           -6240.00
04299           -6240.00
04300           -6240.00
04301           -6320.00
04302           -6240.00
04303           -6240.00
04304           -6240.00
04305           -6240.00
04306           -6240.00
04307           -6240.00
04308           -6160.00
04309           -6160.00
04310           -6240.00
04311           -6160.00
04312           -6160.00
04313           -6240.00
04314           -6240.00
04315           -6160.00
04316           -6000.00
04317           -6160.00
04318           -6160.00
04319           -6000.00
04320           -6080.00
04321           -6000.00
04322           -6000.00
04323           -6000.00
04324           -6000.00
04325           -6000.00
04326           -6000.00
04327           -6000.00
04328           -6000.00
04329           -5920.00
04330           -6000.00
04331           -5920.00
04332           -5920.00
04333           -6000.00
04334           -5920.00
04335           -5920.00
04336           -5920.00
04337           -5920.00
04338           -5840.00
04339           -5920.00
04340           -5840.00
04341           -5840.00
04342           -5840.00
04343           -5920.00
04344           -5680.00
04345           -5840.00
04346           -5840.00
04347           -5840.00
04348           -5840.00
04349           -5680.00
04350           -5760.00
04351           -5680.00
04352           -5680.00
04353           -5680.00
04354           -5680.00
04355           -5600.00
04356           -5600.00
04357           -5600.00
04358           -5680.00
04359           -5600.00
04360           -5520.00
04361           -5520.00
04362           -5520.00
04363           -5600.00
04364           -5520.00
04365           -5520.00
04366           -5440.00
04367           -5360.00
04368           -5360.00
04369           -5360.00
04370           -5360.00
04371           -5360.00
04372           -5360.00
04373           -5360.00
04374           -5280.00
04375           -5280.00
04376           -5280.00
04377           -5200.00
04378           -5280.00
04379           -5120.00
04380           -5200.00
04381           -5040.00
04382           -5040.00
04383           -5040.00
04384           -5040.00
04385           -4960.00
04386           -4960.00
04387           -4960.00
04388           -4960.00
04389           -4880.00
04390           -4960.00
04391           -4880.00
04392           -4880.00
04393           -4880.00
04394           -4720.00
04395           -4720.00
04396           -4720.00
04397           -4720.00
04398           -4720.00
04399           -4640.00
04400           -4640.00
04401           -4640.00
04402           -4640.00
04403           -4560.00
04404           -4560.00
04405           -4560.00
04406           -4560.00
04407           -4400.00
04408           -4400.00
04409           -4400.00
04410           -4400.00
04411           -4400.00
04412           -4320.00
04413           -4320.00
04414           -4320.00
04415           -4320.00
04416           -4240.00
04417           -4240.00
04418           -4240.00
04419           -4160.00
04420           -4080.00
04421           -4080.00
04422           -4080.00
04423           -4000.00
04424           -4000.00
04425           -4000.00
04426           -4000.00
04427           -3920.00
04428           -3920.00
04429           -3920.00
04430           -3920.00
04431           -3840.00
04432           -3680.00
04433           -3760.00
04434           -3680.00
04435           -3680.00
04436           -3600.00
04437           -3600.00
04438           -3600.00
04439           -3440.00
04440           -3520.00
04441           -3440.00
04442           -3440.00
04443           -3440.00
04444           -3360.00
04445           -3360.00
04446           -3280.00
04447           -3360.00
04448           -3280.00
04449           -3120.00
04450           -3120.00
04451           -3120.00
04452           -3120.00
04453           -3040.00
04454           -3040.00
04455           -3040.00
04456           -2960.00
04457           -2960.00
04458           -2960.00
04459           -2800.00
04460           -2800.00
04461           -2800.00
04462           -2800.00
04463           -2720.00
04464           -2720.00
04465           -2640.00
04466           -2640.00
04467           -2640.00
04468           -2560.00
04469           -2480.00
04470           -2480.00
04471           -2400.00
04472           -2480.00
04473           -2480.00
04474           -2320.00
04475           -2320.00
04476           -2320.00
04477           -2240.00
04478           -2320.00
04479           -2160.00
04480           -2160.00
04481           -2160.00
04482           -2080.00
04483           -2080.00
04484           -2000.00
04485           -2000.00
04486           -1920.00
04487           -1920.00
04488           -1840.00
04489           -1840.00
04490           -1840.00
04491           -1760.00
04492           -1760.00
04493           -1680.00
04494           -1680.00
04495           -1680.00
04496           -1520.00
04497           -1520.00
04498           -1520.00
04499           -1440.00
04500           -1440.00
04501           -1440.00
04502           -1360.00
04503           -1360.00
04504           -1200.00
04505           -1200.00
04506           -1120.00
04507           -1120.00
04508           -1120.00
04509           -1120.00
04510           -1040.00
04511            -880.00
04512            -960.00
04513            -880.00
04514            -800.00
04515            -880.00
04516            -800.00
04517            -800.00
04518            -800.00
04519            -720.00
04520            -640.00
04521            -560.00
04522            -560.00
04523            -480.00
04524            -480.00
04525            -480.00
04526            -400.00
04527            -400.00
04528            -400.00
04529            -240.00
04530            -240.00
04531            -240.00
04532            -160.00
04533            -160.00
04534            -160.00
04535             -80.00
04536             -80.00
04537               0.00
04538             -80.00
04539              80.00
04540              80.00
04541             160.00
04542             160.00
04543             160.00
04544             240.00
04545             320.00
04546             320.00
04547             400.00
04548             480.00
04549             400.00
04550             400.00
04551             560.00
04552             560.00
04553             560.00
04554             640.00
04555             720.00
04556             720.00
04557             800.00
04558             800.00
04559             800.00
04560             880.00
04561             880.00
04562            1040.00
04563            1040.00
04564            1040.00
04565            1120.00
04566            1120.00
04567            1120.00
04568            1200.00
04569            1280.00
04570            1280.00
04571            1360.00
04572            1360.00
04573            1360.00
04574            1440.00
04575            1440.00
04576            1520.00
04577            1440.00
04578            1600.00
04579            1680.00
04580            1680.00
04581            1680.00
04582            1760.00
04583            1760.00
04584            1840.00
04585            1840.00
04586            1840.00
04587            2000.00
04588            2000.00
04589            2080.00
04590            2000.00
04591            2080.00
04592            2080.00
04593            2160.00
04594            2160.00
04595            2240.00
04596            2240.00
04597            2320.00
04598            2320.00
04599            2320.00
04600            2400.00
04601            2400.00
04602            2480.00
04603            2480.00
04604            2640.00
04605            2560.00
04606            2640.00
04607            2640.00
04608            2720.00
04609            2720.00
04610            2720.00
04611            2800.00
04612            2800.00
04613            2800.00
04614            2960.00
04615            2960.00
04616            2960.00
04617            3040.00
04618            3040.00
04619            3040.00
04620            3040.00
04621            3120.00
04622            3200.00
04623            3280.00
04624            3120.00
04625            3280.00
04626            3280.00
04627            3360.00
04628            3360.00
04629            3360.00
04630            3360.00
04631            3440.00
04632            3440.00
04633            3600.00
04634            3600.00
04635            3600.00
04636            3600.00
04637            3680.00
04638            3600.00
04639            3760.00
04640            3680.00
04641            3840.00
04642            3760.00
04643            3920.00
04644            3920.00
04645            3920.00
04646            4000.00
04647            4000.00
04648            4000.00
04649            4000.00
04650            4000.00
04651            4080.00
04652            4080.00
04653            4240.00
04654            4240.00
04655            4240.00
04656            4240.00
04657            4320.00
04658            4320.00
04659            4320.00
04660            4320.00
04661            4400.00
04662            4400.00
04663            4480.00
04664            4560.00
04665            4560.00
04666            4560.00
04667            4560.00
04668            4640.00
04669            4640.00
04670            4640.00
04671            4640.00
04672            4720.00
04673            4640.00
04674            4720.00
04675            4720.00
04676            4720.00
04677            4880.00
04678            4880.00
04679            4880.00
04680            4880.00
04681            4960.00
04682            4880.00
04683            4960.00
04684            4960.00
04685            4960.00
04686            4960.00
04687            5040.00
04688            5120.00
04689            5040.00
04690            5200.00
04691            5200.00
04692            5200.00
04693            5200.00
04694            5200.00
04695            5280.00
04696            5280.00
04697            5280.00
04698            5280.00
04699            5360.00
04700            5280.00
04701            5360.00
04702            5360.00
04703            5440.00
04704            5440.00
04705            5520.00
04706            5520.00
04707            5520.00
04708            5520.00
04709            5520.00
04710            5600.00
04711            5600.00
04712            5600.00
04713            5600.00
04714            5600.00
04715            5600.00
04716            5680.00
04717            5680.00
04718            5680.00
04719            5760.00
04720            5760.00
04721            5680.00
04722            5840.00
04723            5840.00
04724            5840.00
04725            5840.00
04726            5840.00
04727            5840.00
04728            5920.00
04729            5920.00
04730            5920.00
04731            5920.00
04732            5920.00
04733            5920.00
04734            5920.00
04735            5920.00
04736            5920.00
04737            6000.00
04738            5920.00
04739            6000.00
04740            6000.00
04741            5920.00
04742            6000.00
04743            6000.00
04744            6000.00
04745            6160.00
04746            6160.00
04747            6080.00
04748            6160.00
04749            6080.00
04750            6160.00
04751            6160.00
04752            6160.00
04753            6160.00
04754            6160.00
04755            6160.00
04756            6160.00
04757            6160.00
04758            6160.00
04759            6160.00
04760            6160.00
04761            6160.00
04762            6160.00
04763            6160.00
04764            6240.00
04765            6320.00
04766            6240.00
04767            6240.00
04768            6240.00
04769            6240.00
04770            6240.00
04771            6240.00
04772            6320.00
04773            6320.00
04774            6320.00
04775            6320.00
04776            6240.00
04777            6320.00
04778            6320.00
04779            6320.00
04780            6320.00
04781            6320.00
04782            6320.00
04783            6320.00
04784            6320.00
04785            6240.00
04786            6320.00
04787            6320.00
04788            6320.00
04789            6320.00
04790            6320.00
04791            6320.00
04792            6320.00
04793            6320.00
04794            6320.00
04795            6320.00
04796            6400.00
04797            6240.00
04798            6320.00
04799            6240.00
04800            6240.00
04801            6240.00
04802            6240.00
04803            6320.00
04804            6320.00
04805            6240.00
04806            6320.00
04807            6240.00
04808            6240.00
04809            6240.00
04810            6240.00
04811            6320.00
04812            6240.00
04813            6240.00
04814            6240.00
04815            6240.00
04816            6240.00
04817            6240.00
04818            6240.00
04819            6160.00
04820            6240.00
04821            6160.00
04822            6240.00
04823            6160.00
04824            6160.00
04825            6160.00
04826            6240.00
04827            6160.00
04828            6160.00
04829            6160.00
04830            6160.00
04831            6080.00
04832            6160.00
04833            6000.00
04834            6160.00
04835            6160.00
04836            6160.00
04837            6080.00
04838            6000.00
04839            6000.00
04840            6000.00
04841            6080.00
04842            6000.00
04843            6000.00
04844            6000.00
04845            6000.00
04846            5920.00
04847            6000.00
04848            5920.00
04849            5920.00
04850            5920.00
04851            5920.00
04852            5920.00
04853            5840.00
04854            5840.00
04855            5840.00
04856            5840.00
04857            5840.00
04858            5840.00
04859            5840.00
04860            5760.00
04861            5760.00
04862            5680.00
04863            5680.00
04864            5680.00
04865            5600.00
04866            5680.00
04867            5600.00
04868            5600.00
04869            5600.00
04870            5520.00
04871            5600.00
04872            5600.00
04873            5520.00
04874            5520.00
04875            5520.00
04876            5440.00
04877            5440.00
04878            5360.00
04879            5360.00
04880            5440.00
04881            5280.00
04882            5280.00
04883            5280.00
04884            5280.00
04885            5280.00
04886            5280.00
04887            5280.00
04888            5200.00
04889            5200.00
04890            5200.00
04891            5120.00
04892            5200.00
04893            5040.00
04894            5120.00
04895            5040.00
04896            5040.00
04897            4960.00
04898            5040.00
04899            4960.00
04900            4960.00
04901            4960.00
04902            4880.00
04903            4880.00
04904            4880.00
04905            4880.00
04906            4800.00
04907            4720.00
04908            4720.00
04909            4720.00
04910            4800.00
04911            4720.00
04912            4640.00
04913            4640.00
04914            4640.00
04915            4640.00
04916            4560.00
04917            4560.00
04918            4480.00
04919            4400.00
04920            4400.00
04921            4400.00
04922            4400.00
04923            4320.00
04924            4320.00
04925            4320.00
04926            4320.00
04927            4240.00
04928            4240.00
04929            4080.00
04930            4160.00
04931            4080.00
04932            4080.00
04933            4000.00
04934            4000.00
04935            4000.00
04936            4000.00
04937            3920.00
04938            3920.00
04939            3920.00
04940            3920.00
04941            3760.00
04942            3760.00
04943            3680.00
04944            3680.00
04945            3680.00
04946            3600.00
04947            3600.00
04948            3600.00
04949            3440.00
04950            3520.00
04951            3440.00
04952            3440.00
04953            3440.00
04954            3360.00
04955            3360.00
04956            3280.00
04957            3280.00
04958            3280.00
04959            3280.00
04960            3280.00
04961            3120.00
04962            3120.00
04963            3040.00
04964            3040.00
04965            2960.00
04966            3040.00
04967            2960.00
04968            2960.00
04969            2800.00
04970            2960.00
04971            2880.00
04972            2800.00
04973            2800.00
04974            2720.00
04975            2720.00
04976            2640.00
04977            2640.00
04978            2640.00
04979            2640.00
04980            2480.00
04981            2480.00
04982            2480.00
04983            2400.00
04984            2400.00
04985            2400.00
04986            2320.00
04987            2320.00
04988            2320.00
04989            2160.00
04990            2160.00
04991            2080.00
04992            2080.00
04993            2080.00
04994            2080.00
04995            2000.00
04996            1840.00
04997            1840.00
04998            1840.00
04999            1760.00
05000            1760.00
