Unit:(mV)
                     CH1
Frequency     98.064 kHz
00001            -400.00
00002            -400.00
00003            -400.00
00004            -400.00
00005            -400.00
00006            -400.00
00007            -400.00
00008            -400.00
00009            -400.00
00010            -480.00
00011            -400.00
00012            -400.00
00013            -480.00
00014            -480.00
00015            -480.00
00016            -480.00
00017            -480.00
00018            -480.00
00019            -480.00
00020            -480.00
00021            -480.00
00022            -480.00
00023            -480.00
00024            -480.00
00025            -480.00
00026            -480.00
00027            -480.00
00028            -560.00
00029            -560.00
00030            -560.00
00031            -560.00
00032            -560.00
00033            -560.00
00034            -560.00
00035            -560.00
00036            -560.00
00037            -560.00
00038            -560.00
00039            -560.00
00040            -720.00
00041            -720.00
00042            -560.00
00043            -720.00
00044            -720.00
00045            -720.00
00046            -720.00
00047            -720.00
00048            -720.00
00049            -800.00
00050            -720.00
00051            -800.00
00052            -800.00
00053            -800.00
00054            -800.00
00055            -800.00
00056            -800.00
00057            -800.00
00058            -800.00
00059            -800.00
00060            -880.00
00061            -800.00
00062            -800.00
00063            -880.00
00064            -800.00
00065            -880.00
00066            -880.00
00067            -800.00
00068            -880.00
00069            -800.00
00070            -880.00
00071            -880.00
00072            -880.00
00073            -880.00
00074            -880.00
00075            -880.00
00076            -880.00
00077            -880.00
00078            -880.00
00079            -880.00
00080            -880.00
00081            -880.00
00082            -880.00
00083            -880.00
00084            -880.00
00085            -880.00
00086            -880.00
00087            -960.00
00088            -880.00
00089           -1040.00
00090           -1040.00
00091            -960.00
00092            -880.00
00093            -960.00
00094            -960.00
00095            -880.00
00096           -1040.00
00097           -1040.00
00098           -1040.00
00099           -1040.00
00100            -960.00
00101           -1040.00
00102           -1040.00
00103           -1040.00
00104           -1040.00
00105           -1040.00
00106           -1120.00
00107           -1120.00
00108           -1040.00
00109           -1120.00
00110           -1120.00
00111           -1120.00
00112           -1120.00
00113           -1120.00
00114           -1120.00
00115           -1120.00
00116           -1120.00
00117           -1120.00
00118           -1120.00
00119           -1120.00
00120           -1120.00
00121           -1120.00
00122           -1120.00
00123           -1200.00
00124           -1120.00
00125           -1200.00
00126           -1120.00
00127           -1120.00
00128           -1200.00
00129           -1200.00
00130           -1120.00
00131           -1200.00
00132           -1200.00
00133           -1200.00
00134           -1200.00
00135           -1120.00
00136           -1200.00
00137           -1200.00
00138           -1200.00
00139           -1120.00
00140           -1120.00
00141           -1120.00
00142           -1200.00
00143           -1200.00
00144           -1200.00
00145           -1200.00
00146           -1200.00
00147           -1200.00
00148           -1200.00
00149           -1200.00
00150           -1200.00
00151           -1200.00
00152           -1200.00
00153           -1120.00
00154           -1200.00
00155           -1200.00
00156           -1200.00
00157           -1200.00
00158           -1200.00
00159           -1200.00
00160           -1280.00
00161           -1200.00
00162           -1200.00
00163           -1200.00
00164           -1280.00
00165           -1200.00
00166           -1200.00
00167           -1280.00
00168           -1360.00
00169           -1200.00
00170           -1280.00
00171           -1200.00
00172           -1200.00
00173           -1200.00
00174           -1280.00
00175           -1280.00
00176           -1360.00
00177           -1200.00
00178           -1360.00
00179           -1280.00
00180           -1360.00
00181           -1360.00
00182           -1360.00
00183           -1360.00
00184           -1200.00
00185           -1440.00
00186           -1360.00
00187           -1440.00
00188           -1360.00
00189           -1360.00
00190           -1360.00
00191           -1360.00
00192           -1360.00
00193           -1280.00
00194           -1360.00
00195           -1360.00
00196           -1360.00
00197           -1360.00
00198           -1360.00
00199           -1360.00
00200           -1360.00
00201           -1360.00
00202           -1360.00
00203           -1360.00
00204           -1360.00
00205           -1360.00
00206           -1360.00
00207           -1360.00
00208           -1360.00
00209           -1360.00
00210           -1360.00
00211           -1360.00
00212           -1360.00
00213           -1360.00
00214           -1360.00
00215           -1360.00
00216           -1360.00
00217           -1360.00
00218           -1280.00
00219           -1360.00
00220           -1360.00
00221           -1360.00
00222           -1280.00
00223           -1360.00
00224           -1360.00
00225           -1280.00
00226           -1360.00
00227           -1200.00
00228           -1360.00
00229           -1360.00
00230           -1280.00
00231           -1280.00
00232           -1360.00
00233           -1280.00
00234           -1360.00
00235           -1200.00
00236           -1200.00
00237           -1360.00
00238           -1200.00
00239           -1360.00
00240           -1280.00
00241           -1280.00
00242           -1200.00
00243           -1360.00
00244           -1280.00
00245           -1360.00
00246           -1200.00
00247           -1200.00
00248           -1360.00
00249           -1280.00
00250           -1360.00
00251           -1200.00
00252           -1360.00
00253           -1360.00
00254           -1360.00
00255           -1280.00
00256           -1200.00
00257           -1360.00
00258           -1280.00
00259           -1360.00
00260           -1200.00
00261           -1360.00
00262           -1200.00
00263           -1200.00
00264           -1280.00
00265           -1200.00
00266           -1200.00
00267           -1200.00
00268           -1200.00
00269           -1200.00
00270           -1200.00
00271           -1200.00
00272           -1200.00
00273           -1200.00
00274           -1200.00
00275           -1200.00
00276           -1200.00
00277           -1200.00
00278           -1200.00
00279           -1120.00
00280           -1200.00
00281           -1200.00
00282           -1120.00
00283           -1120.00
00284           -1120.00
00285           -1200.00
00286           -1120.00
00287           -1120.00
00288           -1120.00
00289           -1200.00
00290           -1120.00
00291           -1200.00
00292           -1120.00
00293           -1120.00
00294           -1200.00
00295           -1120.00
00296           -1120.00
00297           -1120.00
00298           -1120.00
00299           -1120.00
00300           -1120.00
00301           -1120.00
00302           -1120.00
00303           -1120.00
00304           -1120.00
00305           -1120.00
00306           -1120.00
00307           -1120.00
00308           -1120.00
00309           -1040.00
00310           -1120.00
00311           -1120.00
00312           -1120.00
00313           -1120.00
00314           -1120.00
00315           -1120.00
00316           -1040.00
00317           -1040.00
00318           -1120.00
00319           -1040.00
00320           -1040.00
00321           -1040.00
00322           -1040.00
00323           -1040.00
00324           -1040.00
00325           -1040.00
00326           -1120.00
00327           -1040.00
00328           -1040.00
00329            -960.00
00330           -1040.00
00331           -1040.00
00332           -1040.00
00333            -960.00
00334            -880.00
00335            -880.00
00336            -880.00
00337            -880.00
00338            -880.00
00339            -880.00
00340            -880.00
00341            -880.00
00342            -880.00
00343            -880.00
00344            -880.00
00345            -880.00
00346            -880.00
00347            -880.00
00348            -880.00
00349            -880.00
00350            -880.00
00351            -880.00
00352            -800.00
00353            -800.00
00354            -800.00
00355            -800.00
00356            -800.00
00357            -800.00
00358            -800.00
00359            -800.00
00360            -800.00
00361            -800.00
00362            -800.00
00363            -800.00
00364            -800.00
00365            -720.00
00366            -720.00
00367            -800.00
00368            -800.00
00369            -800.00
00370            -720.00
00371            -720.00
00372            -800.00
00373            -720.00
00374            -720.00
00375            -720.00
00376            -720.00
00377            -720.00
00378            -720.00
00379            -720.00
00380            -720.00
00381            -560.00
00382            -720.00
00383            -720.00
00384            -640.00
00385            -640.00
00386            -720.00
00387            -560.00
00388            -640.00
00389            -640.00
00390            -560.00
00391            -640.00
00392            -560.00
00393            -560.00
00394            -480.00
00395            -560.00
00396            -560.00
00397            -560.00
00398            -480.00
00399            -480.00
00400            -560.00
00401            -480.00
00402            -480.00
00403            -480.00
00404            -480.00
00405            -480.00
00406            -480.00
00407            -480.00
00408            -480.00
00409            -480.00
00410            -480.00
00411            -480.00
00412            -400.00
00413            -400.00
00414            -400.00
00415            -400.00
00416            -400.00
00417            -400.00
00418            -400.00
00419            -400.00
00420            -400.00
00421            -320.00
00422            -320.00
00423            -400.00
00424            -240.00
00425            -240.00
00426            -240.00
00427            -320.00
00428            -240.00
00429            -240.00
00430            -240.00
00431            -240.00
00432            -240.00
00433            -240.00
00434            -240.00
00435            -240.00
00436            -240.00
00437            -240.00
00438            -240.00
00439            -240.00
00440            -240.00
00441            -240.00
00442            -240.00
00443            -240.00
00444            -240.00
00445            -160.00
00446            -160.00
00447            -160.00
00448            -160.00
00449            -160.00
00450            -160.00
00451            -160.00
00452            -160.00
00453            -160.00
00454            -160.00
00455            -160.00
00456            -160.00
00457            -160.00
00458             -80.00
00459             -80.00
00460             -80.00
00461             -80.00
00462             -80.00
00463               0.00
00464             -80.00
00465               0.00
00466               0.00
00467             -80.00
00468              80.00
00469              80.00
00470              80.00
00471              80.00
00472              80.00
00473             160.00
00474              80.00
00475              80.00
00476              80.00
00477              80.00
00478              80.00
00479             160.00
00480              80.00
00481             160.00
00482             160.00
00483             160.00
00484             160.00
00485             160.00
00486             160.00
00487             160.00
00488             160.00
00489             160.00
00490             240.00
00491             160.00
00492             240.00
00493             240.00
00494             160.00
00495             240.00
00496             240.00
00497             240.00
00498             160.00
00499             240.00
00500             240.00
00501             240.00
00502             320.00
00503             240.00
00504             240.00
00505             320.00
00506             320.00
00507             400.00
00508             400.00
00509             400.00
00510             400.00
00511             320.00
00512             400.00
00513             400.00
00514             400.00
00515             400.00
00516             400.00
00517             400.00
00518             400.00
00519             400.00
00520             400.00
00521             480.00
00522             400.00
00523             480.00
00524             480.00
00525             480.00
00526             480.00
00527             480.00
00528             480.00
00529             560.00
00530             480.00
00531             480.00
00532             480.00
00533             480.00
00534             560.00
00535             560.00
00536             560.00
00537             560.00
00538             560.00
00539             560.00
00540             560.00
00541             720.00
00542             560.00
00543             720.00
00544             640.00
00545             720.00
00546             720.00
00547             640.00
00548             640.00
00549             720.00
00550             640.00
00551             720.00
00552             720.00
00553             720.00
00554             720.00
00555             800.00
00556             720.00
00557             720.00
00558             720.00
00559             720.00
00560             800.00
00561             720.00
00562             800.00
00563             800.00
00564             800.00
00565             800.00
00566             800.00
00567             800.00
00568             720.00
00569             800.00
00570             800.00
00571             800.00
00572             720.00
00573             800.00
00574             800.00
00575             800.00
00576             800.00
00577             800.00
00578             880.00
00579             800.00
00580             800.00
00581             880.00
00582             800.00
00583             880.00
00584             880.00
00585             880.00
00586             880.00
00587             880.00
00588             880.00
00589             880.00
00590             880.00
00591             880.00
00592             880.00
00593             880.00
00594             880.00
00595             880.00
00596             960.00
00597            1040.00
00598             960.00
00599            1040.00
00600             880.00
00601            1040.00
00602            1040.00
00603            1040.00
00604            1040.00
00605            1040.00
00606            1040.00
00607            1040.00
00608            1040.00
00609            1040.00
00610            1040.00
00611            1040.00
00612            1040.00
00613            1120.00
00614            1040.00
00615            1120.00
00616            1040.00
00617            1120.00
00618            1120.00
00619            1040.00
00620            1120.00
00621            1120.00
00622            1120.00
00623            1040.00
00624            1120.00
00625            1120.00
00626            1120.00
00627            1120.00
00628            1120.00
00629            1120.00
00630            1120.00
00631            1120.00
00632            1120.00
00633            1200.00
00634            1120.00
00635            1120.00
00636            1120.00
00637            1040.00
00638            1120.00
00639            1120.00
00640            1120.00
00641            1120.00
00642            1120.00
00643            1200.00
00644            1120.00
00645            1200.00
00646            1120.00
00647            1200.00
00648            1120.00
00649            1200.00
00650            1120.00
00651            1200.00
00652            1120.00
00653            1200.00
00654            1200.00
00655            1200.00
00656            1280.00
00657            1200.00
00658            1200.00
00659            1200.00
00660            1200.00
00661            1200.00
00662            1360.00
00663            1280.00
00664            1360.00
00665            1200.00
00666            1200.00
00667            1200.00
00668            1360.00
00669            1280.00
00670            1280.00
00671            1360.00
00672            1360.00
00673            1360.00
00674            1360.00
00675            1360.00
00676            1360.00
00677            1360.00
00678            1360.00
00679            1360.00
00680            1360.00
00681            1360.00
00682            1360.00
00683            1200.00
00684            1360.00
00685            1360.00
00686            1360.00
00687            1360.00
00688            1360.00
00689            1280.00
00690            1360.00
00691            1360.00
00692            1360.00
00693            1360.00
00694            1360.00
00695            1360.00
00696            1360.00
00697            1360.00
00698            1360.00
00699            1360.00
00700            1360.00
00701            1360.00
00702            1280.00
00703            1360.00
00704            1360.00
00705            1360.00
00706            1360.00
00707            1360.00
00708            1360.00
00709            1360.00
00710            1360.00
00711            1360.00
00712            1360.00
00713            1360.00
00714            1360.00
00715            1360.00
00716            1360.00
00717            1360.00
00718            1360.00
00719            1360.00
00720            1200.00
00721            1360.00
00722            1360.00
00723            1360.00
00724            1360.00
00725            1360.00
00726            1360.00
00727            1360.00
00728            1360.00
00729            1360.00
00730            1360.00
00731            1360.00
00732            1360.00
00733            1360.00
00734            1360.00
00735            1360.00
00736            1360.00
00737            1360.00
00738            1360.00
00739            1360.00
00740            1360.00
00741            1360.00
00742            1360.00
00743            1360.00
00744            1360.00
00745            1360.00
00746            1360.00
00747            1360.00
00748            1360.00
00749            1360.00
00750            1360.00
00751            1200.00
00752            1360.00
00753            1360.00
00754            1360.00
00755            1280.00
00756            1360.00
00757            1280.00
00758            1360.00
00759            1280.00
00760            1360.00
00761            1360.00
00762            1360.00
00763            1280.00
00764            1280.00
00765            1200.00
00766            1200.00
00767            1360.00
00768            1280.00
00769            1360.00
00770            1200.00
00771            1280.00
00772            1200.00
00773            1200.00
00774            1200.00
00775            1280.00
00776            1200.00
00777            1200.00
00778            1200.00
00779            1200.00
00780            1200.00
00781            1280.00
00782            1200.00
00783            1200.00
00784            1200.00
00785            1200.00
00786            1120.00
00787            1200.00
00788            1200.00
00789            1200.00
00790            1200.00
00791            1200.00
00792            1200.00
00793            1120.00
00794            1120.00
00795            1120.00
00796            1120.00
00797            1200.00
00798            1120.00
00799            1120.00
00800            1200.00
00801            1200.00
00802            1120.00
00803            1120.00
00804            1120.00
00805            1200.00
00806            1120.00
00807            1120.00
00808            1120.00
00809            1120.00
00810            1200.00
00811            1120.00
00812            1120.00
00813            1120.00
00814            1120.00
00815            1120.00
00816            1040.00
00817            1120.00
00818            1120.00
00819            1120.00
00820            1040.00
00821            1120.00
00822            1040.00
00823            1120.00
00824            1120.00
00825            1040.00
00826            1040.00
00827            1040.00
00828            1040.00
00829            1040.00
00830            1040.00
00831            1040.00
00832            1040.00
00833            1040.00
00834            1040.00
00835            1040.00
00836            1040.00
00837            1040.00
00838            1040.00
00839             960.00
00840            1040.00
00841             880.00
00842            1040.00
00843            1040.00
00844             880.00
00845             960.00
00846             880.00
00847             880.00
00848             880.00
00849             880.00
00850             880.00
00851             880.00
00852             880.00
00853             880.00
00854             800.00
00855             880.00
00856             880.00
00857             880.00
00858             880.00
00859             880.00
00860             880.00
00861             880.00
00862             880.00
00863             800.00
00864             880.00
00865             880.00
00866             800.00
00867             880.00
00868             880.00
00869             880.00
00870             800.00
00871             800.00
00872             880.00
00873             800.00
00874             800.00
00875             800.00
00876             800.00
00877             800.00
00878             800.00
00879             800.00
00880             800.00
00881             720.00
00882             800.00
00883             800.00
00884             720.00
00885             720.00
00886             720.00
00887             800.00
00888             720.00
00889             720.00
00890             720.00
00891             720.00
00892             720.00
00893             720.00
00894             640.00
00895             720.00
00896             560.00
00897             640.00
00898             560.00
00899             560.00
00900             480.00
00901             560.00
00902             560.00
00903             480.00
00904             560.00
00905             560.00
00906             560.00
00907             480.00
00908             560.00
00909             560.00
00910             480.00
00911             480.00
00912             480.00
00913             480.00
00914             480.00
00915             480.00
00916             480.00
00917             480.00
00918             480.00
00919             400.00
00920             480.00
00921             480.00
00922             480.00
00923             400.00
00924             480.00
00925             480.00
00926             400.00
00927             400.00
00928             480.00
00929             400.00
00930             400.00
00931             320.00
00932             400.00
00933             400.00
00934             400.00
00935             400.00
00936             400.00
00937             240.00
00938             400.00
00939             240.00
00940             320.00
00941             320.00
00942             320.00
00943             240.00
00944             240.00
00945             240.00
00946             240.00
00947             160.00
00948             240.00
00949             160.00
00950             160.00
00951             240.00
00952             160.00
00953             240.00
00954             160.00
00955             160.00
00956             160.00
00957             160.00
00958             160.00
00959              80.00
00960              80.00
00961             160.00
00962              80.00
00963             160.00
00964             160.00
00965              80.00
00966             160.00
00967              80.00
00968              80.00
00969              80.00
00970              80.00
00971              80.00
00972               0.00
00973              80.00
00974               0.00
00975               0.00
00976             -80.00
00977               0.00
00978              80.00
00979             -80.00
00980             -80.00
00981             -80.00
00982             -80.00
00983             -80.00
00984             -80.00
00985            -160.00
00986             -80.00
00987             -80.00
00988             -80.00
00989            -160.00
00990            -160.00
00991            -160.00
00992             -80.00
00993            -160.00
00994            -160.00
00995            -160.00
00996            -160.00
00997            -240.00
00998            -160.00
00999            -160.00
01000            -160.00
01001            -240.00
01002            -160.00
01003            -240.00
01004            -160.00
01005            -240.00
01006            -240.00
01007            -240.00
01008            -240.00
01009            -240.00
01010            -240.00
01011            -240.00
01012            -240.00
01013            -240.00
01014            -240.00
01015            -320.00
01016            -240.00
01017            -400.00
01018            -400.00
01019            -320.00
01020            -320.00
01021            -320.00
01022            -400.00
01023            -400.00
01024            -400.00
01025            -400.00
01026            -400.00
01027            -480.00
01028            -400.00
01029            -480.00
01030            -480.00
01031            -480.00
01032            -480.00
01033            -400.00
01034            -480.00
01035            -480.00
01036            -480.00
01037            -480.00
01038            -480.00
01039            -480.00
01040            -560.00
01041            -560.00
01042            -480.00
01043            -480.00
01044            -480.00
01045            -480.00
01046            -560.00
01047            -560.00
01048            -560.00
01049            -560.00
01050            -560.00
01051            -560.00
01052            -560.00
01053            -560.00
01054            -640.00
01055            -560.00
01056            -560.00
01057            -720.00
01058            -720.00
01059            -720.00
01060            -720.00
01061            -720.00
01062            -560.00
01063            -720.00
01064            -720.00
01065            -560.00
01066            -720.00
01067            -800.00
01068            -720.00
01069            -720.00
01070            -720.00
01071            -800.00
01072            -720.00
01073            -800.00
01074            -720.00
01075            -800.00
01076            -720.00
01077            -800.00
01078            -800.00
01079            -800.00
01080            -800.00
01081            -800.00
01082            -800.00
01083            -800.00
01084            -800.00
01085            -800.00
01086            -800.00
01087            -800.00
01088            -880.00
01089            -880.00
01090            -880.00
01091            -880.00
01092            -800.00
01093            -880.00
01094            -880.00
01095            -880.00
01096            -880.00
01097            -880.00
01098            -960.00
01099            -880.00
01100           -1040.00
01101            -880.00
01102            -960.00
01103            -880.00
01104            -880.00
01105            -880.00
01106            -960.00
01107           -1040.00
01108            -880.00
01109           -1040.00
01110           -1040.00
01111           -1040.00
01112           -1040.00
01113           -1040.00
01114           -1040.00
01115           -1040.00
01116           -1040.00
01117           -1040.00
01118           -1040.00
01119           -1040.00
01120           -1040.00
01121           -1040.00
01122           -1040.00
01123           -1040.00
01124           -1040.00
01125           -1120.00
01126           -1040.00
01127           -1120.00
01128           -1040.00
01129           -1120.00
01130           -1120.00
01131           -1120.00
01132           -1120.00
01133           -1120.00
01134           -1120.00
01135           -1040.00
01136           -1120.00
01137           -1120.00
01138           -1120.00
01139           -1120.00
01140           -1120.00
01141           -1120.00
01142           -1120.00
01143           -1120.00
01144           -1120.00
01145           -1120.00
01146           -1120.00
01147           -1120.00
01148           -1120.00
01149           -1120.00
01150           -1120.00
01151           -1120.00
01152           -1120.00
01153           -1200.00
01154           -1200.00
01155           -1200.00
01156           -1120.00
01157           -1200.00
01158           -1200.00
01159           -1200.00
01160           -1200.00
01161           -1200.00
01162           -1200.00
01163           -1200.00
01164           -1200.00
01165           -1200.00
01166           -1200.00
01167           -1200.00
01168           -1280.00
01169           -1200.00
01170           -1280.00
01171           -1200.00
01172           -1200.00
01173           -1200.00
01174           -1280.00
01175           -1200.00
01176           -1200.00
01177           -1200.00
01178           -1280.00
01179           -1200.00
01180           -1200.00
01181           -1200.00
01182           -1200.00
01183           -1200.00
01184           -1200.00
01185           -1280.00
01186           -1280.00
01187           -1280.00
01188           -1200.00
01189           -1280.00
01190           -1280.00
01191           -1200.00
01192           -1200.00
01193           -1200.00
01194           -1280.00
01195           -1200.00
01196           -1200.00
01197           -1200.00
01198           -1280.00
01199           -1280.00
01200           -1360.00
01201           -1280.00
01202           -1280.00
01203           -1280.00
01204           -1360.00
01205           -1360.00
01206           -1280.00
01207           -1360.00
01208           -1200.00
01209           -1360.00
01210           -1200.00
01211           -1360.00
01212           -1360.00
01213           -1280.00
01214           -1360.00
01215           -1200.00
01216           -1360.00
01217           -1280.00
01218           -1360.00
01219           -1360.00
01220           -1360.00
01221           -1360.00
01222           -1280.00
01223           -1360.00
01224           -1360.00
01225           -1280.00
01226           -1360.00
01227           -1360.00
01228           -1360.00
01229           -1360.00
01230           -1360.00
01231           -1360.00
01232           -1280.00
01233           -1360.00
01234           -1360.00
01235           -1360.00
01236           -1280.00
01237           -1360.00
01238           -1280.00
01239           -1360.00
01240           -1360.00
01241           -1360.00
01242           -1360.00
01243           -1360.00
01244           -1360.00
01245           -1360.00
01246           -1360.00
01247           -1280.00
01248           -1360.00
01249           -1280.00
01250           -1360.00
01251           -1200.00
01252           -1280.00
01253           -1200.00
01254           -1360.00
01255           -1200.00
01256           -1360.00
01257           -1200.00
01258           -1280.00
01259           -1280.00
01260           -1360.00
01261           -1200.00
01262           -1360.00
01263           -1280.00
01264           -1360.00
01265           -1360.00
01266           -1280.00
01267           -1200.00
01268           -1200.00
01269           -1360.00
01270           -1200.00
01271           -1200.00
01272           -1280.00
01273           -1200.00
01274           -1200.00
01275           -1280.00
01276           -1200.00
01277           -1200.00
01278           -1200.00
01279           -1200.00
01280           -1200.00
01281           -1200.00
01282           -1200.00
01283           -1200.00
01284           -1200.00
01285           -1200.00
01286           -1200.00
01287           -1360.00
01288           -1200.00
01289           -1200.00
01290           -1200.00
01291           -1200.00
01292           -1200.00
01293           -1200.00
01294           -1200.00
01295           -1200.00
01296           -1200.00
01297           -1200.00
01298           -1200.00
01299           -1200.00
01300           -1120.00
01301           -1200.00
01302           -1200.00
01303           -1200.00
01304           -1200.00
01305           -1120.00
01306           -1200.00
01307           -1200.00
01308           -1200.00
01309           -1120.00
01310           -1120.00
01311           -1120.00
01312           -1120.00
01313           -1120.00
01314           -1120.00
01315           -1120.00
01316           -1120.00
01317           -1120.00
01318           -1120.00
01319           -1200.00
01320           -1120.00
01321           -1120.00
01322           -1120.00
01323           -1120.00
01324           -1120.00
01325           -1120.00
01326           -1120.00
01327           -1120.00
01328           -1040.00
01329           -1120.00
01330           -1040.00
01331           -1120.00
01332           -1040.00
01333           -1040.00
01334           -1120.00
01335           -1120.00
01336           -1120.00
01337           -1040.00
01338           -1040.00
01339           -1040.00
01340           -1040.00
01341           -1040.00
01342            -960.00
01343           -1040.00
01344            -960.00
01345           -1040.00
01346           -1040.00
01347           -1040.00
01348            -960.00
01349           -1040.00
01350           -1040.00
01351           -1040.00
01352           -1040.00
01353           -1040.00
01354           -1040.00
01355            -880.00
01356            -960.00
01357            -880.00
01358           -1040.00
01359            -880.00
01360            -880.00
01361            -880.00
01362            -880.00
01363            -880.00
01364            -880.00
01365            -880.00
01366            -880.00
01367            -880.00
01368            -880.00
01369            -880.00
01370            -880.00
01371            -880.00
01372            -880.00
01373            -880.00
01374            -800.00
01375            -880.00
01376            -800.00
01377            -800.00
01378            -800.00
01379            -800.00
01380            -800.00
01381            -880.00
01382            -800.00
01383            -800.00
01384            -800.00
01385            -720.00
01386            -720.00
01387            -720.00
01388            -720.00
01389            -800.00
01390            -720.00
01391            -800.00
01392            -640.00
01393            -720.00
01394            -720.00
01395            -720.00
01396            -720.00
01397            -720.00
01398            -720.00
01399            -720.00
01400            -720.00
01401            -720.00
01402            -560.00
01403            -640.00
01404            -560.00
01405            -560.00
01406            -640.00
01407            -560.00
01408            -560.00
01409            -560.00
01410            -560.00
01411            -560.00
01412            -560.00
01413            -560.00
01414            -560.00
01415            -560.00
01416            -560.00
01417            -480.00
01418            -560.00
01419            -560.00
01420            -480.00
01421            -480.00
01422            -480.00
01423            -480.00
01424            -480.00
01425            -480.00
01426            -480.00
01427            -480.00
01428            -480.00
01429            -480.00
01430            -480.00
01431            -480.00
01432            -480.00
01433            -400.00
01434            -480.00
01435            -400.00
01436            -480.00
01437            -400.00
01438            -400.00
01439            -400.00
01440            -400.00
01441            -400.00
01442            -320.00
01443            -400.00
01444            -320.00
01445            -240.00
01446            -240.00
01447            -240.00
01448            -320.00
01449            -240.00
01450            -240.00
01451            -240.00
01452            -240.00
01453            -240.00
01454            -240.00
01455            -240.00
01456            -240.00
01457            -240.00
01458            -240.00
01459            -240.00
01460            -160.00
01461            -240.00
01462            -240.00
01463            -160.00
01464            -160.00
01465            -160.00
01466            -160.00
01467            -160.00
01468            -160.00
01469            -160.00
01470            -160.00
01471             -80.00
01472             -80.00
01473             -80.00
01474             -80.00
01475            -160.00
01476            -160.00
01477             -80.00
01478             -80.00
01479             -80.00
01480              80.00
01481             -80.00
01482             -80.00
01483             -80.00
01484               0.00
01485             -80.00
01486             -80.00
01487             -80.00
01488              80.00
01489               0.00
01490              80.00
01491              80.00
01492              80.00
01493              80.00
01494              80.00
01495              80.00
01496              80.00
01497              80.00
01498              80.00
01499              80.00
01500             160.00
01501             160.00
01502              80.00
01503              80.00
01504             160.00
01505             160.00
01506             160.00
01507             160.00
01508             160.00
01509             160.00
01510             160.00
01511             160.00
01512             240.00
01513             160.00
01514             240.00
01515             160.00
01516             240.00
01517             240.00
01518             240.00
01519             160.00
01520             240.00
01521             240.00
01522             240.00
01523             400.00
01524             400.00
01525             240.00
01526             320.00
01527             400.00
01528             400.00
01529             400.00
01530             400.00
01531             400.00
01532             320.00
01533             480.00
01534             400.00
01535             400.00
01536             400.00
01537             400.00
01538             400.00
01539             480.00
01540             480.00
01541             480.00
01542             400.00
01543             480.00
01544             480.00
01545             480.00
01546             480.00
01547             480.00
01548             480.00
01549             480.00
01550             480.00
01551             560.00
01552             480.00
01553             560.00
01554             480.00
01555             560.00
01556             560.00
01557             560.00
01558             640.00
01559             560.00
01560             560.00
01561             560.00
01562             560.00
01563             560.00
01564             720.00
01565             640.00
01566             560.00
01567             720.00
01568             560.00
01569             720.00
01570             720.00
01571             720.00
01572             720.00
01573             720.00
01574             720.00
01575             720.00
01576             720.00
01577             720.00
01578             720.00
01579             720.00
01580             720.00
01581             720.00
01582             720.00
01583             800.00
01584             800.00
01585             800.00
01586             800.00
01587             800.00
01588             800.00
01589             800.00
01590             800.00
01591             800.00
01592             800.00
01593             880.00
01594             880.00
01595             800.00
01596             800.00
01597             880.00
01598             880.00
01599             880.00
01600             880.00
01601             880.00
01602             880.00
01603             880.00
01604             880.00
01605             960.00
01606             880.00
01607            1040.00
01608             880.00
01609             880.00
01610             880.00
01611             880.00
01612             880.00
01613             960.00
01614             960.00
01615             880.00
01616             880.00
01617            1040.00
01618             880.00
01619             880.00
01620            1040.00
01621             960.00
01622            1040.00
01623             960.00
01624            1040.00
01625            1040.00
01626            1040.00
01627            1040.00
01628            1040.00
01629            1040.00
01630            1040.00
01631            1040.00
01632            1040.00
01633            1040.00
01634            1040.00
01635            1120.00
01636            1040.00
01637            1040.00
01638            1040.00
01639            1040.00
01640            1120.00
01641            1120.00
01642            1120.00
01643            1120.00
01644            1120.00
01645            1040.00
01646            1120.00
01647            1120.00
01648            1120.00
01649            1120.00
01650            1120.00
01651            1120.00
01652            1120.00
01653            1200.00
01654            1120.00
01655            1200.00
01656            1120.00
01657            1200.00
01658            1200.00
01659            1120.00
01660            1200.00
01661            1200.00
01662            1200.00
01663            1200.00
01664            1200.00
01665            1200.00
01666            1200.00
01667            1200.00
01668            1200.00
01669            1200.00
01670            1200.00
01671            1200.00
01672            1200.00
01673            1200.00
01674            1200.00
01675            1200.00
01676            1200.00
01677            1200.00
01678            1280.00
01679            1200.00
01680            1200.00
01681            1200.00
01682            1200.00
01683            1200.00
01684            1280.00
01685            1280.00
01686            1200.00
01687            1200.00
01688            1360.00
01689            1200.00
01690            1200.00
01691            1280.00
01692            1200.00
01693            1280.00
01694            1200.00
01695            1200.00
01696            1280.00
01697            1200.00
01698            1280.00
01699            1360.00
01700            1360.00
01701            1280.00
01702            1280.00
01703            1360.00
01704            1360.00
01705            1360.00
01706            1280.00
01707            1360.00
01708            1360.00
01709            1280.00
01710            1280.00
01711            1360.00
01712            1360.00
01713            1360.00
01714            1360.00
01715            1360.00
01716            1360.00
01717            1360.00
01718            1360.00
01719            1360.00
01720            1360.00
01721            1360.00
01722            1360.00
01723            1360.00
01724            1360.00
01725            1360.00
01726            1360.00
01727            1360.00
01728            1360.00
01729            1360.00
01730            1360.00
01731            1360.00
01732            1360.00
01733            1360.00
01734            1360.00
01735            1360.00
01736            1360.00
01737            1360.00
01738            1360.00
01739            1360.00
01740            1360.00
01741            1360.00
01742            1360.00
01743            1360.00
01744            1360.00
01745            1360.00
01746            1360.00
01747            1360.00
01748            1360.00
01749            1360.00
01750            1360.00
01751            1360.00
01752            1360.00
01753            1360.00
01754            1360.00
01755            1280.00
01756            1360.00
01757            1360.00
01758            1360.00
01759            1360.00
01760            1360.00
01761            1280.00
01762            1360.00
01763            1280.00
01764            1360.00
01765            1360.00
01766            1360.00
01767            1360.00
01768            1280.00
01769            1280.00
01770            1360.00
01771            1360.00
01772            1360.00
01773            1280.00
01774            1360.00
01775            1360.00
01776            1360.00
01777            1280.00
01778            1360.00
01779            1200.00
01780            1360.00
01781            1360.00
01782            1360.00
01783            1280.00
01784            1360.00
01785            1280.00
01786            1280.00
01787            1280.00
01788            1360.00
01789            1200.00
01790            1360.00
01791            1280.00
01792            1360.00
01793            1200.00
01794            1280.00
01795            1360.00
01796            1200.00
01797            1200.00
01798            1280.00
01799            1360.00
01800            1280.00
01801            1200.00
01802            1200.00
01803            1200.00
01804            1200.00
01805            1200.00
01806            1280.00
01807            1200.00
01808            1200.00
01809            1200.00
01810            1200.00
01811            1200.00
01812            1200.00
01813            1200.00
01814            1200.00
01815            1200.00
01816            1200.00
01817            1120.00
01818            1120.00
01819            1120.00
01820            1120.00
01821            1120.00
01822            1120.00
01823            1120.00
01824            1120.00
01825            1200.00
01826            1120.00
01827            1120.00
01828            1120.00
01829            1120.00
01830            1120.00
01831            1120.00
01832            1120.00
01833            1120.00
01834            1120.00
01835            1120.00
01836            1120.00
01837            1120.00
01838            1040.00
01839            1040.00
01840            1120.00
01841            1120.00
01842            1040.00
01843            1040.00
01844            1040.00
01845            1120.00
01846            1040.00
01847            1040.00
01848            1040.00
01849            1040.00
01850            1040.00
01851            1040.00
01852            1040.00
01853            1040.00
01854            1040.00
01855            1040.00
01856            1040.00
01857            1040.00
01858            1040.00
01859            1040.00
01860            1040.00
01861            1040.00
01862            1040.00
01863            1040.00
01864            1040.00
01865            1040.00
01866            1040.00
01867            1040.00
01868            1040.00
01869             880.00
01870            1040.00
01871             880.00
01872             880.00
01873             880.00
01874             880.00
01875             880.00
01876             880.00
01877             880.00
01878             880.00
01879             880.00
01880             880.00
01881             880.00
01882             800.00
01883             880.00
01884             800.00
01885             800.00
01886             800.00
01887             800.00
01888             800.00
01889             880.00
01890             800.00
01891             800.00
01892             800.00
01893             800.00
01894             720.00
01895             800.00
01896             720.00
01897             720.00
01898             800.00
01899             720.00
01900             800.00
01901             720.00
01902             800.00
01903             720.00
01904             800.00
01905             720.00
01906             720.00
01907             720.00
01908             720.00
01909             720.00
01910             720.00
01911             720.00
01912             640.00
01913             720.00
01914             560.00
01915             640.00
01916             560.00
01917             720.00
01918             560.00
01919             560.00
01920             640.00
01921             720.00
01922             640.00
01923             560.00
01924             640.00
01925             560.00
01926             560.00
01927             560.00
01928             480.00
01929             560.00
01930             560.00
01931             560.00
01932             560.00
01933             480.00
01934             480.00
01935             480.00
01936             480.00
01937             400.00
01938             480.00
01939             480.00
01940             400.00
01941             400.00
01942             400.00
01943             400.00
01944             400.00
01945             400.00
01946             400.00
01947             400.00
01948             400.00
01949             400.00
01950             400.00
01951             400.00
01952             240.00
01953             400.00
01954             400.00
01955             240.00
01956             320.00
01957             240.00
01958             400.00
01959             240.00
01960             400.00
01961             240.00
01962             240.00
01963             240.00
01964             240.00
01965             320.00
01966             240.00
01967             240.00
01968             240.00
01969             160.00
01970             160.00
01971             160.00
01972             160.00
01973             160.00
01974             160.00
01975             160.00
01976             160.00
01977             160.00
01978             160.00
01979             160.00
01980             160.00
01981             160.00
01982             160.00
01983             160.00
01984             160.00
01985              80.00
01986              80.00
01987              80.00
01988             160.00
01989              80.00
01990              80.00
01991              80.00
01992              80.00
01993              80.00
01994              80.00
01995              80.00
01996              80.00
01997              80.00
01998              80.00
01999             -80.00
02000             -80.00
02001               0.00
02002             -80.00
02003             -80.00
02004             -80.00
02005            -160.00
02006            -160.00
02007             -80.00
02008             -80.00
02009             -80.00
02010            -160.00
02011            -160.00
02012            -160.00
02013            -240.00
02014            -160.00
02015            -160.00
02016            -160.00
02017            -160.00
02018            -160.00
02019            -240.00
02020            -240.00
02021            -240.00
02022            -240.00
02023            -240.00
02024            -240.00
02025            -240.00
02026            -240.00
02027            -240.00
02028            -240.00
02029            -240.00
02030            -240.00
02031            -240.00
02032            -240.00
02033            -320.00
02034            -240.00
02035            -240.00
02036            -240.00
02037            -400.00
02038            -400.00
02039            -400.00
02040            -320.00
02041            -400.00
02042            -400.00
02043            -320.00
02044            -400.00
02045            -400.00
02046            -400.00
02047            -400.00
02048            -480.00
02049            -400.00
02050            -480.00
02051            -480.00
02052            -480.00
02053            -480.00
02054            -480.00
02055            -480.00
02056            -480.00
02057            -480.00
02058            -480.00
02059            -480.00
02060            -480.00
02061            -480.00
02062            -560.00
02063            -560.00
02064            -480.00
02065            -560.00
02066            -560.00
02067            -560.00
02068            -560.00
02069            -560.00
02070            -640.00
02071            -560.00
02072            -560.00
02073            -560.00
02074            -560.00
02075            -720.00
02076            -640.00
02077            -560.00
02078            -720.00
02079            -640.00
02080            -720.00
02081            -720.00
02082            -720.00
02083            -720.00
02084            -640.00
02085            -720.00
02086            -800.00
02087            -720.00
02088            -720.00
02089            -800.00
02090            -800.00
02091            -800.00
02092            -800.00
02093            -720.00
02094            -720.00
02095            -720.00
02096            -720.00
02097            -800.00
02098            -800.00
02099            -800.00
02100            -800.00
02101            -880.00
02102            -800.00
02103            -800.00
02104            -800.00
02105            -800.00
02106            -880.00
02107            -800.00
02108            -800.00
02109            -880.00
02110            -880.00
02111            -880.00
02112            -880.00
02113            -880.00
02114            -880.00
02115            -880.00
02116            -880.00
02117            -880.00
02118            -880.00
02119            -880.00
02120            -880.00
02121            -880.00
02122            -880.00
02123            -960.00
02124            -880.00
02125            -880.00
02126            -880.00
02127            -880.00
02128           -1040.00
02129            -960.00
02130           -1040.00
02131           -1040.00
02132            -960.00
02133           -1040.00
02134           -1040.00
02135           -1040.00
02136           -1040.00
02137           -1040.00
02138           -1040.00
02139           -1040.00
02140           -1040.00
02141           -1120.00
02142           -1120.00
02143           -1120.00
02144           -1040.00
02145           -1040.00
02146           -1040.00
02147           -1120.00
02148           -1120.00
02149           -1120.00
02150           -1120.00
02151           -1120.00
02152           -1120.00
02153           -1120.00
02154           -1120.00
02155           -1120.00
02156           -1120.00
02157           -1120.00
02158           -1200.00
02159           -1120.00
02160           -1120.00
02161           -1200.00
02162           -1120.00
02163           -1120.00
02164           -1120.00
02165           -1120.00
02166           -1120.00
02167           -1120.00
02168           -1200.00
02169           -1120.00
02170           -1200.00
02171           -1120.00
02172           -1200.00
02173           -1200.00
02174           -1200.00
02175           -1120.00
02176           -1200.00
02177           -1120.00
02178           -1200.00
02179           -1200.00
02180           -1200.00
02181           -1200.00
02182           -1120.00
02183           -1200.00
02184           -1200.00
02185           -1200.00
02186           -1200.00
02187           -1120.00
02188           -1200.00
02189           -1200.00
02190           -1200.00
02191           -1200.00
02192           -1200.00
02193           -1200.00
02194           -1200.00
02195           -1200.00
02196           -1360.00
02197           -1200.00
02198           -1280.00
02199           -1200.00
02200           -1360.00
02201           -1200.00
02202           -1360.00
02203           -1280.00
02204           -1280.00
02205           -1360.00
02206           -1360.00
02207           -1280.00
02208           -1280.00
02209           -1200.00
02210           -1280.00
02211           -1360.00
02212           -1280.00
02213           -1360.00
02214           -1360.00
02215           -1360.00
02216           -1280.00
02217           -1360.00
02218           -1360.00
02219           -1280.00
02220           -1360.00
02221           -1360.00
02222           -1360.00
02223           -1360.00
02224           -1280.00
02225           -1360.00
02226           -1200.00
02227           -1360.00
02228           -1360.00
02229           -1280.00
02230           -1360.00
02231           -1360.00
02232           -1360.00
02233           -1280.00
02234           -1360.00
02235           -1360.00
02236           -1360.00
02237           -1280.00
02238           -1200.00
02239           -1280.00
02240           -1280.00
02241           -1360.00
02242           -1360.00
02243           -1360.00
02244           -1360.00
02245           -1280.00
02246           -1280.00
02247           -1280.00
02248           -1280.00
02249           -1360.00
02250           -1200.00
02251           -1200.00
02252           -1360.00
02253           -1360.00
02254           -1280.00
02255           -1360.00
02256           -1360.00
02257           -1280.00
02258           -1360.00
02259           -1360.00
02260           -1280.00
02261           -1280.00
02262           -1360.00
02263           -1360.00
02264           -1360.00
02265           -1360.00
02266           -1360.00
02267           -1360.00
02268           -1360.00
02269           -1360.00
02270           -1360.00
02271           -1360.00
02272           -1280.00
02273           -1360.00
02274           -1360.00
02275           -1360.00
02276           -1360.00
02277           -1360.00
02278           -1360.00
02279           -1360.00
02280           -1280.00
02281           -1360.00
02282           -1360.00
02283           -1280.00
02284           -1200.00
02285           -1360.00
02286           -1360.00
02287           -1280.00
02288           -1360.00
02289           -1360.00
02290           -1200.00
02291           -1280.00
02292           -1200.00
02293           -1280.00
02294           -1200.00
02295           -1200.00
02296           -1200.00
02297           -1200.00
02298           -1200.00
02299           -1200.00
02300           -1200.00
02301           -1200.00
02302           -1200.00
02303           -1280.00
02304           -1200.00
02305           -1200.00
02306           -1200.00
02307           -1200.00
02308           -1200.00
02309           -1200.00
02310           -1200.00
02311           -1200.00
02312           -1200.00
02313           -1200.00
02314           -1200.00
02315           -1200.00
02316           -1120.00
02317           -1200.00
02318           -1120.00
02319           -1120.00
02320           -1200.00
02321           -1200.00
02322           -1120.00
02323           -1200.00
02324           -1120.00
02325           -1200.00
02326           -1200.00
02327           -1200.00
02328           -1200.00
02329           -1200.00
02330           -1120.00
02331           -1200.00
02332           -1120.00
02333           -1200.00
02334           -1200.00
02335           -1200.00
02336           -1120.00
02337           -1120.00
02338           -1200.00
02339           -1120.00
02340           -1120.00
02341           -1120.00
02342           -1120.00
02343           -1120.00
02344           -1120.00
02345           -1120.00
02346           -1120.00
02347           -1120.00
02348           -1120.00
02349           -1120.00
02350           -1120.00
02351           -1120.00
02352           -1120.00
02353           -1120.00
02354           -1120.00
02355           -1040.00
02356           -1040.00
02357           -1040.00
02358           -1040.00
02359           -1040.00
02360           -1120.00
02361           -1040.00
02362           -1040.00
02363           -1040.00
02364           -1040.00
02365           -1040.00
02366            -960.00
02367           -1040.00
02368            -960.00
02369           -1040.00
02370           -1040.00
02371            -880.00
02372           -1040.00
02373            -880.00
02374            -880.00
02375            -960.00
02376            -880.00
02377            -880.00
02378            -880.00
02379            -880.00
02380            -880.00
02381            -880.00
02382            -880.00
02383            -880.00
02384            -880.00
02385            -880.00
02386            -880.00
02387            -880.00
02388            -880.00
02389            -880.00
02390            -880.00
02391            -880.00
02392            -880.00
02393            -800.00
02394            -880.00
02395            -800.00
02396            -880.00
02397            -880.00
02398            -800.00
02399            -880.00
02400            -800.00
02401            -800.00
02402            -800.00
02403            -800.00
02404            -800.00
02405            -800.00
02406            -800.00
02407            -800.00
02408            -720.00
02409            -800.00
02410            -800.00
02411            -800.00
02412            -720.00
02413            -800.00
02414            -720.00
02415            -720.00
02416            -720.00
02417            -800.00
02418            -720.00
02419            -720.00
02420            -720.00
02421            -720.00
02422            -720.00
02423            -560.00
02424            -560.00
02425            -640.00
02426            -560.00
02427            -640.00
02428            -560.00
02429            -560.00
02430            -560.00
02431            -640.00
02432            -560.00
02433            -480.00
02434            -480.00
02435            -480.00
02436            -560.00
02437            -480.00
02438            -480.00
02439            -560.00
02440            -480.00
02441            -480.00
02442            -480.00
02443            -560.00
02444            -480.00
02445            -480.00
02446            -480.00
02447            -480.00
02448            -400.00
02449            -480.00
02450            -400.00
02451            -480.00
02452            -400.00
02453            -480.00
02454            -480.00
02455            -400.00
02456            -400.00
02457            -400.00
02458            -400.00
02459            -400.00
02460            -400.00
02461            -400.00
02462            -400.00
02463            -400.00
02464            -240.00
02465            -240.00
02466            -320.00
02467            -320.00
02468            -240.00
02469            -240.00
02470            -400.00
02471            -240.00
02472            -240.00
02473            -240.00
02474            -240.00
02475            -240.00
02476            -240.00
02477            -240.00
02478            -240.00
02479            -240.00
02480            -240.00
02481            -240.00
02482            -240.00
02483            -240.00
02484            -240.00
02485            -240.00
02486            -160.00
02487            -160.00
02488            -160.00
02489            -160.00
02490            -160.00
02491            -160.00
02492            -160.00
02493             -80.00
02494            -160.00
02495             -80.00
02496             -80.00
02497             -80.00
02498               0.00
02499             -80.00
02500             -80.00
02501             -80.00
02502             -80.00
02503               0.00
02504             -80.00
02505             -80.00
02506               0.00
02507               0.00
02508              80.00
02509              80.00
02510              80.00
02511              80.00
02512              80.00
02513              80.00
02514              80.00
02515              80.00
02516              80.00
02517             160.00
02518              80.00
02519              80.00
02520             160.00
02521             160.00
02522             160.00
02523             160.00
02524              80.00
02525             160.00
02526             160.00
02527             160.00
02528             160.00
02529             160.00
02530             160.00
02531             240.00
02532             160.00
02533             160.00
02534             240.00
02535             240.00
02536             160.00
02537             160.00
02538             240.00
02539             240.00
02540             240.00
02541             240.00
02542             240.00
02543             240.00
02544             240.00
02545             240.00
02546             320.00
02547             320.00
02548             400.00
02549             320.00
02550             400.00
02551             400.00
02552             400.00
02553             400.00
02554             400.00
02555             400.00
02556             400.00
02557             400.00
02558             400.00
02559             480.00
02560             400.00
02561             480.00
02562             480.00
02563             480.00
02564             480.00
02565             480.00
02566             480.00
02567             560.00
02568             480.00
02569             560.00
02570             480.00
02571             560.00
02572             560.00
02573             480.00
02574             480.00
02575             560.00
02576             560.00
02577             560.00
02578             560.00
02579             560.00
02580             640.00
02581             560.00
02582             640.00
02583             720.00
02584             640.00
02585             560.00
02586             560.00
02587             720.00
02588             720.00
02589             720.00
02590             560.00
02591             640.00
02592             720.00
02593             720.00
02594             720.00
02595             720.00
02596             720.00
02597             720.00
02598             720.00
02599             720.00
02600             720.00
02601             800.00
02602             720.00
02603             800.00
02604             720.00
02605             720.00
02606             800.00
02607             800.00
02608             800.00
02609             800.00
02610             800.00
02611             800.00
02612             800.00
02613             800.00
02614             800.00
02615             800.00
02616             880.00
02617             800.00
02618             880.00
02619             880.00
02620             880.00
02621             880.00
02622             880.00
02623             880.00
02624             880.00
02625             880.00
02626             880.00
02627             880.00
02628            1040.00
02629             960.00
02630             880.00
02631             960.00
02632             880.00
02633            1040.00
02634             960.00
02635            1040.00
02636            1040.00
02637            1040.00
02638            1040.00
02639            1040.00
02640            1040.00
02641            1040.00
02642            1040.00
02643            1040.00
02644            1040.00
02645            1040.00
02646            1040.00
02647            1040.00
02648            1040.00
02649            1120.00
02650            1040.00
02651            1040.00
02652            1040.00
02653            1040.00
02654            1040.00
02655            1040.00
02656            1040.00
02657            1040.00
02658            1040.00
02659            1040.00
02660            1120.00
02661            1040.00
02662            1120.00
02663            1120.00
02664            1040.00
02665            1120.00
02666            1120.00
02667            1120.00
02668            1120.00
02669            1120.00
02670            1120.00
02671            1120.00
02672            1120.00
02673            1040.00
02674            1120.00
02675            1120.00
02676            1120.00
02677            1120.00
02678            1120.00
02679            1120.00
02680            1200.00
02681            1120.00
02682            1200.00
02683            1200.00
02684            1200.00
02685            1200.00
02686            1200.00
02687            1120.00
02688            1200.00
02689            1200.00
02690            1280.00
02691            1200.00
02692            1200.00
02693            1200.00
02694            1200.00
02695            1360.00
02696            1200.00
02697            1280.00
02698            1280.00
02699            1280.00
02700            1200.00
02701            1280.00
02702            1280.00
02703            1280.00
02704            1200.00
02705            1200.00
02706            1280.00
02707            1200.00
02708            1200.00
02709            1200.00
02710            1200.00
02711            1280.00
02712            1200.00
02713            1280.00
02714            1360.00
02715            1280.00
02716            1360.00
02717            1280.00
02718            1200.00
02719            1360.00
02720            1360.00
02721            1200.00
02722            1280.00
02723            1200.00
02724            1360.00
02725            1280.00
02726            1280.00
02727            1200.00
02728            1360.00
02729            1280.00
02730            1280.00
02731            1280.00
02732            1360.00
02733            1360.00
02734            1360.00
02735            1360.00
02736            1360.00
02737            1360.00
02738            1360.00
02739            1360.00
02740            1360.00
02741            1360.00
02742            1200.00
02743            1360.00
02744            1360.00
02745            1280.00
02746            1360.00
02747            1360.00
02748            1360.00
02749            1360.00
02750            1360.00
02751            1360.00
02752            1360.00
02753            1200.00
02754            1360.00
02755            1360.00
02756            1280.00
02757            1360.00
02758            1360.00
02759            1360.00
02760            1360.00
02761            1360.00
02762            1360.00
02763            1360.00
02764            1360.00
02765            1360.00
02766            1360.00
02767            1360.00
02768            1360.00
02769            1360.00
02770            1360.00
02771            1360.00
02772            1360.00
02773            1360.00
02774            1360.00
02775            1360.00
02776            1360.00
02777            1360.00
02778            1360.00
02779            1360.00
02780            1360.00
02781            1360.00
02782            1360.00
02783            1360.00
02784            1360.00
02785            1360.00
02786            1360.00
02787            1360.00
02788            1360.00
02789            1360.00
02790            1360.00
02791            1360.00
02792            1200.00
02793            1360.00
02794            1360.00
02795            1360.00
02796            1360.00
02797            1280.00
02798            1360.00
02799            1280.00
02800            1200.00
02801            1280.00
02802            1280.00
02803            1360.00
02804            1200.00
02805            1200.00
02806            1360.00
02807            1200.00
02808            1280.00
02809            1200.00
02810            1280.00
02811            1200.00
02812            1200.00
02813            1280.00
02814            1200.00
02815            1280.00
02816            1280.00
02817            1200.00
02818            1200.00
02819            1200.00
02820            1200.00
02821            1200.00
02822            1200.00
02823            1280.00
02824            1280.00
02825            1200.00
02826            1200.00
02827            1200.00
02828            1200.00
02829            1280.00
02830            1200.00
02831            1200.00
02832            1120.00
02833            1200.00
02834            1200.00
02835            1120.00
02836            1200.00
02837            1200.00
02838            1200.00
02839            1200.00
02840            1120.00
02841            1200.00
02842            1120.00
02843            1200.00
02844            1120.00
02845            1200.00
02846            1120.00
02847            1040.00
02848            1120.00
02849            1120.00
02850            1120.00
02851            1040.00
02852            1040.00
02853            1040.00
02854            1120.00
02855            1040.00
02856            1040.00
02857            1120.00
02858            1040.00
02859            1120.00
02860            1040.00
02861            1040.00
02862            1040.00
02863            1040.00
02864            1040.00
02865            1040.00
02866            1040.00
02867            1040.00
02868            1040.00
02869            1040.00
02870            1040.00
02871            1040.00
02872            1040.00
02873            1040.00
02874            1040.00
02875            1040.00
02876            1040.00
02877            1040.00
02878            1040.00
02879            1040.00
02880            1040.00
02881            1040.00
02882             960.00
02883            1040.00
02884             880.00
02885            1040.00
02886            1040.00
02887             880.00
02888             880.00
02889             880.00
02890             960.00
02891             880.00
02892            1040.00
02893             880.00
02894             880.00
02895             880.00
02896             800.00
02897             880.00
02898             880.00
02899             880.00
02900             800.00
02901             880.00
02902             880.00
02903             880.00
02904             880.00
02905             800.00
02906             880.00
02907             880.00
02908             800.00
02909             800.00
02910             800.00
02911             800.00
02912             800.00
02913             800.00
02914             800.00
02915             800.00
02916             720.00
02917             800.00
02918             720.00
02919             800.00
02920             720.00
02921             720.00
02922             720.00
02923             720.00
02924             720.00
02925             800.00
02926             720.00
02927             640.00
02928             720.00
02929             720.00
02930             720.00
02931             720.00
02932             720.00
02933             560.00
02934             560.00
02935             640.00
02936             560.00
02937             640.00
02938             560.00
02939             640.00
02940             560.00
02941             560.00
02942             640.00
02943             560.00
02944             560.00
02945             560.00
02946             560.00
02947             560.00
02948             480.00
02949             560.00
02950             480.00
02951             480.00
02952             480.00
02953             480.00
02954             560.00
02955             480.00
02956             480.00
02957             480.00
02958             480.00
02959             480.00
02960             480.00
02961             480.00
02962             400.00
02963             400.00
02964             480.00
02965             400.00
02966             400.00
02967             400.00
02968             400.00
02969             400.00
02970             400.00
02971             400.00
02972             400.00
02973             240.00
02974             400.00
02975             400.00
02976             320.00
02977             400.00
02978             240.00
02979             240.00
02980             240.00
02981             240.00
02982             240.00
02983             240.00
02984             240.00
02985             240.00
02986             240.00
02987             160.00
02988             160.00
02989             240.00
02990             160.00
02991             160.00
02992             160.00
02993             160.00
02994             160.00
02995             160.00
02996             160.00
02997             160.00
02998             160.00
02999              80.00
03000              80.00
03001              80.00
03002              80.00
03003              80.00
03004              80.00
03005              80.00
03006              80.00
03007              80.00
03008             160.00
03009              80.00
03010              80.00
03011              80.00
03012              80.00
03013               0.00
03014             -80.00
03015              80.00
03016              80.00
03017               0.00
03018             -80.00
03019              80.00
03020               0.00
03021              80.00
03022               0.00
03023             -80.00
03024             -80.00
03025             -80.00
03026             -80.00
03027             -80.00
03028             -80.00
03029             -80.00
03030             -80.00
03031             -80.00
03032             -80.00
03033            -160.00
03034             -80.00
03035            -160.00
03036            -240.00
03037            -160.00
03038            -240.00
03039            -160.00
03040            -240.00
03041            -160.00
03042            -160.00
03043            -240.00
03044            -240.00
03045            -240.00
03046            -240.00
03047            -240.00
03048            -240.00
03049            -240.00
03050            -240.00
03051            -240.00
03052            -240.00
03053            -240.00
03054            -400.00
03055            -240.00
03056            -320.00
03057            -400.00
03058            -400.00
03059            -400.00
03060            -400.00
03061            -400.00
03062            -400.00
03063            -400.00
03064            -400.00
03065            -400.00
03066            -400.00
03067            -400.00
03068            -480.00
03069            -480.00
03070            -400.00
03071            -480.00
03072            -480.00
03073            -480.00
03074            -480.00
03075            -480.00
03076            -480.00
03077            -480.00
03078            -480.00
03079            -480.00
03080            -480.00
03081            -480.00
03082            -480.00
03083            -480.00
03084            -480.00
03085            -560.00
03086            -480.00
03087            -560.00
03088            -480.00
03089            -560.00
03090            -560.00
03091            -560.00
03092            -560.00
03093            -560.00
03094            -560.00
03095            -560.00
03096            -560.00
03097            -560.00
03098            -560.00
03099            -560.00
03100            -720.00
03101            -720.00
03102            -720.00
03103            -720.00
03104            -720.00
03105            -800.00
03106            -640.00
03107            -800.00
03108            -800.00
03109            -720.00
03110            -720.00
03111            -720.00
03112            -800.00
03113            -800.00
03114            -800.00
03115            -800.00
03116            -800.00
03117            -800.00
03118            -800.00
03119            -800.00
03120            -800.00
03121            -800.00
03122            -880.00
03123            -800.00
03124            -880.00
03125            -880.00
03126            -800.00
03127            -880.00
03128            -880.00
03129            -880.00
03130            -880.00
03131            -880.00
03132            -880.00
03133            -880.00
03134            -880.00
03135            -880.00
03136            -880.00
03137            -880.00
03138            -880.00
03139            -880.00
03140            -880.00
03141            -880.00
03142            -880.00
03143           -1040.00
03144            -880.00
03145           -1040.00
03146            -880.00
03147            -960.00
03148            -880.00
03149            -880.00
03150            -960.00
03151            -880.00
03152            -960.00
03153           -1040.00
03154            -880.00
03155           -1040.00
03156           -1040.00
03157           -1040.00
03158            -960.00
03159           -1120.00
03160           -1040.00
03161           -1040.00
03162           -1040.00
03163           -1040.00
03164           -1040.00
03165           -1040.00
03166           -1040.00
03167           -1120.00
03168           -1120.00
03169           -1040.00
03170           -1040.00
03171           -1120.00
03172           -1040.00
03173           -1120.00
03174           -1120.00
03175           -1120.00
03176           -1120.00
03177           -1120.00
03178           -1120.00
03179           -1120.00
03180           -1120.00
03181           -1200.00
03182           -1120.00
03183           -1120.00
03184           -1200.00
03185           -1120.00
03186           -1120.00
03187           -1120.00
03188           -1200.00
03189           -1120.00
03190           -1200.00
03191           -1200.00
03192           -1200.00
03193           -1200.00
03194           -1200.00
03195           -1120.00
03196           -1200.00
03197           -1120.00
03198           -1200.00
03199           -1200.00
03200           -1200.00
03201           -1200.00
03202           -1200.00
03203           -1200.00
03204           -1200.00
03205           -1200.00
03206           -1200.00
03207           -1200.00
03208           -1200.00
03209           -1200.00
03210           -1200.00
03211           -1200.00
03212           -1200.00
03213           -1200.00
03214           -1200.00
03215           -1200.00
03216           -1200.00
03217           -1200.00
03218           -1200.00
03219           -1200.00
03220           -1200.00
03221           -1200.00
03222           -1280.00
03223           -1200.00
03224           -1280.00
03225           -1200.00
03226           -1200.00
03227           -1200.00
03228           -1360.00
03229           -1200.00
03230           -1200.00
03231           -1200.00
03232           -1280.00
03233           -1200.00
03234           -1360.00
03235           -1280.00
03236           -1360.00
03237           -1200.00
03238           -1360.00
03239           -1280.00
03240           -1360.00
03241           -1360.00
03242           -1360.00
03243           -1360.00
03244           -1360.00
03245           -1360.00
03246           -1360.00
03247           -1280.00
03248           -1200.00
03249           -1360.00
03250           -1360.00
03251           -1360.00
03252           -1360.00
03253           -1360.00
03254           -1280.00
03255           -1360.00
03256           -1360.00
03257           -1360.00
03258           -1440.00
03259           -1360.00
03260           -1360.00
03261           -1360.00
03262           -1360.00
03263           -1360.00
03264           -1360.00
03265           -1360.00
03266           -1280.00
03267           -1360.00
03268           -1360.00
03269           -1360.00
03270           -1360.00
03271           -1360.00
03272           -1360.00
03273           -1280.00
03274           -1360.00
03275           -1360.00
03276           -1360.00
03277           -1360.00
03278           -1280.00
03279           -1280.00
03280           -1200.00
03281           -1200.00
03282           -1360.00
03283           -1280.00
03284           -1360.00
03285           -1360.00
03286           -1280.00
03287           -1360.00
03288           -1360.00
03289           -1360.00
03290           -1280.00
03291           -1200.00
03292           -1360.00
03293           -1280.00
03294           -1360.00
03295           -1280.00
03296           -1200.00
03297           -1360.00
03298           -1280.00
03299           -1200.00
03300           -1360.00
03301           -1200.00
03302           -1280.00
03303           -1280.00
03304           -1200.00
03305           -1360.00
03306           -1280.00
03307           -1280.00
03308           -1360.00
03309           -1360.00
03310           -1360.00
03311           -1280.00
03312           -1200.00
03313           -1280.00
03314           -1280.00
03315           -1360.00
03316           -1280.00
03317           -1200.00
03318           -1200.00
03319           -1280.00
03320           -1200.00
03321           -1200.00
03322           -1280.00
03323           -1200.00
03324           -1280.00
03325           -1200.00
03326           -1200.00
03327           -1200.00
03328           -1200.00
03329           -1200.00
03330           -1360.00
03331           -1200.00
03332           -1200.00
03333           -1200.00
03334           -1200.00
03335           -1200.00
03336           -1200.00
03337           -1120.00
03338           -1200.00
03339           -1120.00
03340           -1200.00
03341           -1200.00
03342           -1120.00
03343           -1200.00
03344           -1200.00
03345           -1120.00
03346           -1200.00
03347           -1120.00
03348           -1200.00
03349           -1120.00
03350           -1200.00
03351           -1200.00
03352           -1120.00
03353           -1120.00
03354           -1200.00
03355           -1120.00
03356           -1120.00
03357           -1120.00
03358           -1120.00
03359           -1120.00
03360           -1120.00
03361           -1120.00
03362           -1120.00
03363           -1120.00
03364           -1120.00
03365           -1120.00
03366           -1120.00
03367           -1040.00
03368           -1120.00
03369           -1120.00
03370           -1040.00
03371           -1120.00
03372           -1120.00
03373           -1040.00
03374           -1120.00
03375           -1120.00
03376           -1120.00
03377           -1040.00
03378           -1040.00
03379           -1040.00
03380           -1040.00
03381           -1040.00
03382           -1120.00
03383           -1040.00
03384           -1040.00
03385           -1040.00
03386           -1040.00
03387           -1040.00
03388           -1040.00
03389           -1040.00
03390            -960.00
03391            -960.00
03392           -1040.00
03393            -880.00
03394            -880.00
03395           -1040.00
03396            -880.00
03397            -880.00
03398            -960.00
03399            -880.00
03400            -880.00
03401            -880.00
03402            -880.00
03403            -880.00
03404            -880.00
03405            -880.00
03406            -880.00
03407            -880.00
03408            -880.00
03409            -880.00
03410            -880.00
03411            -800.00
03412            -880.00
03413            -880.00
03414            -880.00
03415            -800.00
03416            -800.00
03417            -800.00
03418            -800.00
03419            -800.00
03420            -800.00
03421            -800.00
03422            -800.00
03423            -800.00
03424            -800.00
03425            -800.00
03426            -800.00
03427            -720.00
03428            -720.00
03429            -800.00
03430            -720.00
03431            -720.00
03432            -720.00
03433            -720.00
03434            -560.00
03435            -720.00
03436            -720.00
03437            -720.00
03438            -720.00
03439            -720.00
03440            -720.00
03441            -720.00
03442            -720.00
03443            -720.00
03444            -640.00
03445            -720.00
03446            -640.00
03447            -560.00
03448            -640.00
03449            -560.00
03450            -560.00
03451            -640.00
03452            -560.00
03453            -560.00
03454            -560.00
03455            -560.00
03456            -560.00
03457            -560.00
03458            -560.00
03459            -480.00
03460            -480.00
03461            -480.00
03462            -480.00
03463            -480.00
03464            -480.00
03465            -480.00
03466            -480.00
03467            -480.00
03468            -480.00
03469            -480.00
03470            -480.00
03471            -400.00
03472            -400.00
03473            -400.00
03474            -400.00
03475            -400.00
03476            -400.00
03477            -400.00
03478            -400.00
03479            -240.00
03480            -400.00
03481            -400.00
03482            -240.00
03483            -240.00
03484            -320.00
03485            -240.00
03486            -320.00
03487            -240.00
03488            -240.00
03489            -240.00
03490            -240.00
03491            -240.00
03492            -240.00
03493            -240.00
03494            -320.00
03495            -240.00
03496            -240.00
03497            -240.00
03498            -240.00
03499            -240.00
03500            -240.00
03501            -160.00
03502            -240.00
03503            -240.00
03504            -240.00
03505            -160.00
03506            -160.00
03507            -160.00
03508            -160.00
03509            -160.00
03510            -160.00
03511            -160.00
03512             -80.00
03513             -80.00
03514            -160.00
03515            -160.00
03516             -80.00
03517             -80.00
03518             -80.00
03519             -80.00
03520             -80.00
03521             -80.00
03522               0.00
03523             -80.00
03524             -80.00
03525             -80.00
03526             -80.00
03527              80.00
03528              80.00
03529              80.00
03530              80.00
03531              80.00
03532              80.00
03533              80.00
03534              80.00
03535              80.00
03536              80.00
03537              80.00
03538             160.00
03539             160.00
03540             160.00
03541             160.00
03542             160.00
03543             160.00
03544             160.00
03545             160.00
03546             160.00
03547             160.00
03548             160.00
03549             160.00
03550             240.00
03551             240.00
03552             240.00
03553             160.00
03554             160.00
03555             240.00
03556             240.00
03557             240.00
03558             240.00
03559             240.00
03560             240.00
03561             240.00
03562             240.00
03563             240.00
03564             320.00
03565             400.00
03566             320.00
03567             400.00
03568             240.00
03569             320.00
03570             400.00
03571             400.00
03572             400.00
03573             400.00
03574             320.00
03575             400.00
03576             400.00
03577             400.00
03578             400.00
03579             400.00
03580             480.00
03581             400.00
03582             400.00
03583             480.00
03584             480.00
03585             480.00
03586             480.00
03587             560.00
03588             480.00
03589             480.00
03590             480.00
03591             480.00
03592             480.00
03593             480.00
03594             560.00
03595             560.00
03596             560.00
03597             560.00
03598             560.00
03599             640.00
03600             560.00
03601             640.00
03602             560.00
03603             560.00
03604             720.00
03605             640.00
03606             560.00
03607             720.00
03608             640.00
03609             720.00
03610             720.00
03611             720.00
03612             720.00
03613             720.00
03614             720.00
03615             720.00
03616             720.00
03617             720.00
03618             800.00
03619             800.00
03620             800.00
03621             800.00
03622             720.00
03623             800.00
03624             720.00
03625             800.00
03626             800.00
03627             800.00
03628             800.00
03629             800.00
03630             800.00
03631             800.00
03632             800.00
03633             800.00
03634             800.00
03635             880.00
03636             800.00
03637             800.00
03638             880.00
03639             880.00
03640             800.00
03641             800.00
03642             880.00
03643             800.00
03644             880.00
03645             880.00
03646             880.00
03647             880.00
03648             880.00
03649             880.00
03650             960.00
03651             960.00
03652             880.00
03653             880.00
03654             880.00
03655             880.00
03656             960.00
03657            1040.00
03658            1040.00
03659            1040.00
03660            1040.00
03661            1040.00
03662            1040.00
03663            1040.00
03664            1040.00
03665            1040.00
03666             960.00
03667            1040.00
03668            1040.00
03669            1040.00
03670            1040.00
03671            1040.00
03672            1040.00
03673            1040.00
03674            1040.00
03675            1120.00
03676            1040.00
03677            1040.00
03678            1120.00
03679            1120.00
03680            1120.00
03681            1040.00
03682            1040.00
03683            1120.00
03684            1120.00
03685            1120.00
03686            1120.00
03687            1120.00
03688            1120.00
03689            1120.00
03690            1120.00
03691            1120.00
03692            1120.00
03693            1200.00
03694            1200.00
03695            1120.00
03696            1200.00
03697            1120.00
03698            1200.00
03699            1120.00
03700            1120.00
03701            1120.00
03702            1200.00
03703            1200.00
03704            1200.00
03705            1200.00
03706            1200.00
03707            1120.00
03708            1200.00
03709            1200.00
03710            1200.00
03711            1200.00
03712            1200.00
03713            1200.00
03714            1200.00
03715            1200.00
03716            1200.00
03717            1200.00
03718            1360.00
03719            1200.00
03720            1200.00
03721            1280.00
03722            1280.00
03723            1200.00
03724            1200.00
03725            1280.00
03726            1200.00
03727            1360.00
03728            1280.00
03729            1280.00
03730            1200.00
03731            1200.00
03732            1360.00
03733            1360.00
03734            1360.00
03735            1360.00
03736            1360.00
03737            1360.00
03738            1360.00
03739            1360.00
03740            1360.00
03741            1360.00
03742            1360.00
03743            1360.00
03744            1360.00
03745            1360.00
03746            1360.00
03747            1360.00
03748            1360.00
03749            1360.00
03750            1360.00
03751            1360.00
03752            1360.00
03753            1360.00
03754            1360.00
03755            1360.00
03756            1360.00
03757            1360.00
03758            1360.00
03759            1360.00
03760            1360.00
03761            1360.00
03762            1360.00
03763            1360.00
03764            1360.00
03765            1360.00
03766            1360.00
03767            1360.00
03768            1360.00
03769            1360.00
03770            1360.00
03771            1360.00
03772            1360.00
03773            1360.00
03774            1360.00
03775            1360.00
03776            1360.00
03777            1360.00
03778            1360.00
03779            1280.00
03780            1360.00
03781            1360.00
03782            1360.00
03783            1360.00
03784            1360.00
03785            1360.00
03786            1360.00
03787            1360.00
03788            1440.00
03789            1360.00
03790            1280.00
03791            1360.00
03792            1360.00
03793            1360.00
03794            1360.00
03795            1360.00
03796            1360.00
03797            1360.00
03798            1360.00
03799            1360.00
03800            1360.00
03801            1360.00
03802            1360.00
03803            1360.00
03804            1280.00
03805            1360.00
03806            1360.00
03807            1360.00
03808            1360.00
03809            1360.00
03810            1360.00
03811            1360.00
03812            1360.00
03813            1280.00
03814            1360.00
03815            1360.00
03816            1360.00
03817            1360.00
03818            1360.00
03819            1360.00
03820            1360.00
03821            1280.00
03822            1280.00
03823            1360.00
03824            1360.00
03825            1360.00
03826            1280.00
03827            1200.00
03828            1200.00
03829            1200.00
03830            1200.00
03831            1360.00
03832            1360.00
03833            1280.00
03834            1200.00
03835            1200.00
03836            1200.00
03837            1200.00
03838            1200.00
03839            1200.00
03840            1200.00
03841            1200.00
03842            1200.00
03843            1200.00
03844            1200.00
03845            1200.00
03846            1200.00
03847            1200.00
03848            1200.00
03849            1200.00
03850            1120.00
03851            1120.00
03852            1200.00
03853            1200.00
03854            1120.00
03855            1200.00
03856            1200.00
03857            1200.00
03858            1120.00
03859            1200.00
03860            1200.00
03861            1200.00
03862            1120.00
03863            1120.00
03864            1120.00
03865            1120.00
03866            1120.00
03867            1120.00
03868            1120.00
03869            1120.00
03870            1120.00
03871            1120.00
03872            1120.00
03873            1120.00
03874            1120.00
03875            1120.00
03876            1040.00
03877            1120.00
03878            1120.00
03879            1040.00
03880            1040.00
03881            1120.00
03882            1120.00
03883            1040.00
03884            1040.00
03885            1040.00
03886            1040.00
03887            1040.00
03888            1040.00
03889            1040.00
03890            1040.00
03891            1040.00
03892            1040.00
03893            1040.00
03894            1040.00
03895            1040.00
03896             960.00
03897            1040.00
03898             880.00
03899            1040.00
03900            1040.00
03901            1040.00
03902             960.00
03903            1040.00
03904            1040.00
03905             880.00
03906             880.00
03907             880.00
03908             880.00
03909             880.00
03910             880.00
03911             880.00
03912             880.00
03913             880.00
03914             880.00
03915             880.00
03916             880.00
03917             960.00
03918             880.00
03919             880.00
03920             800.00
03921             880.00
03922             880.00
03923             800.00
03924             800.00
03925             800.00
03926             800.00
03927             800.00
03928             880.00
03929             800.00
03930             800.00
03931             800.00
03932             800.00
03933             800.00
03934             800.00
03935             800.00
03936             800.00
03937             800.00
03938             800.00
03939             800.00
03940             720.00
03941             800.00
03942             800.00
03943             800.00
03944             800.00
03945             720.00
03946             720.00
03947             720.00
03948             720.00
03949             720.00
03950             720.00
03951             560.00
03952             720.00
03953             720.00
03954             720.00
03955             720.00
03956             640.00
03957             640.00
03958             560.00
03959             560.00
03960             560.00
03961             560.00
03962             560.00
03963             560.00
03964             560.00
03965             480.00
03966             560.00
03967             480.00
03968             560.00
03969             480.00
03970             560.00
03971             480.00
03972             480.00
03973             480.00
03974             480.00
03975             480.00
03976             480.00
03977             480.00
03978             480.00
03979             400.00
03980             480.00
03981             400.00
03982             400.00
03983             400.00
03984             480.00
03985             400.00
03986             480.00
03987             400.00
03988             400.00
03989             400.00
03990             400.00
03991             400.00
03992             400.00
03993             400.00
03994             320.00
03995             400.00
03996             240.00
03997             400.00
03998             320.00
03999             320.00
04000             400.00
04001             240.00
04002             240.00
04003             400.00
04004             240.00
04005             240.00
04006             240.00
04007             240.00
04008             240.00
04009             240.00
04010             160.00
04011             240.00
04012             160.00
04013             240.00
04014             160.00
04015             160.00
04016             160.00
04017             160.00
04018             160.00
04019             160.00
04020             160.00
04021              80.00
04022              80.00
04023              80.00
04024              80.00
04025              80.00
04026              80.00
04027              80.00
04028              80.00
04029              80.00
04030             -80.00
04031              80.00
04032              80.00
04033             -80.00
04034              80.00
04035               0.00
04036               0.00
04037             -80.00
04038             -80.00
04039             -80.00
04040             -80.00
04041             -80.00
04042             -80.00
04043             -80.00
04044             -80.00
04045             -80.00
04046             -80.00
04047             -80.00
04048             -80.00
04049             -80.00
04050            -160.00
04051            -160.00
04052             -80.00
04053            -160.00
04054            -160.00
04055            -160.00
04056            -160.00
04057            -160.00
04058            -240.00
04059            -160.00
04060            -160.00
04061            -240.00
04062            -240.00
04063            -240.00
04064            -240.00
04065            -240.00
04066            -240.00
04067            -240.00
04068            -240.00
04069            -240.00
04070            -240.00
04071            -240.00
04072            -240.00
04073            -240.00
04074            -240.00
04075            -320.00
04076            -240.00
04077            -400.00
04078            -320.00
04079            -400.00
04080            -400.00
04081            -400.00
04082            -240.00
04083            -320.00
04084            -400.00
04085            -400.00
04086            -400.00
04087            -400.00
04088            -480.00
04089            -480.00
04090            -400.00
04091            -480.00
04092            -480.00
04093            -480.00
04094            -480.00
04095            -480.00
04096            -480.00
04097            -480.00
04098            -480.00
04099            -560.00
04100            -560.00
04101            -480.00
04102            -480.00
04103            -560.00
04104            -560.00
04105            -480.00
04106            -560.00
04107            -560.00
04108            -560.00
04109            -560.00
04110            -560.00
04111            -560.00
04112            -560.00
04113            -640.00
04114            -720.00
04115            -560.00
04116            -560.00
04117            -720.00
04118            -720.00
04119            -560.00
04120            -640.00
04121            -720.00
04122            -720.00
04123            -720.00
04124            -720.00
04125            -720.00
04126            -720.00
04127            -720.00
04128            -800.00
04129            -720.00
04130            -720.00
04131            -720.00
04132            -800.00
04133            -720.00
04134            -800.00
04135            -800.00
04136            -720.00
04137            -800.00
04138            -720.00
04139            -800.00
04140            -800.00
04141            -800.00
04142            -800.00
04143            -800.00
04144            -800.00
04145            -880.00
04146            -800.00
04147            -800.00
04148            -880.00
04149            -880.00
04150            -880.00
04151            -880.00
04152            -880.00
04153            -880.00
04154            -880.00
04155            -880.00
04156            -960.00
04157            -880.00
04158            -880.00
04159            -880.00
04160           -1040.00
04161           -1040.00
04162            -880.00
04163            -880.00
04164            -880.00
04165            -880.00
04166            -960.00
04167           -1040.00
04168            -880.00
04169           -1040.00
04170           -1040.00
04171            -960.00
04172           -1040.00
04173           -1040.00
04174           -1040.00
04175           -1040.00
04176           -1040.00
04177           -1040.00
04178           -1040.00
04179            -960.00
04180           -1040.00
04181           -1040.00
04182           -1040.00
04183           -1040.00
04184           -1040.00
04185           -1120.00
04186           -1120.00
04187           -1120.00
04188           -1120.00
04189           -1040.00
04190           -1120.00
04191           -1120.00
04192           -1120.00
04193           -1040.00
04194           -1120.00
04195           -1120.00
04196           -1120.00
04197           -1040.00
04198           -1120.00
04199           -1120.00
04200           -1120.00
04201           -1120.00
04202           -1120.00
04203           -1120.00
04204           -1120.00
04205           -1200.00
04206           -1120.00
04207           -1120.00
04208           -1120.00
04209           -1120.00
04210           -1120.00
04211           -1200.00
04212           -1120.00
04213           -1200.00
04214           -1120.00
04215           -1120.00
04216           -1120.00
04217           -1200.00
04218           -1200.00
04219           -1200.00
04220           -1200.00
04221           -1200.00
04222           -1200.00
04223           -1200.00
04224           -1200.00
04225           -1200.00
04226           -1200.00
04227           -1200.00
04228           -1200.00
04229           -1200.00
04230           -1280.00
04231           -1200.00
04232           -1200.00
04233           -1200.00
04234           -1200.00
04235           -1200.00
04236           -1280.00
04237           -1200.00
04238           -1280.00
04239           -1280.00
04240           -1200.00
04241           -1360.00
04242           -1200.00
04243           -1280.00
04244           -1280.00
04245           -1280.00
04246           -1200.00
04247           -1360.00
04248           -1200.00
04249           -1280.00
04250           -1200.00
04251           -1280.00
04252           -1200.00
04253           -1280.00
04254           -1200.00
04255           -1280.00
04256           -1280.00
04257           -1280.00
04258           -1200.00
04259           -1200.00
04260           -1200.00
04261           -1360.00
04262           -1360.00
04263           -1200.00
04264           -1360.00
04265           -1280.00
04266           -1280.00
04267           -1280.00
04268           -1360.00
04269           -1360.00
04270           -1200.00
04271           -1200.00
04272           -1280.00
04273           -1200.00
04274           -1360.00
04275           -1200.00
04276           -1360.00
04277           -1360.00
04278           -1280.00
04279           -1360.00
04280           -1360.00
04281           -1360.00
04282           -1360.00
04283           -1360.00
04284           -1360.00
04285           -1360.00
04286           -1360.00
04287           -1280.00
04288           -1360.00
04289           -1360.00
04290           -1360.00
04291           -1360.00
04292           -1360.00
04293           -1360.00
04294           -1360.00
04295           -1360.00
04296           -1360.00
04297           -1360.00
04298           -1360.00
04299           -1360.00
04300           -1360.00
04301           -1360.00
04302           -1360.00
04303           -1360.00
04304           -1360.00
04305           -1360.00
04306           -1360.00
04307           -1360.00
04308           -1360.00
04309           -1280.00
04310           -1280.00
04311           -1360.00
04312           -1280.00
04313           -1200.00
04314           -1360.00
04315           -1360.00
04316           -1280.00
04317           -1360.00
04318           -1360.00
04319           -1280.00
04320           -1200.00
04321           -1360.00
04322           -1280.00
04323           -1200.00
04324           -1280.00
04325           -1200.00
04326           -1200.00
04327           -1200.00
04328           -1200.00
04329           -1200.00
04330           -1200.00
04331           -1200.00
04332           -1200.00
04333           -1200.00
04334           -1200.00
04335           -1200.00
04336           -1200.00
04337           -1200.00
04338           -1200.00
04339           -1200.00
04340           -1280.00
04341           -1200.00
04342           -1200.00
04343           -1200.00
04344           -1200.00
04345           -1200.00
04346           -1200.00
04347           -1200.00
04348           -1200.00
04349           -1200.00
04350           -1200.00
04351           -1200.00
04352           -1200.00
04353           -1200.00
04354           -1200.00
04355           -1200.00
04356           -1200.00
04357           -1200.00
04358           -1200.00
04359           -1200.00
04360           -1200.00
04361           -1200.00
04362           -1200.00
04363           -1200.00
04364           -1200.00
04365           -1200.00
04366           -1120.00
04367           -1200.00
04368           -1120.00
04369           -1200.00
04370           -1200.00
04371           -1120.00
04372           -1120.00
04373           -1200.00
04374           -1120.00
04375           -1120.00
04376           -1120.00
04377           -1120.00
04378           -1120.00
04379           -1120.00
04380           -1120.00
04381           -1120.00
04382           -1120.00
04383           -1120.00
04384           -1120.00
04385           -1120.00
04386           -1120.00
04387           -1120.00
04388           -1120.00
04389           -1120.00
04390           -1040.00
04391           -1040.00
04392           -1120.00
04393           -1040.00
04394           -1040.00
04395           -1120.00
04396           -1040.00
04397           -1040.00
04398            -960.00
04399           -1040.00
04400           -1040.00
04401           -1040.00
04402            -960.00
04403           -1040.00
04404            -960.00
04405           -1040.00
04406            -960.00
04407           -1040.00
04408            -880.00
04409            -960.00
04410           -1040.00
04411           -1040.00
04412           -1040.00
04413           -1040.00
04414            -960.00
04415            -960.00
04416            -960.00
04417            -960.00
04418            -880.00
04419            -880.00
04420            -880.00
04421            -880.00
04422            -880.00
04423            -880.00
04424            -960.00
04425            -880.00
04426            -880.00
04427            -880.00
04428            -880.00
04429            -880.00
04430            -880.00
04431            -800.00
04432            -880.00
04433            -880.00
04434            -880.00
04435            -880.00
04436            -880.00
04437            -880.00
04438            -800.00
04439            -800.00
04440            -800.00
04441            -720.00
04442            -800.00
04443            -720.00
04444            -800.00
04445            -800.00
04446            -800.00
04447            -800.00
04448            -800.00
04449            -720.00
04450            -720.00
04451            -720.00
04452            -800.00
04453            -720.00
04454            -560.00
04455            -720.00
04456            -720.00
04457            -640.00
04458            -560.00
04459            -560.00
04460            -720.00
04461            -640.00
04462            -560.00
04463            -560.00
04464            -560.00
04465            -640.00
04466            -560.00
04467            -560.00
04468            -560.00
04469            -560.00
04470            -560.00
04471            -560.00
04472            -560.00
04473            -560.00
04474            -560.00
04475            -560.00
04476            -480.00
04477            -560.00
04478            -480.00
04479            -560.00
04480            -480.00
04481            -480.00
04482            -480.00
04483            -480.00
04484            -480.00
04485            -480.00
04486            -480.00
04487            -480.00
04488            -480.00
04489            -480.00
04490            -480.00
04491            -400.00
04492            -480.00
04493            -480.00
04494            -400.00
04495            -480.00
04496            -400.00
04497            -400.00
04498            -400.00
04499            -400.00
04500            -400.00
04501            -400.00
04502            -240.00
04503            -400.00
04504            -320.00
04505            -400.00
04506            -400.00
04507            -240.00
04508            -240.00
04509            -240.00
04510            -240.00
04511            -240.00
04512            -240.00
04513            -240.00
04514            -240.00
04515            -240.00
04516            -240.00
04517            -160.00
04518            -240.00
04519            -240.00
04520            -240.00
04521            -240.00
04522            -160.00
04523            -160.00
04524            -160.00
04525            -160.00
04526            -160.00
04527             -80.00
04528             -80.00
04529             -80.00
04530             -80.00
04531            -160.00
04532             -80.00
04533             -80.00
04534            -160.00
04535             -80.00
04536             -80.00
04537             -80.00
04538             -80.00
04539               0.00
04540             -80.00
04541             -80.00
04542             -80.00
04543              80.00
04544              80.00
04545               0.00
04546             -80.00
04547              80.00
04548             -80.00
04549              80.00
04550               0.00
04551              80.00
04552              80.00
04553              80.00
04554              80.00
04555               0.00
04556             160.00
04557              80.00
04558             160.00
04559             160.00
04560              80.00
04561             160.00
04562             160.00
04563             160.00
04564             160.00
04565             160.00
04566             160.00
04567             160.00
04568             160.00
04569             240.00
04570             240.00
04571             240.00
04572             240.00
04573             240.00
04574             240.00
04575             240.00
04576             240.00
04577             160.00
04578             240.00
04579             240.00
04580             240.00
04581             320.00
04582             320.00
04583             240.00
04584             400.00
04585             400.00
04586             400.00
04587             400.00
04588             400.00
04589             400.00
04590             400.00
04591             400.00
04592             400.00
04593             400.00
04594             400.00
04595             400.00
04596             400.00
04597             480.00
04598             400.00
04599             480.00
04600             400.00
04601             480.00
04602             480.00
04603             480.00
04604             480.00
04605             480.00
04606             480.00
04607             560.00
04608             560.00
04609             480.00
04610             480.00
04611             480.00
04612             560.00
04613             560.00
04614             480.00
04615             560.00
04616             560.00
04617             560.00
04618             560.00
04619             560.00
04620             560.00
04621             560.00
04622             560.00
04623             560.00
04624             640.00
04625             640.00
04626             640.00
04627             560.00
04628             720.00
04629             720.00
04630             720.00
04631             720.00
04632             720.00
04633             720.00
04634             720.00
04635             720.00
04636             720.00
04637             720.00
04638             800.00
04639             720.00
04640             800.00
04641             720.00
04642             800.00
04643             800.00
04644             800.00
04645             800.00
04646             800.00
04647             800.00
04648             800.00
04649             880.00
04650             800.00
04651             800.00
04652             800.00
04653             800.00
04654             880.00
04655             800.00
04656             800.00
04657             880.00
04658             880.00
04659             880.00
04660             880.00
04661             880.00
04662             880.00
04663             880.00
04664             880.00
04665             880.00
04666             960.00
04667             880.00
04668             960.00
04669             960.00
04670             880.00
04671             880.00
04672             880.00
04673             960.00
04674            1040.00
04675             960.00
04676            1040.00
04677             960.00
04678            1040.00
04679            1040.00
04680             960.00
04681            1040.00
04682            1040.00
04683            1040.00
04684            1040.00
04685            1040.00
04686            1040.00
04687            1040.00
04688            1040.00
04689            1040.00
04690            1040.00
04691            1040.00
04692            1040.00
04693            1040.00
04694            1040.00
04695            1040.00
04696            1040.00
04697            1040.00
04698            1040.00
04699            1040.00
04700            1120.00
04701            1120.00
04702            1040.00
04703            1120.00
04704            1200.00
04705            1120.00
04706            1200.00
04707            1120.00
04708            1120.00
04709            1120.00
04710            1120.00
04711            1120.00
04712            1120.00
04713            1120.00
04714            1200.00
04715            1120.00
04716            1200.00
04717            1120.00
04718            1120.00
04719            1120.00
04720            1200.00
04721            1200.00
04722            1200.00
04723            1200.00
04724            1200.00
04725            1200.00
04726            1200.00
04727            1200.00
04728            1200.00
04729            1200.00
04730            1200.00
04731            1200.00
04732            1200.00
04733            1200.00
04734            1200.00
04735            1280.00
04736            1200.00
04737            1360.00
04738            1200.00
04739            1200.00
04740            1280.00
04741            1200.00
04742            1200.00
04743            1200.00
04744            1200.00
04745            1280.00
04746            1280.00
04747            1200.00
04748            1200.00
04749            1360.00
04750            1280.00
04751            1360.00
04752            1280.00
04753            1200.00
04754            1280.00
04755            1280.00
04756            1280.00
04757            1200.00
04758            1280.00
04759            1360.00
04760            1360.00
04761            1200.00
04762            1280.00
04763            1200.00
04764            1200.00
04765            1360.00
04766            1280.00
04767            1360.00
04768            1280.00
04769            1360.00
04770            1360.00
04771            1360.00
04772            1360.00
04773            1360.00
04774            1280.00
04775            1360.00
04776            1360.00
04777            1360.00
04778            1360.00
04779            1360.00
04780            1360.00
04781            1360.00
04782            1360.00
04783            1360.00
04784            1360.00
04785            1360.00
04786            1360.00
04787            1360.00
04788            1360.00
04789            1360.00
04790            1360.00
04791            1360.00
04792            1360.00
04793            1360.00
04794            1360.00
04795            1360.00
04796            1360.00
04797            1360.00
04798            1360.00
04799            1440.00
04800            1360.00
04801            1360.00
04802            1360.00
04803            1360.00
04804            1360.00
04805            1280.00
04806            1360.00
04807            1360.00
04808            1360.00
04809            1360.00
04810            1360.00
04811            1360.00
04812            1360.00
04813            1360.00
04814            1280.00
04815            1360.00
04816            1360.00
04817            1360.00
04818            1360.00
04819            1280.00
04820            1200.00
04821            1360.00
04822            1360.00
04823            1360.00
04824            1360.00
04825            1280.00
04826            1360.00
04827            1360.00
04828            1360.00
04829            1280.00
04830            1360.00
04831            1360.00
04832            1280.00
04833            1360.00
04834            1200.00
04835            1360.00
04836            1360.00
04837            1360.00
04838            1280.00
04839            1280.00
04840            1360.00
04841            1360.00
04842            1360.00
04843            1280.00
04844            1360.00
04845            1360.00
04846            1360.00
04847            1360.00
04848            1200.00
04849            1360.00
04850            1360.00
04851            1360.00
04852            1280.00
04853            1280.00
04854            1280.00
04855            1280.00
04856            1200.00
04857            1280.00
04858            1280.00
04859            1200.00
04860            1280.00
04861            1200.00
04862            1360.00
04863            1200.00
04864            1200.00
04865            1200.00
04866            1200.00
04867            1280.00
04868            1200.00
04869            1200.00
04870            1200.00
04871            1200.00
04872            1200.00
04873            1120.00
04874            1120.00
04875            1120.00
04876            1120.00
04877            1200.00
04878            1120.00
04879            1120.00
04880            1200.00
04881            1120.00
04882            1120.00
04883            1120.00
04884            1120.00
04885            1200.00
04886            1120.00
04887            1120.00
04888            1120.00
04889            1120.00
04890            1120.00
04891            1120.00
04892            1040.00
04893            1120.00
04894            1040.00
04895            1040.00
04896            1040.00
04897            1040.00
04898            1120.00
04899            1120.00
04900            1040.00
04901            1120.00
04902            1040.00
04903            1040.00
04904            1040.00
04905            1040.00
04906            1120.00
04907            1040.00
04908            1040.00
04909            1040.00
04910            1040.00
04911            1040.00
04912            1040.00
04913            1040.00
04914            1040.00
04915            1040.00
04916            1040.00
04917            1040.00
04918            1040.00
04919            1040.00
04920            1040.00
04921            1040.00
04922            1040.00
04923            1040.00
04924            1040.00
04925             960.00
04926             960.00
04927            1040.00
04928             880.00
04929             880.00
04930             960.00
04931             880.00
04932             880.00
04933             880.00
04934             880.00
04935             880.00
04936             800.00
04937             880.00
04938             800.00
04939             800.00
04940             880.00
04941             800.00
04942             880.00
04943             800.00
04944             800.00
04945             800.00
04946             800.00
04947             800.00
04948             800.00
04949             800.00
04950             800.00
04951             800.00
04952             800.00
04953             720.00
04954             720.00
04955             800.00
04956             720.00
04957             720.00
04958             720.00
04959             800.00
04960             800.00
04961             800.00
04962             720.00
04963             720.00
04964             800.00
04965             720.00
04966             720.00
04967             720.00
04968             720.00
04969             720.00
04970             720.00
04971             640.00
04972             720.00
04973             720.00
04974             720.00
04975             640.00
04976             720.00
04977             720.00
04978             640.00
04979             560.00
04980             640.00
04981             560.00
04982             560.00
04983             560.00
04984             640.00
04985             560.00
04986             560.00
04987             560.00
04988             560.00
04989             560.00
04990             480.00
04991             560.00
04992             560.00
04993             480.00
04994             480.00
04995             480.00
04996             480.00
04997             480.00
04998             480.00
04999             480.00
05000             480.00
