Unit:(mV)
                     CH1
Frequency     98.144 kHz
00001           -2960.00
00002           -3040.00
00003           -3040.00
00004           -3040.00
00005           -3200.00
00006           -3200.00
00007           -3280.00
00008           -3440.00
00009           -3440.00
00010           -3520.00
00011           -3520.00
00012           -3600.00
00013           -3680.00
00014           -3680.00
00015           -3760.00
00016           -3760.00
00017           -3920.00
00018           -3920.00
00019           -3920.00
00020           -4000.00
00021           -4080.00
00022           -4160.00
00023           -4160.00
00024           -4240.00
00025           -4320.00
00026           -4320.00
00027           -4400.00
00028           -4480.00
00029           -4560.00
00030           -4560.00
00031           -4640.00
00032           -4640.00
00033           -4720.00
00034           -4720.00
00035           -4800.00
00036           -4880.00
00037           -4960.00
00038           -4960.00
00039           -5040.00
00040           -5040.00
00041           -5040.00
00042           -5200.00
00043           -5200.00
00044           -5280.00
00045           -5280.00
00046           -5360.00
00047           -5360.00
00048           -5520.00
00049           -5520.00
00050           -5600.00
00051           -5600.00
00052           -5600.00
00053           -5680.00
00054           -5760.00
00055           -5840.00
00056           -5840.00
00057           -5920.00
00058           -6000.00
00059           -6000.00
00060           -6000.00
00061           -6080.00
00062           -6160.00
00063           -6240.00
00064           -6160.00
00065           -6240.00
00066           -6320.00
00067           -6320.00
00068           -6400.00
00069           -6480.00
00070           -6560.00
00071           -6560.00
00072           -6640.00
00073           -6640.00
00074           -6640.00
00075           -6640.00
00076           -6800.00
00077           -6800.00
00078           -6800.00
00079           -6880.00
00080           -6960.00
00081           -6960.00
00082           -6960.00
00083           -7120.00
00084           -7120.00
00085           -7200.00
00086           -7200.00
00087           -7200.00
00088           -7280.00
00089           -7360.00
00090           -7440.00
00091           -7440.00
00092           -7440.00
00093           -7440.00
00094           -7520.00
00095           -7520.00
00096           -7520.00
00097           -7600.00
00098           -7600.00
00099           -7600.00
00100           -7600.00
00101           -7760.00
00102           -7840.00
00103           -7840.00
00104           -7840.00
00105           -7920.00
00106           -7920.00
00107           -7920.00
00108           -7920.00
00109           -8000.00
00110           -8080.00
00111           -8080.00
00112           -8080.00
00113           -8160.00
00114           -8160.00
00115           -8240.00
00116           -8160.00
00117           -8240.00
00118           -8240.00
00119           -8240.00
00120           -8320.00
00121           -8400.00
00122           -8400.00
00123           -8400.00
00124           -8480.00
00125           -8480.00
00126           -8480.00
00127           -8560.00
00128           -8560.00
00129           -8560.00
00130           -8720.00
00131           -8560.00
00132           -8720.00
00133           -8800.00
00134           -8720.00
00135           -8800.00
00136           -8800.00
00137           -8800.00
00138           -8800.00
00139           -8800.00
00140           -8880.00
00141           -8880.00
00142           -8880.00
00143           -8960.00
00144           -8960.00
00145           -8960.00
00146           -9040.00
00147           -9040.00
00148           -9040.00
00149           -9040.00
00150           -9120.00
00151           -9120.00
00152           -9120.00
00153           -9200.00
00154           -9200.00
00155           -9200.00
00156           -9200.00
00157           -9200.00
00158           -9200.00
00159           -9200.00
00160           -9200.00
00161           -9360.00
00162           -9280.00
00163           -9280.00
00164           -9280.00
00165           -9360.00
00166           -9360.00
00167           -9360.00
00168           -9360.00
00169           -9360.00
00170           -9440.00
00171           -9440.00
00172           -9440.00
00173           -9440.00
00174           -9440.00
00175           -9440.00
00176           -9440.00
00177           -9440.00
00178           -9440.00
00179           -9440.00
00180           -9520.00
00181           -9520.00
00182           -9440.00
00183           -9520.00
00184           -9520.00
00185           -9520.00
00186           -9520.00
00187           -9520.00
00188           -9520.00
00189           -9520.00
00190           -9520.00
00191           -9520.00
00192           -9520.00
00193           -9520.00
00194           -9520.00
00195           -9520.00
00196           -9520.00
00197           -9600.00
00198           -9520.00
00199           -9600.00
00200           -9520.00
00201           -9600.00
00202           -9520.00
00203           -9680.00
00204           -9520.00
00205           -9680.00
00206           -9600.00
00207           -9520.00
00208           -9600.00
00209           -9600.00
00210           -9520.00
00211           -9520.00
00212           -9520.00
00213           -9520.00
00214           -9600.00
00215           -9680.00
00216           -9520.00
00217           -9520.00
00218           -9520.00
00219           -9520.00
00220           -9520.00
00221           -9520.00
00222           -9520.00
00223           -9520.00
00224           -9520.00
00225           -9520.00
00226           -9440.00
00227           -9520.00
00228           -9440.00
00229           -9440.00
00230           -9440.00
00231           -9440.00
00232           -9440.00
00233           -9440.00
00234           -9440.00
00235           -9440.00
00236           -9440.00
00237           -9440.00
00238           -9360.00
00239           -9360.00
00240           -9360.00
00241           -9360.00
00242           -9280.00
00243           -9200.00
00244           -9360.00
00245           -9200.00
00246           -9280.00
00247           -9200.00
00248           -9200.00
00249           -9200.00
00250           -9200.00
00251           -9200.00
00252           -9200.00
00253           -9120.00
00254           -9120.00
00255           -9120.00
00256           -9120.00
00257           -9120.00
00258           -9120.00
00259           -9040.00
00260           -8960.00
00261           -9040.00
00262           -8960.00
00263           -8880.00
00264           -8880.00
00265           -9040.00
00266           -8880.00
00267           -8880.00
00268           -8800.00
00269           -8800.00
00270           -8800.00
00271           -8800.00
00272           -8800.00
00273           -8800.00
00274           -8720.00
00275           -8720.00
00276           -8720.00
00277           -8720.00
00278           -8720.00
00279           -8640.00
00280           -8560.00
00281           -8560.00
00282           -8480.00
00283           -8560.00
00284           -8480.00
00285           -8480.00
00286           -8400.00
00287           -8400.00
00288           -8400.00
00289           -8240.00
00290           -8240.00
00291           -8240.00
00292           -8240.00
00293           -8160.00
00294           -8160.00
00295           -8160.00
00296           -8160.00
00297           -8080.00
00298           -7920.00
00299           -8080.00
00300           -7920.00
00301           -7920.00
00302           -7920.00
00303           -7920.00
00304           -7840.00
00305           -7760.00
00306           -7760.00
00307           -7760.00
00308           -7600.00
00309           -7600.00
00310           -7600.00
00311           -7600.00
00312           -7600.00
00313           -7520.00
00314           -7440.00
00315           -7520.00
00316           -7360.00
00317           -7360.00
00318           -7280.00
00319           -7280.00
00320           -7200.00
00321           -7200.00
00322           -7200.00
00323           -7120.00
00324           -7120.00
00325           -6960.00
00326           -6960.00
00327           -6960.00
00328           -6880.00
00329           -6880.00
00330           -6800.00
00331           -6880.00
00332           -6800.00
00333           -6800.00
00334           -6640.00
00335           -6640.00
00336           -6640.00
00337           -6560.00
00338           -6560.00
00339           -6480.00
00340           -6480.00
00341           -6480.00
00342           -6320.00
00343           -6320.00
00344           -6240.00
00345           -6240.00
00346           -6240.00
00347           -6160.00
00348           -6080.00
00349           -6000.00
00350           -6000.00
00351           -6000.00
00352           -5920.00
00353           -5840.00
00354           -5840.00
00355           -5680.00
00356           -5680.00
00357           -5600.00
00358           -5600.00
00359           -5600.00
00360           -5520.00
00361           -5520.00
00362           -5360.00
00363           -5360.00
00364           -5280.00
00365           -5280.00
00366           -5280.00
00367           -5200.00
00368           -5120.00
00369           -5040.00
00370           -4960.00
00371           -4960.00
00372           -4880.00
00373           -4880.00
00374           -4720.00
00375           -4640.00
00376           -4720.00
00377           -4640.00
00378           -4640.00
00379           -4560.00
00380           -4400.00
00381           -4400.00
00382           -4400.00
00383           -4320.00
00384           -4320.00
00385           -4240.00
00386           -4160.00
00387           -4080.00
00388           -4080.00
00389           -4000.00
00390           -4000.00
00391           -3920.00
00392           -3840.00
00393           -3760.00
00394           -3760.00
00395           -3680.00
00396           -3680.00
00397           -3600.00
00398           -3600.00
00399           -3440.00
00400           -3440.00
00401           -3360.00
00402           -3280.00
00403           -3360.00
00404           -3280.00
00405           -3120.00
00406           -3040.00
00407           -3040.00
00408           -3040.00
00409           -2960.00
00410           -2960.00
00411           -2800.00
00412           -2800.00
00413           -2800.00
00414           -2720.00
00415           -2640.00
00416           -2640.00
00417           -2480.00
00418           -2480.00
00419           -2400.00
00420           -2320.00
00421           -2320.00
00422           -2160.00
00423           -2160.00
00424           -2080.00
00425           -2080.00
00426           -2000.00
00427           -1840.00
00428           -1840.00
00429           -1840.00
00430           -1760.00
00431           -1680.00
00432           -1680.00
00433           -1520.00
00434           -1520.00
00435           -1520.00
00436           -1360.00
00437           -1360.00
00438           -1200.00
00439           -1200.00
00440           -1120.00
00441           -1120.00
00442           -1040.00
00443           -1040.00
00444            -880.00
00445            -880.00
00446            -800.00
00447            -800.00
00448            -720.00
00449            -720.00
00450            -560.00
00451            -480.00
00452            -480.00
00453            -400.00
00454            -400.00
00455            -320.00
00456            -160.00
00457            -240.00
00458            -160.00
00459             -80.00
00460               0.00
00461              80.00
00462             160.00
00463             160.00
00464             160.00
00465             240.00
00466             400.00
00467             400.00
00468             480.00
00469             480.00
00470             480.00
00471             720.00
00472             720.00
00473             800.00
00474             800.00
00475             880.00
00476            1040.00
00477            1040.00
00478            1040.00
00479            1040.00
00480            1120.00
00481            1280.00
00482            1360.00
00483            1360.00
00484            1360.00
00485            1440.00
00486            1520.00
00487            1680.00
00488            1520.00
00489            1680.00
00490            1760.00
00491            1840.00
00492            1840.00
00493            2000.00
00494            2000.00
00495            2080.00
00496            2160.00
00497            2160.00
00498            2320.00
00499            2320.00
00500            2400.00
00501            2400.00
00502            2480.00
00503            2480.00
00504            2640.00
00505            2640.00
00506            2720.00
00507            2800.00
00508            2800.00
00509            2800.00
00510            3040.00
00511            3040.00
00512            3120.00
00513            3040.00
00514            3200.00
00515            3280.00
00516            3280.00
00517            3360.00
00518            3360.00
00519            3440.00
00520            3600.00
00521            3600.00
00522            3600.00
00523            3600.00
00524            3680.00
00525            3680.00
00526            3840.00
00527            3920.00
00528            3920.00
00529            4000.00
00530            4000.00
00531            4080.00
00532            4160.00
00533            4240.00
00534            4240.00
00535            4320.00
00536            4400.00
00537            4400.00
00538            4400.00
00539            4480.00
00540            4560.00
00541            4640.00
00542            4640.00
00543            4720.00
00544            4880.00
00545            4880.00
00546            4880.00
00547            4880.00
00548            4960.00
00549            5040.00
00550            5120.00
00551            5200.00
00552            5200.00
00553            5280.00
00554            5360.00
00555            5360.00
00556            5440.00
00557            5520.00
00558            5520.00
00559            5520.00
00560            5600.00
00561            5600.00
00562            5680.00
00563            5760.00
00564            5840.00
00565            5920.00
00566            5920.00
00567            6000.00
00568            6000.00
00569            6080.00
00570            6160.00
00571            6160.00
00572            6160.00
00573            6240.00
00574            6320.00
00575            6320.00
00576            6320.00
00577            6480.00
00578            6480.00
00579            6480.00
00580            6560.00
00581            6560.00
00582            6640.00
00583            6640.00
00584            6640.00
00585            6800.00
00586            6880.00
00587            6800.00
00588            6880.00
00589            6960.00
00590            6960.00
00591            6960.00
00592            7120.00
00593            7040.00
00594            7120.00
00595            7200.00
00596            7200.00
00597            7280.00
00598            7200.00
00599            7360.00
00600            7440.00
00601            7360.00
00602            7440.00
00603            7440.00
00604            7520.00
00605            7520.00
00606            7520.00
00607            7600.00
00608            7600.00
00609            7680.00
00610            7760.00
00611            7760.00
00612            7840.00
00613            7840.00
00614            7840.00
00615            7920.00
00616            7840.00
00617            7920.00
00618            7920.00
00619            8080.00
00620            8080.00
00621            8080.00
00622            8160.00
00623            8160.00
00624            8240.00
00625            8240.00
00626            8240.00
00627            8320.00
00628            8320.00
00629            8400.00
00630            8400.00
00631            8400.00
00632            8400.00
00633            8480.00
00634            8480.00
00635            8560.00
00636            8560.00
00637            8480.00
00638            8560.00
00639            8720.00
00640            8720.00
00641            8720.00
00642            8720.00
00643            8720.00
00644            8720.00
00645            8720.00
00646            8800.00
00647            8800.00
00648            8880.00
00649            8880.00
00650            8880.00
00651            8880.00
00652            8960.00
00653            8960.00
00654            9040.00
00655            8960.00
00656            9040.00
00657            9040.00
00658            9040.00
00659            9120.00
00660            9040.00
00661            9120.00
00662            9120.00
00663            9120.00
00664            9200.00
00665            9120.00
00666            9200.00
00667            9200.00
00668            9200.00
00669            9200.00
00670            9200.00
00671            9280.00
00672            9360.00
00673            9200.00
00674            9360.00
00675            9360.00
00676            9360.00
00677            9360.00
00678            9360.00
00679            9440.00
00680            9360.00
00681            9440.00
00682            9440.00
00683            9440.00
00684            9440.00
00685            9440.00
00686            9440.00
00687            9520.00
00688            9440.00
00689            9520.00
00690            9520.00
00691            9440.00
00692            9520.00
00693            9520.00
00694            9520.00
00695            9520.00
00696            9520.00
00697            9520.00
00698            9600.00
00699            9520.00
00700            9520.00
00701            9600.00
00702            9520.00
00703            9600.00
00704            9680.00
00705            9520.00
00706            9520.00
00707            9680.00
00708            9520.00
00709            9600.00
00710            9680.00
00711            9600.00
00712            9680.00
00713            9680.00
00714            9680.00
00715            9600.00
00716            9680.00
00717            9680.00
00718            9680.00
00719            9680.00
00720            9680.00
00721            9600.00
00722            9600.00
00723            9600.00
00724            9600.00
00725            9520.00
00726            9520.00
00727            9520.00
00728            9520.00
00729            9520.00
00730            9520.00
00731            9520.00
00732            9520.00
00733            9520.00
00734            9520.00
00735            9520.00
00736            9440.00
00737            9440.00
00738            9440.00
00739            9440.00
00740            9440.00
00741            9440.00
00742            9440.00
00743            9360.00
00744            9440.00
00745            9440.00
00746            9360.00
00747            9360.00
00748            9360.00
00749            9360.00
00750            9360.00
00751            9360.00
00752            9360.00
00753            9360.00
00754            9360.00
00755            9360.00
00756            9200.00
00757            9360.00
00758            9200.00
00759            9200.00
00760            9200.00
00761            9200.00
00762            9120.00
00763            9200.00
00764            9120.00
00765            9120.00
00766            9120.00
00767            9040.00
00768            9120.00
00769            9040.00
00770            9040.00
00771            9040.00
00772            9040.00
00773            9040.00
00774            8880.00
00775            8960.00
00776            8880.00
00777            8960.00
00778            8800.00
00779            8800.00
00780            8880.00
00781            8800.00
00782            8800.00
00783            8720.00
00784            8720.00
00785            8720.00
00786            8640.00
00787            8640.00
00788            8560.00
00789            8480.00
00790            8560.00
00791            8480.00
00792            8480.00
00793            8480.00
00794            8480.00
00795            8480.00
00796            8400.00
00797            8400.00
00798            8240.00
00799            8240.00
00800            8240.00
00801            8240.00
00802            8240.00
00803            8160.00
00804            8160.00
00805            8080.00
00806            8080.00
00807            8080.00
00808            8080.00
00809            7920.00
00810            7920.00
00811            8000.00
00812            7840.00
00813            7840.00
00814            7840.00
00815            7840.00
00816            7760.00
00817            7760.00
00818            7680.00
00819            7600.00
00820            7600.00
00821            7520.00
00822            7520.00
00823            7520.00
00824            7440.00
00825            7440.00
00826            7440.00
00827            7440.00
00828            7440.00
00829            7280.00
00830            7280.00
00831            7200.00
00832            7200.00
00833            7120.00
00834            7120.00
00835            7120.00
00836            6960.00
00837            6960.00
00838            6880.00
00839            6880.00
00840            6880.00
00841            6800.00
00842            6800.00
00843            6800.00
00844            6800.00
00845            6720.00
00846            6560.00
00847            6560.00
00848            6560.00
00849            6480.00
00850            6480.00
00851            6320.00
00852            6320.00
00853            6240.00
00854            6160.00
00855            6160.00
00856            6160.00
00857            6160.00
00858            6080.00
00859            6000.00
00860            6000.00
00861            5920.00
00862            5920.00
00863            5840.00
00864            5840.00
00865            5760.00
00866            5680.00
00867            5600.00
00868            5600.00
00869            5520.00
00870            5520.00
00871            5520.00
00872            5360.00
00873            5360.00
00874            5280.00
00875            5280.00
00876            5200.00
00877            5120.00
00878            5040.00
00879            5040.00
00880            5040.00
00881            4960.00
00882            4880.00
00883            4880.00
00884            4880.00
00885            4720.00
00886            4720.00
00887            4640.00
00888            4640.00
00889            4640.00
00890            4560.00
00891            4400.00
00892            4400.00
00893            4320.00
00894            4320.00
00895            4240.00
00896            4160.00
00897            4080.00
00898            4000.00
00899            4000.00
00900            4000.00
00901            3920.00
00902            3920.00
00903            3840.00
00904            3760.00
00905            3680.00
00906            3600.00
00907            3600.00
00908            3520.00
00909            3440.00
00910            3360.00
00911            3360.00
00912            3360.00
00913            3280.00
00914            3280.00
00915            3120.00
00916            3040.00
00917            3040.00
00918            2960.00
00919            2960.00
00920            2720.00
00921            2800.00
00922            2720.00
00923            2720.00
00924            2640.00
00925            2640.00
00926            2480.00
00927            2400.00
00928            2320.00
00929            2400.00
00930            2320.00
00931            2240.00
00932            2160.00
00933            2080.00
00934            2080.00
00935            2000.00
00936            1840.00
00937            1840.00
00938            1760.00
00939            1760.00
00940            1680.00
00941            1680.00
00942            1680.00
00943            1520.00
00944            1440.00
00945            1440.00
00946            1360.00
00947            1280.00
00948            1280.00
00949            1200.00
00950            1120.00
00951            1040.00
00952            1040.00
00953            1040.00
00954             880.00
00955             880.00
00956             800.00
00957             720.00
00958             720.00
00959             720.00
00960             560.00
00961             480.00
00962             480.00
00963             320.00
00964             400.00
00965             240.00
00966             160.00
00967             160.00
00968             160.00
00969              80.00
00970               0.00
00971             -80.00
00972            -160.00
00973            -240.00
00974            -240.00
00975            -240.00
00976            -320.00
00977            -400.00
00978            -480.00
00979            -480.00
00980            -560.00
00981            -720.00
00982            -880.00
00983            -800.00
00984            -800.00
00985            -880.00
00986           -1040.00
00987           -1040.00
00988           -1120.00
00989           -1200.00
00990           -1200.00
00991           -1280.00
00992           -1360.00
00993           -1440.00
00994           -1440.00
00995           -1440.00
00996           -1600.00
00997           -1680.00
00998           -1760.00
00999           -1760.00
01000           -1760.00
01001           -1840.00
01002           -2000.00
01003           -2000.00
01004           -2080.00
01005           -2160.00
01006           -2160.00
01007           -2240.00
01008           -2320.00
01009           -2400.00
01010           -2400.00
01011           -2400.00
01012           -2480.00
01013           -2560.00
01014           -2640.00
01015           -2720.00
01016           -2720.00
01017           -2800.00
01018           -2800.00
01019           -2880.00
01020           -2960.00
01021           -3040.00
01022           -3040.00
01023           -3120.00
01024           -3280.00
01025           -3280.00
01026           -3360.00
01027           -3360.00
01028           -3440.00
01029           -3440.00
01030           -3440.00
01031           -3600.00
01032           -3600.00
01033           -3680.00
01034           -3680.00
01035           -3760.00
01036           -3760.00
01037           -3920.00
01038           -3920.00
01039           -4000.00
01040           -4080.00
01041           -4080.00
01042           -4080.00
01043           -4320.00
01044           -4240.00
01045           -4320.00
01046           -4400.00
01047           -4400.00
01048           -4560.00
01049           -4560.00
01050           -4640.00
01051           -4720.00
01052           -4720.00
01053           -4720.00
01054           -4880.00
01055           -4880.00
01056           -4960.00
01057           -4960.00
01058           -5040.00
01059           -5040.00
01060           -5040.00
01061           -5280.00
01062           -5280.00
01063           -5360.00
01064           -5360.00
01065           -5440.00
01066           -5440.00
01067           -5520.00
01068           -5600.00
01069           -5600.00
01070           -5600.00
01071           -5680.00
01072           -5680.00
01073           -5760.00
01074           -5840.00
01075           -5840.00
01076           -5920.00
01077           -5920.00
01078           -6000.00
01079           -6000.00
01080           -6160.00
01081           -6160.00
01082           -6160.00
01083           -6240.00
01084           -6240.00
01085           -6240.00
01086           -6320.00
01087           -6320.00
01088           -6400.00
01089           -6480.00
01090           -6560.00
01091           -6560.00
01092           -6640.00
01093           -6560.00
01094           -6640.00
01095           -6720.00
01096           -6800.00
01097           -6800.00
01098           -6880.00
01099           -6880.00
01100           -6960.00
01101           -6960.00
01102           -6960.00
01103           -7120.00
01104           -7120.00
01105           -7120.00
01106           -7200.00
01107           -7280.00
01108           -7280.00
01109           -7280.00
01110           -7280.00
01111           -7440.00
01112           -7440.00
01113           -7520.00
01114           -7600.00
01115           -7600.00
01116           -7600.00
01117           -7680.00
01118           -7600.00
01119           -7760.00
01120           -7760.00
01121           -7840.00
01122           -7840.00
01123           -7840.00
01124           -7920.00
01125           -7920.00
01126           -7920.00
01127           -8000.00
01128           -8080.00
01129           -8080.00
01130           -8080.00
01131           -8160.00
01132           -8160.00
01133           -8160.00
01134           -8240.00
01135           -8160.00
01136           -8240.00
01137           -8320.00
01138           -8400.00
01139           -8320.00
01140           -8400.00
01141           -8400.00
01142           -8480.00
01143           -8480.00
01144           -8480.00
01145           -8480.00
01146           -8560.00
01147           -8560.00
01148           -8560.00
01149           -8640.00
01150           -8640.00
01151           -8720.00
01152           -8720.00
01153           -8720.00
01154           -8720.00
01155           -8800.00
01156           -8720.00
01157           -8800.00
01158           -8800.00
01159           -8800.00
01160           -8880.00
01161           -8880.00
01162           -8880.00
01163           -8880.00
01164           -8960.00
01165           -8960.00
01166           -9040.00
01167           -9040.00
01168           -9040.00
01169           -9040.00
01170           -9040.00
01171           -9120.00
01172           -9120.00
01173           -9200.00
01174           -9120.00
01175           -9200.00
01176           -9200.00
01177           -9200.00
01178           -9200.00
01179           -9360.00
01180           -9200.00
01181           -9360.00
01182           -9280.00
01183           -9440.00
01184           -9280.00
01185           -9440.00
01186           -9360.00
01187           -9440.00
01188           -9360.00
01189           -9440.00
01190           -9440.00
01191           -9440.00
01192           -9440.00
01193           -9440.00
01194           -9440.00
01195           -9440.00
01196           -9440.00
01197           -9440.00
01198           -9520.00
01199           -9520.00
01200           -9520.00
01201           -9520.00
01202           -9520.00
01203           -9440.00
01204           -9440.00
01205           -9520.00
01206           -9520.00
01207           -9520.00
01208           -9440.00
01209           -9520.00
01210           -9520.00
01211           -9520.00
01212           -9520.00
01213           -9520.00
01214           -9520.00
01215           -9520.00
01216           -9520.00
01217           -9520.00
01218           -9520.00
01219           -9520.00
01220           -9520.00
01221           -9520.00
01222           -9520.00
01223           -9600.00
01224           -9520.00
01225           -9680.00
01226           -9520.00
01227           -9520.00
01228           -9520.00
01229           -9520.00
01230           -9520.00
01231           -9520.00
01232           -9520.00
01233           -9520.00
01234           -9520.00
01235           -9520.00
01236           -9520.00
01237           -9520.00
01238           -9520.00
01239           -9520.00
01240           -9520.00
01241           -9440.00
01242           -9440.00
01243           -9520.00
01244           -9520.00
01245           -9520.00
01246           -9520.00
01247           -9440.00
01248           -9440.00
01249           -9440.00
01250           -9440.00
01251           -9440.00
01252           -9440.00
01253           -9440.00
01254           -9440.00
01255           -9440.00
01256           -9360.00
01257           -9440.00
01258           -9440.00
01259           -9440.00
01260           -9360.00
01261           -9360.00
01262           -9360.00
01263           -9280.00
01264           -9360.00
01265           -9280.00
01266           -9360.00
01267           -9200.00
01268           -9200.00
01269           -9200.00
01270           -9200.00
01271           -9200.00
01272           -9120.00
01273           -9200.00
01274           -9120.00
01275           -9040.00
01276           -9040.00
01277           -9120.00
01278           -9040.00
01279           -9040.00
01280           -9040.00
01281           -8960.00
01282           -8960.00
01283           -8880.00
01284           -8800.00
01285           -8880.00
01286           -8880.00
01287           -8800.00
01288           -8800.00
01289           -8800.00
01290           -8800.00
01291           -8800.00
01292           -8720.00
01293           -8640.00
01294           -8720.00
01295           -8640.00
01296           -8560.00
01297           -8640.00
01298           -8560.00
01299           -8560.00
01300           -8560.00
01301           -8560.00
01302           -8480.00
01303           -8480.00
01304           -8480.00
01305           -8400.00
01306           -8240.00
01307           -8400.00
01308           -8240.00
01309           -8240.00
01310           -8240.00
01311           -8240.00
01312           -8160.00
01313           -8160.00
01314           -8160.00
01315           -8160.00
01316           -8160.00
01317           -7920.00
01318           -8080.00
01319           -7920.00
01320           -7920.00
01321           -7920.00
01322           -7840.00
01323           -7840.00
01324           -7840.00
01325           -7840.00
01326           -7760.00
01327           -7600.00
01328           -7600.00
01329           -7600.00
01330           -7520.00
01331           -7520.00
01332           -7520.00
01333           -7520.00
01334           -7440.00
01335           -7440.00
01336           -7360.00
01337           -7280.00
01338           -7280.00
01339           -7280.00
01340           -7280.00
01341           -7200.00
01342           -7200.00
01343           -7040.00
01344           -7120.00
01345           -6960.00
01346           -6960.00
01347           -6880.00
01348           -6880.00
01349           -6800.00
01350           -6880.00
01351           -6800.00
01352           -6640.00
01353           -6640.00
01354           -6640.00
01355           -6560.00
01356           -6560.00
01357           -6480.00
01358           -6400.00
01359           -6320.00
01360           -6320.00
01361           -6320.00
01362           -6240.00
01363           -6240.00
01364           -6160.00
01365           -6160.00
01366           -6080.00
01367           -6000.00
01368           -6000.00
01369           -5920.00
01370           -5920.00
01371           -5920.00
01372           -5840.00
01373           -5760.00
01374           -5680.00
01375           -5680.00
01376           -5600.00
01377           -5600.00
01378           -5520.00
01379           -5520.00
01380           -5440.00
01381           -5360.00
01382           -5360.00
01383           -5280.00
01384           -5280.00
01385           -5280.00
01386           -5200.00
01387           -5120.00
01388           -5040.00
01389           -5040.00
01390           -4960.00
01391           -4960.00
01392           -4880.00
01393           -4800.00
01394           -4720.00
01395           -4720.00
01396           -4640.00
01397           -4640.00
01398           -4560.00
01399           -4480.00
01400           -4400.00
01401           -4320.00
01402           -4320.00
01403           -4320.00
01404           -4240.00
01405           -4160.00
01406           -4080.00
01407           -4080.00
01408           -4000.00
01409           -4000.00
01410           -3920.00
01411           -3760.00
01412           -3760.00
01413           -3760.00
01414           -3680.00
01415           -3600.00
01416           -3520.00
01417           -3440.00
01418           -3440.00
01419           -3440.00
01420           -3360.00
01421           -3360.00
01422           -3280.00
01423           -3200.00
01424           -3120.00
01425           -3040.00
01426           -3040.00
01427           -3040.00
01428           -2960.00
01429           -2880.00
01430           -2800.00
01431           -2800.00
01432           -2720.00
01433           -2720.00
01434           -2560.00
01435           -2480.00
01436           -2480.00
01437           -2480.00
01438           -2400.00
01439           -2400.00
01440           -2320.00
01441           -2240.00
01442           -2160.00
01443           -2080.00
01444           -2080.00
01445           -2000.00
01446           -1840.00
01447           -1840.00
01448           -1760.00
01449           -1760.00
01450           -1680.00
01451           -1680.00
01452           -1520.00
01453           -1520.00
01454           -1440.00
01455           -1440.00
01456           -1360.00
01457           -1200.00
01458           -1200.00
01459           -1120.00
01460           -1120.00
01461           -1040.00
01462            -880.00
01463            -880.00
01464            -880.00
01465            -800.00
01466            -800.00
01467            -720.00
01468            -560.00
01469            -560.00
01470            -480.00
01471            -480.00
01472            -400.00
01473            -400.00
01474            -320.00
01475            -240.00
01476            -160.00
01477            -160.00
01478             -80.00
01479              80.00
01480              80.00
01481             160.00
01482             160.00
01483             160.00
01484             240.00
01485             400.00
01486             480.00
01487             480.00
01488             560.00
01489             560.00
01490             720.00
01491             800.00
01492             800.00
01493             880.00
01494             880.00
01495            1040.00
01496            1040.00
01497            1040.00
01498            1120.00
01499            1200.00
01500            1360.00
01501            1280.00
01502            1360.00
01503            1440.00
01504            1440.00
01505            1520.00
01506            1680.00
01507            1680.00
01508            1680.00
01509            1760.00
01510            1840.00
01511            1840.00
01512            1840.00
01513            2000.00
01514            2080.00
01515            2160.00
01516            2080.00
01517            2320.00
01518            2320.00
01519            2320.00
01520            2400.00
01521            2400.00
01522            2480.00
01523            2480.00
01524            2640.00
01525            2720.00
01526            2720.00
01527            2800.00
01528            2960.00
01529            2960.00
01530            3040.00
01531            3040.00
01532            3040.00
01533            3280.00
01534            3280.00
01535            3360.00
01536            3360.00
01537            3360.00
01538            3440.00
01539            3600.00
01540            3600.00
01541            3600.00
01542            3680.00
01543            3680.00
01544            3840.00
01545            3920.00
01546            3920.00
01547            4000.00
01548            4000.00
01549            4080.00
01550            4080.00
01551            4240.00
01552            4240.00
01553            4320.00
01554            4320.00
01555            4400.00
01556            4400.00
01557            4560.00
01558            4640.00
01559            4560.00
01560            4640.00
01561            4720.00
01562            4720.00
01563            4880.00
01564            4880.00
01565            4880.00
01566            4960.00
01567            5040.00
01568            4960.00
01569            5040.00
01570            5200.00
01571            5200.00
01572            5280.00
01573            5280.00
01574            5360.00
01575            5360.00
01576            5440.00
01577            5520.00
01578            5520.00
01579            5600.00
01580            5600.00
01581            5680.00
01582            5680.00
01583            5840.00
01584            5920.00
01585            5920.00
01586            5920.00
01587            5920.00
01588            6000.00
01589            6080.00
01590            6160.00
01591            6160.00
01592            6240.00
01593            6320.00
01594            6240.00
01595            6320.00
01596            6480.00
01597            6480.00
01598            6560.00
01599            6480.00
01600            6560.00
01601            6640.00
01602            6640.00
01603            6640.00
01604            6800.00
01605            6800.00
01606            6800.00
01607            6880.00
01608            6880.00
01609            6960.00
01610            7040.00
01611            7040.00
01612            7120.00
01613            7200.00
01614            7200.00
01615            7280.00
01616            7200.00
01617            7360.00
01618            7360.00
01619            7440.00
01620            7440.00
01621            7440.00
01622            7440.00
01623            7520.00
01624            7520.00
01625            7600.00
01626            7600.00
01627            7680.00
01628            7760.00
01629            7760.00
01630            7760.00
01631            7840.00
01632            7840.00
01633            7840.00
01634            7840.00
01635            7920.00
01636            7920.00
01637            8080.00
01638            8080.00
01639            8080.00
01640            8080.00
01641            8080.00
01642            8160.00
01643            8160.00
01644            8160.00
01645            8240.00
01646            8240.00
01647            8320.00
01648            8320.00
01649            8400.00
01650            8400.00
01651            8400.00
01652            8480.00
01653            8480.00
01654            8480.00
01655            8480.00
01656            8480.00
01657            8560.00
01658            8720.00
01659            8640.00
01660            8720.00
01661            8720.00
01662            8720.00
01663            8720.00
01664            8800.00
01665            8800.00
01666            8800.00
01667            8800.00
01668            8800.00
01669            8880.00
01670            8800.00
01671            8960.00
01672            9040.00
01673            8960.00
01674            9040.00
01675            9040.00
01676            9040.00
01677            9040.00
01678            9120.00
01679            9120.00
01680            9120.00
01681            9120.00
01682            9200.00
01683            9200.00
01684            9120.00
01685            9200.00
01686            9200.00
01687            9200.00
01688            9280.00
01689            9360.00
01690            9360.00
01691            9360.00
01692            9360.00
01693            9360.00
01694            9360.00
01695            9360.00
01696            9360.00
01697            9360.00
01698            9360.00
01699            9360.00
01700            9360.00
01701            9440.00
01702            9440.00
01703            9440.00
01704            9440.00
01705            9440.00
01706            9440.00
01707            9520.00
01708            9440.00
01709            9440.00
01710            9520.00
01711            9520.00
01712            9520.00
01713            9520.00
01714            9520.00
01715            9520.00
01716            9520.00
01717            9520.00
01718            9520.00
01719            9520.00
01720            9520.00
01721            9520.00
01722            9520.00
01723            9520.00
01724            9600.00
01725            9600.00
01726            9680.00
01727            9520.00
01728            9600.00
01729            9680.00
01730            9520.00
01731            9680.00
01732            9600.00
01733            9600.00
01734            9520.00
01735            9600.00
01736            9600.00
01737            9520.00
01738            9680.00
01739            9680.00
01740            9680.00
01741            9680.00
01742            9520.00
01743            9520.00
01744            9680.00
01745            9520.00
01746            9680.00
01747            9600.00
01748            9520.00
01749            9520.00
01750            9520.00
01751            9520.00
01752            9520.00
01753            9520.00
01754            9520.00
01755            9440.00
01756            9520.00
01757            9520.00
01758            9440.00
01759            9440.00
01760            9440.00
01761            9440.00
01762            9440.00
01763            9440.00
01764            9440.00
01765            9360.00
01766            9360.00
01767            9360.00
01768            9360.00
01769            9360.00
01770            9360.00
01771            9360.00
01772            9360.00
01773            9280.00
01774            9360.00
01775            9200.00
01776            9280.00
01777            9200.00
01778            9200.00
01779            9120.00
01780            9200.00
01781            9120.00
01782            9120.00
01783            9120.00
01784            9120.00
01785            9120.00
01786            9120.00
01787            9040.00
01788            9120.00
01789            9040.00
01790            8960.00
01791            9040.00
01792            8880.00
01793            9040.00
01794            8880.00
01795            8880.00
01796            8880.00
01797            8880.00
01798            8800.00
01799            8800.00
01800            8720.00
01801            8800.00
01802            8800.00
01803            8720.00
01804            8720.00
01805            8720.00
01806            8640.00
01807            8560.00
01808            8720.00
01809            8560.00
01810            8480.00
01811            8480.00
01812            8480.00
01813            8480.00
01814            8480.00
01815            8400.00
01816            8400.00
01817            8400.00
01818            8240.00
01819            8240.00
01820            8240.00
01821            8240.00
01822            8240.00
01823            8160.00
01824            8160.00
01825            8080.00
01826            8080.00
01827            8080.00
01828            8000.00
01829            7920.00
01830            7840.00
01831            7840.00
01832            7840.00
01833            7840.00
01834            7760.00
01835            7760.00
01836            7760.00
01837            7600.00
01838            7600.00
01839            7600.00
01840            7600.00
01841            7520.00
01842            7520.00
01843            7440.00
01844            7440.00
01845            7440.00
01846            7440.00
01847            7280.00
01848            7280.00
01849            7200.00
01850            7200.00
01851            7120.00
01852            7120.00
01853            7120.00
01854            6960.00
01855            6960.00
01856            6880.00
01857            6880.00
01858            6880.00
01859            6880.00
01860            6800.00
01861            6800.00
01862            6720.00
01863            6640.00
01864            6560.00
01865            6560.00
01866            6560.00
01867            6480.00
01868            6480.00
01869            6320.00
01870            6320.00
01871            6320.00
01872            6240.00
01873            6240.00
01874            6160.00
01875            6160.00
01876            6080.00
01877            6160.00
01878            6000.00
01879            5920.00
01880            5920.00
01881            5920.00
01882            5840.00
01883            5840.00
01884            5680.00
01885            5680.00
01886            5600.00
01887            5600.00
01888            5520.00
01889            5520.00
01890            5360.00
01891            5440.00
01892            5280.00
01893            5280.00
01894            5280.00
01895            5200.00
01896            5200.00
01897            5040.00
01898            5040.00
01899            4960.00
01900            4880.00
01901            4880.00
01902            4800.00
01903            4720.00
01904            4720.00
01905            4640.00
01906            4640.00
01907            4560.00
01908            4560.00
01909            4400.00
01910            4400.00
01911            4320.00
01912            4320.00
01913            4240.00
01914            4240.00
01915            4240.00
01916            4080.00
01917            4000.00
01918            4000.00
01919            3920.00
01920            3920.00
01921            3760.00
01922            3760.00
01923            3760.00
01924            3600.00
01925            3600.00
01926            3600.00
01927            3600.00
01928            3440.00
01929            3360.00
01930            3360.00
01931            3360.00
01932            3200.00
01933            3280.00
01934            3200.00
01935            3040.00
01936            3040.00
01937            3040.00
01938            2960.00
01939            2800.00
01940            2720.00
01941            2720.00
01942            2720.00
01943            2640.00
01944            2640.00
01945            2640.00
01946            2480.00
01947            2400.00
01948            2320.00
01949            2320.00
01950            2240.00
01951            2240.00
01952            2080.00
01953            2080.00
01954            2080.00
01955            2000.00
01956            1840.00
01957            1840.00
01958            1760.00
01959            1680.00
01960            1680.00
01961            1520.00
01962            1520.00
01963            1440.00
01964            1360.00
01965            1360.00
01966            1360.00
01967            1200.00
01968            1200.00
01969            1040.00
01970            1040.00
01971            1040.00
01972             880.00
01973             880.00
01974             800.00
01975             800.00
01976             720.00
01977             720.00
01978             560.00
01979             560.00
01980             480.00
01981             480.00
01982             400.00
01983             240.00
01984             240.00
01985             160.00
01986             160.00
01987              80.00
01988              80.00
01989               0.00
01990             -80.00
01991            -160.00
01992            -240.00
01993            -240.00
01994            -400.00
01995            -400.00
01996            -480.00
01997            -480.00
01998            -480.00
01999            -560.00
02000            -800.00
02001            -800.00
02002            -800.00
02003            -800.00
02004            -880.00
02005            -960.00
02006           -1040.00
02007           -1120.00
02008           -1120.00
02009           -1200.00
02010           -1200.00
02011           -1360.00
02012           -1440.00
02013           -1360.00
02014           -1440.00
02015           -1520.00
02016           -1680.00
02017           -1680.00
02018           -1680.00
02019           -1760.00
02020           -1840.00
02021           -1840.00
02022           -2000.00
02023           -2000.00
02024           -2080.00
02025           -2160.00
02026           -2240.00
02027           -2320.00
02028           -2320.00
02029           -2400.00
02030           -2480.00
02031           -2480.00
02032           -2640.00
02033           -2640.00
02034           -2720.00
02035           -2720.00
02036           -2800.00
02037           -2880.00
02038           -2800.00
02039           -3040.00
02040           -3040.00
02041           -3040.00
02042           -3120.00
02043           -3200.00
02044           -3360.00
02045           -3360.00
02046           -3440.00
02047           -3440.00
02048           -3440.00
02049           -3520.00
02050           -3600.00
02051           -3680.00
02052           -3680.00
02053           -3760.00
02054           -3840.00
02055           -3840.00
02056           -3920.00
02057           -4000.00
02058           -4000.00
02059           -4080.00
02060           -4080.00
02061           -4160.00
02062           -4240.00
02063           -4320.00
02064           -4320.00
02065           -4400.00
02066           -4400.00
02067           -4560.00
02068           -4560.00
02069           -4560.00
02070           -4640.00
02071           -4720.00
02072           -4800.00
02073           -4800.00
02074           -4880.00
02075           -4880.00
02076           -4960.00
02077           -5040.00
02078           -5040.00
02079           -5040.00
02080           -5120.00
02081           -5200.00
02082           -5280.00
02083           -5280.00
02084           -5360.00
02085           -5360.00
02086           -5440.00
02087           -5520.00
02088           -5600.00
02089           -5600.00
02090           -5600.00
02091           -5680.00
02092           -5840.00
02093           -5840.00
02094           -5920.00
02095           -5920.00
02096           -6000.00
02097           -6000.00
02098           -6080.00
02099           -6160.00
02100           -6160.00
02101           -6160.00
02102           -6240.00
02103           -6240.00
02104           -6320.00
02105           -6320.00
02106           -6480.00
02107           -6400.00
02108           -6560.00
02109           -6560.00
02110           -6640.00
02111           -6640.00
02112           -6640.00
02113           -6640.00
02114           -6800.00
02115           -6800.00
02116           -6880.00
02117           -6880.00
02118           -6880.00
02119           -6960.00
02120           -6960.00
02121           -6960.00
02122           -7040.00
02123           -7120.00
02124           -7200.00
02125           -7200.00
02126           -7200.00
02127           -7280.00
02128           -7280.00
02129           -7280.00
02130           -7440.00
02131           -7440.00
02132           -7520.00
02133           -7520.00
02134           -7520.00
02135           -7600.00
02136           -7520.00
02137           -7600.00
02138           -7600.00
02139           -7760.00
02140           -7760.00
02141           -7840.00
02142           -7840.00
02143           -7920.00
02144           -7920.00
02145           -7920.00
02146           -7920.00
02147           -8000.00
02148           -8080.00
02149           -8080.00
02150           -8080.00
02151           -8160.00
02152           -8160.00
02153           -8160.00
02154           -8240.00
02155           -8240.00
02156           -8240.00
02157           -8320.00
02158           -8480.00
02159           -8400.00
02160           -8480.00
02161           -8480.00
02162           -8480.00
02163           -8480.00
02164           -8560.00
02165           -8560.00
02166           -8560.00
02167           -8560.00
02168           -8720.00
02169           -8720.00
02170           -8640.00
02171           -8720.00
02172           -8720.00
02173           -8800.00
02174           -8800.00
02175           -8800.00
02176           -8800.00
02177           -8880.00
02178           -8880.00
02179           -8880.00
02180           -9040.00
02181           -9040.00
02182           -8880.00
02183           -8960.00
02184           -9040.00
02185           -9040.00
02186           -9040.00
02187           -9120.00
02188           -9120.00
02189           -9040.00
02190           -9200.00
02191           -9120.00
02192           -9120.00
02193           -9200.00
02194           -9200.00
02195           -9200.00
02196           -9200.00
02197           -9200.00
02198           -9200.00
02199           -9200.00
02200           -9200.00
02201           -9200.00
02202           -9280.00
02203           -9360.00
02204           -9360.00
02205           -9360.00
02206           -9360.00
02207           -9360.00
02208           -9440.00
02209           -9360.00
02210           -9440.00
02211           -9440.00
02212           -9440.00
02213           -9440.00
02214           -9440.00
02215           -9520.00
02216           -9440.00
02217           -9440.00
02218           -9520.00
02219           -9520.00
02220           -9440.00
02221           -9520.00
02222           -9520.00
02223           -9520.00
02224           -9520.00
02225           -9520.00
02226           -9520.00
02227           -9520.00
02228           -9600.00
02229           -9520.00
02230           -9680.00
02231           -9520.00
02232           -9520.00
02233           -9600.00
02234           -9520.00
02235           -9600.00
02236           -9520.00
02237           -9520.00
02238           -9520.00
02239           -9680.00
02240           -9600.00
02241           -9600.00
02242           -9600.00
02243           -9600.00
02244           -9680.00
02245           -9600.00
02246           -9520.00
02247           -9520.00
02248           -9520.00
02249           -9520.00
02250           -9520.00
02251           -9520.00
02252           -9520.00
02253           -9520.00
02254           -9520.00
02255           -9520.00
02256           -9600.00
02257           -9520.00
02258           -9520.00
02259           -9520.00
02260           -9520.00
02261           -9520.00
02262           -9520.00
02263           -9440.00
02264           -9440.00
02265           -9440.00
02266           -9520.00
02267           -9440.00
02268           -9440.00
02269           -9440.00
02270           -9440.00
02271           -9440.00
02272           -9440.00
02273           -9440.00
02274           -9440.00
02275           -9360.00
02276           -9440.00
02277           -9360.00
02278           -9360.00
02279           -9360.00
02280           -9360.00
02281           -9280.00
02282           -9280.00
02283           -9360.00
02284           -9280.00
02285           -9200.00
02286           -9200.00
02287           -9200.00
02288           -9200.00
02289           -9200.00
02290           -9120.00
02291           -9200.00
02292           -9200.00
02293           -9120.00
02294           -9120.00
02295           -9120.00
02296           -9120.00
02297           -9040.00
02298           -9040.00
02299           -9040.00
02300           -8880.00
02301           -9040.00
02302           -8880.00
02303           -8880.00
02304           -8880.00
02305           -8880.00
02306           -8880.00
02307           -8800.00
02308           -8800.00
02309           -8800.00
02310           -8800.00
02311           -8800.00
02312           -8720.00
02313           -8720.00
02314           -8640.00
02315           -8640.00
02316           -8560.00
02317           -8560.00
02318           -8560.00
02319           -8560.00
02320           -8560.00
02321           -8480.00
02322           -8480.00
02323           -8400.00
02324           -8480.00
02325           -8400.00
02326           -8400.00
02327           -8240.00
02328           -8240.00
02329           -8240.00
02330           -8160.00
02331           -8160.00
02332           -8160.00
02333           -8160.00
02334           -8160.00
02335           -8080.00
02336           -7920.00
02337           -8080.00
02338           -7920.00
02339           -7920.00
02340           -7840.00
02341           -7840.00
02342           -7840.00
02343           -7760.00
02344           -7760.00
02345           -7760.00
02346           -7680.00
02347           -7600.00
02348           -7600.00
02349           -7600.00
02350           -7600.00
02351           -7520.00
02352           -7520.00
02353           -7440.00
02354           -7440.00
02355           -7360.00
02356           -7280.00
02357           -7280.00
02358           -7280.00
02359           -7200.00
02360           -7120.00
02361           -7120.00
02362           -7120.00
02363           -7120.00
02364           -6960.00
02365           -6960.00
02366           -6880.00
02367           -6880.00
02368           -6880.00
02369           -6800.00
02370           -6800.00
02371           -6720.00
02372           -6720.00
02373           -6640.00
02374           -6640.00
02375           -6560.00
02376           -6560.00
02377           -6480.00
02378           -6400.00
02379           -6400.00
02380           -6320.00
02381           -6320.00
02382           -6240.00
02383           -6160.00
02384           -6240.00
02385           -6160.00
02386           -6000.00
02387           -6000.00
02388           -6000.00
02389           -5920.00
02390           -5920.00
02391           -5840.00
02392           -5680.00
02393           -5680.00
02394           -5600.00
02395           -5600.00
02396           -5520.00
02397           -5520.00
02398           -5520.00
02399           -5360.00
02400           -5360.00
02401           -5280.00
02402           -5280.00
02403           -5200.00
02404           -5200.00
02405           -5200.00
02406           -5040.00
02407           -4960.00
02408           -4960.00
02409           -4960.00
02410           -4880.00
02411           -4800.00
02412           -4720.00
02413           -4720.00
02414           -4720.00
02415           -4640.00
02416           -4640.00
02417           -4560.00
02418           -4560.00
02419           -4400.00
02420           -4400.00
02421           -4320.00
02422           -4320.00
02423           -4240.00
02424           -4240.00
02425           -4080.00
02426           -4080.00
02427           -4080.00
02428           -4000.00
02429           -3920.00
02430           -3760.00
02431           -3760.00
02432           -3760.00
02433           -3680.00
02434           -3680.00
02435           -3600.00
02436           -3520.00
02437           -3440.00
02438           -3440.00
02439           -3440.00
02440           -3360.00
02441           -3280.00
02442           -3200.00
02443           -3120.00
02444           -3040.00
02445           -3040.00
02446           -2960.00
02447           -2800.00
02448           -2800.00
02449           -2800.00
02450           -2800.00
02451           -2720.00
02452           -2640.00
02453           -2640.00
02454           -2480.00
02455           -2480.00
02456           -2400.00
02457           -2400.00
02458           -2320.00
02459           -2240.00
02460           -2160.00
02461           -2080.00
02462           -2080.00
02463           -2000.00
02464           -2000.00
02465           -1840.00
02466           -1840.00
02467           -1840.00
02468           -1760.00
02469           -1680.00
02470           -1600.00
02471           -1520.00
02472           -1520.00
02473           -1440.00
02474           -1440.00
02475           -1360.00
02476           -1200.00
02477           -1200.00
02478           -1120.00
02479           -1120.00
02480           -1120.00
02481           -1040.00
02482            -880.00
02483            -880.00
02484            -800.00
02485            -800.00
02486            -720.00
02487            -640.00
02488            -560.00
02489            -480.00
02490            -480.00
02491            -400.00
02492            -400.00
02493            -240.00
02494            -240.00
02495            -160.00
02496             -80.00
02497             -80.00
02498              80.00
02499              80.00
02500              80.00
02501             160.00
02502             160.00
02503             240.00
02504             480.00
02505             400.00
02506             400.00
02507             560.00
02508             560.00
02509             720.00
02510             800.00
02511             800.00
02512             800.00
02513             880.00
02514            1040.00
02515            1040.00
02516            1040.00
02517            1120.00
02518            1200.00
02519            1280.00
02520            1360.00
02521            1360.00
02522            1440.00
02523            1440.00
02524            1600.00
02525            1600.00
02526            1600.00
02527            1680.00
02528            1840.00
02529            1840.00
02530            1840.00
02531            2000.00
02532            2080.00
02533            2080.00
02534            2160.00
02535            2160.00
02536            2320.00
02537            2320.00
02538            2400.00
02539            2400.00
02540            2480.00
02541            2560.00
02542            2640.00
02543            2720.00
02544            2720.00
02545            2800.00
02546            2800.00
02547            2960.00
02548            2960.00
02549            2960.00
02550            3040.00
02551            3120.00
02552            3120.00
02553            3200.00
02554            3280.00
02555            3280.00
02556            3360.00
02557            3520.00
02558            3520.00
02559            3600.00
02560            3600.00
02561            3600.00
02562            3680.00
02563            3760.00
02564            3760.00
02565            3920.00
02566            4000.00
02567            4000.00
02568            4080.00
02569            4080.00
02570            4080.00
02571            4240.00
02572            4240.00
02573            4320.00
02574            4400.00
02575            4400.00
02576            4480.00
02577            4640.00
02578            4640.00
02579            4640.00
02580            4720.00
02581            4720.00
02582            4880.00
02583            4880.00
02584            4960.00
02585            4960.00
02586            5040.00
02587            5040.00
02588            5200.00
02589            5200.00
02590            5200.00
02591            5280.00
02592            5280.00
02593            5360.00
02594            5440.00
02595            5520.00
02596            5520.00
02597            5600.00
02598            5600.00
02599            5680.00
02600            5760.00
02601            5680.00
02602            5840.00
02603            5920.00
02604            5920.00
02605            5920.00
02606            6000.00
02607            6080.00
02608            6160.00
02609            6160.00
02610            6160.00
02611            6240.00
02612            6240.00
02613            6320.00
02614            6320.00
02615            6320.00
02616            6480.00
02617            6480.00
02618            6560.00
02619            6560.00
02620            6640.00
02621            6640.00
02622            6720.00
02623            6800.00
02624            6800.00
02625            6800.00
02626            6800.00
02627            6880.00
02628            6960.00
02629            6960.00
02630            7120.00
02631            7120.00
02632            7120.00
02633            7120.00
02634            7200.00
02635            7200.00
02636            7280.00
02637            7360.00
02638            7440.00
02639            7440.00
02640            7440.00
02641            7520.00
02642            7520.00
02643            7600.00
02644            7520.00
02645            7600.00
02646            7680.00
02647            7760.00
02648            7760.00
02649            7760.00
02650            7840.00
02651            7840.00
02652            7840.00
02653            7840.00
02654            7920.00
02655            8000.00
02656            8080.00
02657            8080.00
02658            8080.00
02659            8160.00
02660            8160.00
02661            8240.00
02662            8160.00
02663            8240.00
02664            8240.00
02665            8240.00
02666            8400.00
02667            8400.00
02668            8400.00
02669            8400.00
02670            8480.00
02671            8480.00
02672            8480.00
02673            8480.00
02674            8560.00
02675            8720.00
02676            8560.00
02677            8720.00
02678            8640.00
02679            8720.00
02680            8720.00
02681            8720.00
02682            8720.00
02683            8800.00
02684            8800.00
02685            8800.00
02686            8800.00
02687            8800.00
02688            8800.00
02689            8880.00
02690            8880.00
02691            8960.00
02692            8960.00
02693            9040.00
02694            8960.00
02695            9040.00
02696            9040.00
02697            9120.00
02698            9120.00
02699            9120.00
02700            9120.00
02701            9120.00
02702            9120.00
02703            9200.00
02704            9200.00
02705            9200.00
02706            9200.00
02707            9360.00
02708            9200.00
02709            9360.00
02710            9360.00
02711            9360.00
02712            9360.00
02713            9360.00
02714            9360.00
02715            9360.00
02716            9360.00
02717            9360.00
02718            9440.00
02719            9440.00
02720            9440.00
02721            9520.00
02722            9440.00
02723            9440.00
02724            9440.00
02725            9440.00
02726            9520.00
02727            9440.00
02728            9520.00
02729            9440.00
02730            9520.00
02731            9520.00
02732            9520.00
02733            9520.00
02734            9520.00
02735            9520.00
02736            9520.00
02737            9680.00
02738            9520.00
02739            9520.00
02740            9680.00
02741            9520.00
02742            9680.00
02743            9520.00
02744            9520.00
02745            9520.00
02746            9600.00
02747            9520.00
02748            9680.00
02749            9680.00
02750            9520.00
02751            9600.00
02752            9680.00
02753            9520.00
02754            9600.00
02755            9520.00
02756            9520.00
02757            9520.00
02758            9520.00
02759            9600.00
02760            9520.00
02761            9520.00
02762            9520.00
02763            9520.00
02764            9520.00
02765            9520.00
02766            9520.00
02767            9520.00
02768            9520.00
02769            9520.00
02770            9520.00
02771            9520.00
02772            9520.00
02773            9520.00
02774            9520.00
02775            9440.00
02776            9440.00
02777            9440.00
02778            9440.00
02779            9440.00
02780            9440.00
02781            9440.00
02782            9440.00
02783            9440.00
02784            9440.00
02785            9360.00
02786            9440.00
02787            9440.00
02788            9360.00
02789            9360.00
02790            9360.00
02791            9360.00
02792            9360.00
02793            9280.00
02794            9280.00
02795            9200.00
02796            9200.00
02797            9200.00
02798            9200.00
02799            9200.00
02800            9200.00
02801            9200.00
02802            9120.00
02803            9120.00
02804            9120.00
02805            9040.00
02806            9120.00
02807            9040.00
02808            9040.00
02809            9040.00
02810            8960.00
02811            9040.00
02812            8880.00
02813            8880.00
02814            8800.00
02815            8880.00
02816            8800.00
02817            8800.00
02818            8720.00
02819            8800.00
02820            8800.00
02821            8720.00
02822            8720.00
02823            8720.00
02824            8640.00
02825            8640.00
02826            8640.00
02827            8560.00
02828            8480.00
02829            8480.00
02830            8480.00
02831            8480.00
02832            8400.00
02833            8400.00
02834            8400.00
02835            8400.00
02836            8400.00
02837            8240.00
02838            8240.00
02839            8240.00
02840            8240.00
02841            8240.00
02842            8080.00
02843            8160.00
02844            8080.00
02845            8080.00
02846            8080.00
02847            8080.00
02848            8080.00
02849            7920.00
02850            7920.00
02851            7840.00
02852            7840.00
02853            7840.00
02854            7760.00
02855            7760.00
02856            7600.00
02857            7760.00
02858            7600.00
02859            7600.00
02860            7520.00
02861            7520.00
02862            7440.00
02863            7440.00
02864            7440.00
02865            7280.00
02866            7280.00
02867            7280.00
02868            7200.00
02869            7200.00
02870            7200.00
02871            7120.00
02872            6960.00
02873            6960.00
02874            6960.00
02875            6960.00
02876            6880.00
02877            6880.00
02878            6800.00
02879            6800.00
02880            6720.00
02881            6640.00
02882            6640.00
02883            6560.00
02884            6560.00
02885            6560.00
02886            6480.00
02887            6480.00
02888            6480.00
02889            6320.00
02890            6320.00
02891            6240.00
02892            6240.00
02893            6160.00
02894            6160.00
02895            6160.00
02896            6000.00
02897            6000.00
02898            5920.00
02899            5920.00
02900            5920.00
02901            5840.00
02902            5760.00
02903            5840.00
02904            5680.00
02905            5600.00
02906            5520.00
02907            5520.00
02908            5520.00
02909            5360.00
02910            5360.00
02911            5280.00
02912            5360.00
02913            5280.00
02914            5200.00
02915            5200.00
02916            5120.00
02917            5040.00
02918            5040.00
02919            4960.00
02920            4960.00
02921            4880.00
02922            4800.00
02923            4720.00
02924            4720.00
02925            4640.00
02926            4640.00
02927            4560.00
02928            4480.00
02929            4400.00
02930            4400.00
02931            4320.00
02932            4240.00
02933            4240.00
02934            4160.00
02935            4080.00
02936            4080.00
02937            4000.00
02938            4000.00
02939            3920.00
02940            3840.00
02941            3760.00
02942            3680.00
02943            3680.00
02944            3600.00
02945            3520.00
02946            3440.00
02947            3360.00
02948            3440.00
02949            3360.00
02950            3280.00
02951            3280.00
02952            3200.00
02953            3120.00
02954            3120.00
02955            3040.00
02956            2960.00
02957            2800.00
02958            2800.00
02959            2800.00
02960            2720.00
02961            2640.00
02962            2640.00
02963            2560.00
02964            2480.00
02965            2400.00
02966            2400.00
02967            2320.00
02968            2320.00
02969            2240.00
02970            2160.00
02971            2080.00
02972            2080.00
02973            2080.00
02974            2000.00
02975            1840.00
02976            1760.00
02977            1760.00
02978            1680.00
02979            1680.00
02980            1680.00
02981            1520.00
02982            1520.00
02983            1440.00
02984            1360.00
02985            1360.00
02986            1200.00
02987            1200.00
02988            1120.00
02989            1040.00
02990            1040.00
02991             960.00
02992             880.00
02993             880.00
02994             800.00
02995             800.00
02996             720.00
02997             560.00
02998             560.00
02999             480.00
03000             480.00
03001             320.00
03002             400.00
03003             160.00
03004             160.00
03005             160.00
03006              80.00
03007              80.00
03008               0.00
03009             -80.00
03010            -160.00
03011            -240.00
03012            -240.00
03013            -400.00
03014            -400.00
03015            -400.00
03016            -480.00
03017            -480.00
03018            -640.00
03019            -800.00
03020            -880.00
03021            -880.00
03022            -800.00
03023            -880.00
03024            -880.00
03025           -1120.00
03026           -1120.00
03027           -1120.00
03028           -1200.00
03029           -1200.00
03030           -1360.00
03031           -1360.00
03032           -1440.00
03033           -1520.00
03034           -1600.00
03035           -1680.00
03036           -1680.00
03037           -1760.00
03038           -1760.00
03039           -1840.00
03040           -2000.00
03041           -1920.00
03042           -2000.00
03043           -2080.00
03044           -2160.00
03045           -2160.00
03046           -2240.00
03047           -2320.00
03048           -2400.00
03049           -2480.00
03050           -2480.00
03051           -2480.00
03052           -2640.00
03053           -2720.00
03054           -2720.00
03055           -2800.00
03056           -2800.00
03057           -2960.00
03058           -2960.00
03059           -2960.00
03060           -3040.00
03061           -3040.00
03062           -3200.00
03063           -3280.00
03064           -3360.00
03065           -3360.00
03066           -3360.00
03067           -3440.00
03068           -3520.00
03069           -3600.00
03070           -3680.00
03071           -3680.00
03072           -3760.00
03073           -3760.00
03074           -3840.00
03075           -3920.00
03076           -4000.00
03077           -4000.00
03078           -4080.00
03079           -4240.00
03080           -4240.00
03081           -4240.00
03082           -4320.00
03083           -4400.00
03084           -4400.00
03085           -4480.00
03086           -4400.00
03087           -4640.00
03088           -4640.00
03089           -4720.00
03090           -4720.00
03091           -4800.00
03092           -4720.00
03093           -4960.00
03094           -4960.00
03095           -4960.00
03096           -5040.00
03097           -5040.00
03098           -5040.00
03099           -5200.00
03100           -5280.00
03101           -5200.00
03102           -5360.00
03103           -5360.00
03104           -5360.00
03105           -5520.00
03106           -5600.00
03107           -5520.00
03108           -5600.00
03109           -5600.00
03110           -5680.00
03111           -5760.00
03112           -5760.00
03113           -5920.00
03114           -5920.00
03115           -6000.00
03116           -6000.00
03117           -6000.00
03118           -6000.00
03119           -6160.00
03120           -6240.00
03121           -6240.00
03122           -6240.00
03123           -6240.00
03124           -6320.00
03125           -6320.00
03126           -6400.00
03127           -6480.00
03128           -6480.00
03129           -6560.00
03130           -6640.00
03131           -6640.00
03132           -6720.00
03133           -6800.00
03134           -6880.00
03135           -6880.00
03136           -6880.00
03137           -6960.00
03138           -6960.00
03139           -6960.00
03140           -7040.00
03141           -7120.00
03142           -7200.00
03143           -7200.00
03144           -7200.00
03145           -7280.00
03146           -7280.00
03147           -7280.00
03148           -7440.00
03149           -7440.00
03150           -7520.00
03151           -7440.00
03152           -7520.00
03153           -7520.00
03154           -7600.00
03155           -7600.00
03156           -7760.00
03157           -7760.00
03158           -7760.00
03159           -7760.00
03160           -7760.00
03161           -7840.00
03162           -7840.00
03163           -7840.00
03164           -7920.00
03165           -7920.00
03166           -8000.00
03167           -8080.00
03168           -8080.00
03169           -8160.00
03170           -8160.00
03171           -8160.00
03172           -8160.00
03173           -8240.00
03174           -8160.00
03175           -8240.00
03176           -8240.00
03177           -8400.00
03178           -8400.00
03179           -8400.00
03180           -8480.00
03181           -8480.00
03182           -8480.00
03183           -8480.00
03184           -8560.00
03185           -8480.00
03186           -8560.00
03187           -8560.00
03188           -8560.00
03189           -8720.00
03190           -8720.00
03191           -8720.00
03192           -8800.00
03193           -8720.00
03194           -8800.00
03195           -8800.00
03196           -8800.00
03197           -8880.00
03198           -8800.00
03199           -8880.00
03200           -8880.00
03201           -8960.00
03202           -9040.00
03203           -9040.00
03204           -9040.00
03205           -9040.00
03206           -9120.00
03207           -9120.00
03208           -9120.00
03209           -9120.00
03210           -9200.00
03211           -9200.00
03212           -9120.00
03213           -9200.00
03214           -9200.00
03215           -9280.00
03216           -9200.00
03217           -9200.00
03218           -9200.00
03219           -9200.00
03220           -9360.00
03221           -9360.00
03222           -9360.00
03223           -9280.00
03224           -9360.00
03225           -9360.00
03226           -9440.00
03227           -9360.00
03228           -9440.00
03229           -9360.00
03230           -9440.00
03231           -9440.00
03232           -9440.00
03233           -9440.00
03234           -9520.00
03235           -9440.00
03236           -9440.00
03237           -9440.00
03238           -9440.00
03239           -9520.00
03240           -9520.00
03241           -9520.00
03242           -9520.00
03243           -9520.00
03244           -9440.00
03245           -9440.00
03246           -9520.00
03247           -9520.00
03248           -9520.00
03249           -9520.00
03250           -9520.00
03251           -9520.00
03252           -9600.00
03253           -9520.00
03254           -9520.00
03255           -9520.00
03256           -9680.00
03257           -9520.00
03258           -9520.00
03259           -9520.00
03260           -9600.00
03261           -9600.00
03262           -9520.00
03263           -9680.00
03264           -9600.00
03265           -9520.00
03266           -9520.00
03267           -9680.00
03268           -9520.00
03269           -9520.00
03270           -9520.00
03271           -9520.00
03272           -9520.00
03273           -9600.00
03274           -9600.00
03275           -9520.00
03276           -9520.00
03277           -9520.00
03278           -9520.00
03279           -9520.00
03280           -9520.00
03281           -9520.00
03282           -9520.00
03283           -9520.00
03284           -9520.00
03285           -9520.00
03286           -9440.00
03287           -9520.00
03288           -9440.00
03289           -9440.00
03290           -9440.00
03291           -9440.00
03292           -9440.00
03293           -9440.00
03294           -9440.00
03295           -9360.00
03296           -9360.00
03297           -9360.00
03298           -9360.00
03299           -9360.00
03300           -9360.00
03301           -9200.00
03302           -9360.00
03303           -9200.00
03304           -9200.00
03305           -9200.00
03306           -9200.00
03307           -9200.00
03308           -9120.00
03309           -9200.00
03310           -9120.00
03311           -9120.00
03312           -9120.00
03313           -9120.00
03314           -9120.00
03315           -9040.00
03316           -8960.00
03317           -9040.00
03318           -9040.00
03319           -8880.00
03320           -8880.00
03321           -8880.00
03322           -8880.00
03323           -8880.00
03324           -8800.00
03325           -8880.00
03326           -8800.00
03327           -8800.00
03328           -8800.00
03329           -8800.00
03330           -8720.00
03331           -8720.00
03332           -8720.00
03333           -8720.00
03334           -8720.00
03335           -8720.00
03336           -8560.00
03337           -8560.00
03338           -8560.00
03339           -8560.00
03340           -8480.00
03341           -8480.00
03342           -8400.00
03343           -8400.00
03344           -8400.00
03345           -8240.00
03346           -8400.00
03347           -8240.00
03348           -8240.00
03349           -8240.00
03350           -8240.00
03351           -8160.00
03352           -8160.00
03353           -8080.00
03354           -8160.00
03355           -8000.00
03356           -8080.00
03357           -7920.00
03358           -7920.00
03359           -7840.00
03360           -7840.00
03361           -7760.00
03362           -7760.00
03363           -7760.00
03364           -7600.00
03365           -7600.00
03366           -7600.00
03367           -7520.00
03368           -7600.00
03369           -7440.00
03370           -7520.00
03371           -7440.00
03372           -7440.00
03373           -7360.00
03374           -7280.00
03375           -7280.00
03376           -7280.00
03377           -7200.00
03378           -7200.00
03379           -7120.00
03380           -7120.00
03381           -7040.00
03382           -6960.00
03383           -6960.00
03384           -6960.00
03385           -6880.00
03386           -6800.00
03387           -6800.00
03388           -6800.00
03389           -6800.00
03390           -6640.00
03391           -6640.00
03392           -6640.00
03393           -6640.00
03394           -6560.00
03395           -6480.00
03396           -6480.00
03397           -6320.00
03398           -6320.00
03399           -6320.00
03400           -6240.00
03401           -6240.00
03402           -6240.00
03403           -6160.00
03404           -6160.00
03405           -6000.00
03406           -6000.00
03407           -5920.00
03408           -5920.00
03409           -5920.00
03410           -5840.00
03411           -5840.00
03412           -5680.00
03413           -5680.00
03414           -5600.00
03415           -5600.00
03416           -5520.00
03417           -5520.00
03418           -5360.00
03419           -5360.00
03420           -5360.00
03421           -5280.00
03422           -5200.00
03423           -5200.00
03424           -5040.00
03425           -5040.00
03426           -5040.00
03427           -4960.00
03428           -4960.00
03429           -4880.00
03430           -4800.00
03431           -4720.00
03432           -4720.00
03433           -4720.00
03434           -4640.00
03435           -4560.00
03436           -4560.00
03437           -4400.00
03438           -4400.00
03439           -4400.00
03440           -4320.00
03441           -4240.00
03442           -4240.00
03443           -4080.00
03444           -4080.00
03445           -4000.00
03446           -4000.00
03447           -3920.00
03448           -3760.00
03449           -3760.00
03450           -3760.00
03451           -3760.00
03452           -3680.00
03453           -3680.00
03454           -3520.00
03455           -3520.00
03456           -3440.00
03457           -3440.00
03458           -3360.00
03459           -3360.00
03460           -3360.00
03461           -3200.00
03462           -3120.00
03463           -3040.00
03464           -3040.00
03465           -2960.00
03466           -2960.00
03467           -2800.00
03468           -2800.00
03469           -2720.00
03470           -2720.00
03471           -2640.00
03472           -2640.00
03473           -2480.00
03474           -2480.00
03475           -2400.00
03476           -2400.00
03477           -2400.00
03478           -2160.00
03479           -2240.00
03480           -2160.00
03481           -2080.00
03482           -2080.00
03483           -2000.00
03484           -1840.00
03485           -1920.00
03486           -1760.00
03487           -1760.00
03488           -1680.00
03489           -1600.00
03490           -1520.00
03491           -1520.00
03492           -1440.00
03493           -1440.00
03494           -1360.00
03495           -1200.00
03496           -1200.00
03497           -1120.00
03498           -1120.00
03499           -1040.00
03500            -960.00
03501            -880.00
03502            -880.00
03503            -800.00
03504            -720.00
03505            -720.00
03506            -560.00
03507            -480.00
03508            -480.00
03509            -400.00
03510            -320.00
03511            -240.00
03512            -240.00
03513            -240.00
03514            -160.00
03515             -80.00
03516             -80.00
03517              80.00
03518              80.00
03519             160.00
03520             160.00
03521             240.00
03522             240.00
03523             400.00
03524             400.00
03525             480.00
03526             560.00
03527             560.00
03528             720.00
03529             800.00
03530             800.00
03531             800.00
03532             880.00
03533            1040.00
03534            1040.00
03535            1040.00
03536            1120.00
03537            1200.00
03538            1280.00
03539            1360.00
03540            1360.00
03541            1360.00
03542            1440.00
03543            1600.00
03544            1680.00
03545            1680.00
03546            1680.00
03547            1760.00
03548            1840.00
03549            1920.00
03550            2000.00
03551            2080.00
03552            2160.00
03553            2240.00
03554            2160.00
03555            2320.00
03556            2320.00
03557            2400.00
03558            2400.00
03559            2400.00
03560            2560.00
03561            2640.00
03562            2720.00
03563            2720.00
03564            2800.00
03565            2880.00
03566            2960.00
03567            2960.00
03568            3040.00
03569            3040.00
03570            3120.00
03571            3120.00
03572            3280.00
03573            3360.00
03574            3360.00
03575            3440.00
03576            3440.00
03577            3600.00
03578            3600.00
03579            3600.00
03580            3600.00
03581            3760.00
03582            3920.00
03583            3920.00
03584            4000.00
03585            4000.00
03586            4000.00
03587            4080.00
03588            4240.00
03589            4240.00
03590            4240.00
03591            4320.00
03592            4320.00
03593            4400.00
03594            4400.00
03595            4400.00
03596            4560.00
03597            4640.00
03598            4640.00
03599            4720.00
03600            4720.00
03601            4800.00
03602            4880.00
03603            4880.00
03604            4960.00
03605            4960.00
03606            5040.00
03607            5120.00
03608            5200.00
03609            5280.00
03610            5280.00
03611            5280.00
03612            5360.00
03613            5360.00
03614            5520.00
03615            5600.00
03616            5520.00
03617            5600.00
03618            5680.00
03619            5840.00
03620            5840.00
03621            5840.00
03622            5920.00
03623            5920.00
03624            5920.00
03625            6000.00
03626            6160.00
03627            6000.00
03628            6160.00
03629            6160.00
03630            6240.00
03631            6320.00
03632            6320.00
03633            6320.00
03634            6480.00
03635            6480.00
03636            6560.00
03637            6480.00
03638            6560.00
03639            6560.00
03640            6640.00
03641            6800.00
03642            6800.00
03643            6800.00
03644            6800.00
03645            6880.00
03646            6960.00
03647            6960.00
03648            6960.00
03649            7120.00
03650            7120.00
03651            7200.00
03652            7200.00
03653            7200.00
03654            7200.00
03655            7280.00
03656            7280.00
03657            7360.00
03658            7440.00
03659            7440.00
03660            7440.00
03661            7440.00
03662            7520.00
03663            7600.00
03664            7600.00
03665            7600.00
03666            7680.00
03667            7760.00
03668            7760.00
03669            7840.00
03670            7840.00
03671            7840.00
03672            7920.00
03673            7920.00
03674            7920.00
03675            8000.00
03676            8000.00
03677            8080.00
03678            8080.00
03679            8160.00
03680            8160.00
03681            8240.00
03682            8240.00
03683            8240.00
03684            8240.00
03685            8240.00
03686            8400.00
03687            8400.00
03688            8400.00
03689            8480.00
03690            8480.00
03691            8480.00
03692            8560.00
03693            8480.00
03694            8560.00
03695            8640.00
03696            8560.00
03697            8560.00
03698            8640.00
03699            8720.00
03700            8720.00
03701            8720.00
03702            8800.00
03703            8800.00
03704            8800.00
03705            8800.00
03706            8880.00
03707            8800.00
03708            8880.00
03709            9040.00
03710            9040.00
03711            9040.00
03712            9040.00
03713            9120.00
03714            9040.00
03715            9040.00
03716            9120.00
03717            9120.00
03718            9120.00
03719            9120.00
03720            9120.00
03721            9120.00
03722            9120.00
03723            9120.00
03724            9120.00
03725            9200.00
03726            9200.00
03727            9280.00
03728            9280.00
03729            9200.00
03730            9200.00
03731            9360.00
03732            9360.00
03733            9360.00
03734            9360.00
03735            9360.00
03736            9360.00
03737            9360.00
03738            9360.00
03739            9360.00
03740            9360.00
03741            9440.00
03742            9440.00
03743            9440.00
03744            9440.00
03745            9520.00
03746            9440.00
03747            9520.00
03748            9440.00
03749            9520.00
03750            9520.00
03751            9520.00
03752            9520.00
03753            9520.00
03754            9520.00
03755            9520.00
03756            9600.00
03757            9520.00
03758            9520.00
03759            9520.00
03760            9520.00
03761            9600.00
03762            9600.00
03763            9680.00
03764            9600.00
03765            9600.00
03766            9600.00
03767            9600.00
03768            9680.00
03769            9680.00
03770            9600.00
03771            9520.00
03772            9680.00
03773            9600.00
03774            9600.00
03775            9680.00
03776            9680.00
03777            9680.00
03778            9600.00
03779            9520.00
03780            9520.00
03781            9600.00
03782            9520.00
03783            9520.00
03784            9520.00
03785            9520.00
03786            9520.00
03787            9520.00
03788            9440.00
03789            9520.00
03790            9440.00
03791            9440.00
03792            9520.00
03793            9520.00
03794            9440.00
03795            9440.00
03796            9440.00
03797            9440.00
03798            9440.00
03799            9440.00
03800            9360.00
03801            9440.00
03802            9360.00
03803            9360.00
03804            9360.00
03805            9360.00
03806            9360.00
03807            9360.00
03808            9360.00
03809            9360.00
03810            9360.00
03811            9360.00
03812            9360.00
03813            9280.00
03814            9200.00
03815            9280.00
03816            9120.00
03817            9200.00
03818            9120.00
03819            9120.00
03820            9120.00
03821            9120.00
03822            9120.00
03823            9040.00
03824            9120.00
03825            9120.00
03826            9040.00
03827            9040.00
03828            9040.00
03829            9040.00
03830            9040.00
03831            8880.00
03832            8960.00
03833            8880.00
03834            8880.00
03835            8880.00
03836            8800.00
03837            8800.00
03838            8800.00
03839            8720.00
03840            8720.00
03841            8720.00
03842            8720.00
03843            8720.00
03844            8640.00
03845            8720.00
03846            8560.00
03847            8560.00
03848            8480.00
03849            8480.00
03850            8400.00
03851            8400.00
03852            8400.00
03853            8400.00
03854            8400.00
03855            8320.00
03856            8240.00
03857            8240.00
03858            8160.00
03859            8240.00
03860            8160.00
03861            8160.00
03862            8080.00
03863            8080.00
03864            8080.00
03865            8000.00
03866            7920.00
03867            7920.00
03868            7840.00
03869            7840.00
03870            7840.00
03871            7760.00
03872            7840.00
03873            7760.00
03874            7760.00
03875            7680.00
03876            7600.00
03877            7600.00
03878            7600.00
03879            7520.00
03880            7520.00
03881            7520.00
03882            7440.00
03883            7440.00
03884            7280.00
03885            7280.00
03886            7280.00
03887            7200.00
03888            7200.00
03889            7200.00
03890            7200.00
03891            7120.00
03892            7120.00
03893            6960.00
03894            6880.00
03895            6880.00
03896            6880.00
03897            6800.00
03898            6800.00
03899            6800.00
03900            6720.00
03901            6640.00
03902            6720.00
03903            6560.00
03904            6560.00
03905            6560.00
03906            6480.00
03907            6480.00
03908            6320.00
03909            6320.00
03910            6240.00
03911            6160.00
03912            6240.00
03913            6080.00
03914            6000.00
03915            6000.00
03916            6000.00
03917            5920.00
03918            5920.00
03919            5840.00
03920            5840.00
03921            5840.00
03922            5680.00
03923            5600.00
03924            5600.00
03925            5520.00
03926            5600.00
03927            5520.00
03928            5360.00
03929            5360.00
03930            5280.00
03931            5280.00
03932            5280.00
03933            5200.00
03934            5200.00
03935            5040.00
03936            4960.00
03937            4960.00
03938            4960.00
03939            4880.00
03940            4880.00
03941            4880.00
03942            4720.00
03943            4640.00
03944            4640.00
03945            4640.00
03946            4560.00
03947            4400.00
03948            4320.00
03949            4320.00
03950            4320.00
03951            4240.00
03952            4240.00
03953            4240.00
03954            4080.00
03955            4000.00
03956            4000.00
03957            3920.00
03958            3920.00
03959            3760.00
03960            3760.00
03961            3760.00
03962            3680.00
03963            3600.00
03964            3600.00
03965            3600.00
03966            3520.00
03967            3360.00
03968            3360.00
03969            3280.00
03970            3280.00
03971            3280.00
03972            3120.00
03973            3120.00
03974            3040.00
03975            2960.00
03976            2880.00
03977            2800.00
03978            2720.00
03979            2720.00
03980            2720.00
03981            2640.00
03982            2560.00
03983            2480.00
03984            2400.00
03985            2400.00
03986            2320.00
03987            2320.00
03988            2320.00
03989            2080.00
03990            2080.00
03991            2080.00
03992            2000.00
03993            1920.00
03994            1840.00
03995            1760.00
03996            1760.00
03997            1680.00
03998            1600.00
03999            1520.00
04000            1520.00
04001            1440.00
04002            1360.00
04003            1360.00
04004            1280.00
04005            1200.00
04006            1200.00
04007            1120.00
04008            1040.00
04009            1040.00
04010             880.00
04011             880.00
04012             800.00
04013             800.00
04014             720.00
04015             720.00
04016             560.00
04017             640.00
04018             480.00
04019             480.00
04020             400.00
04021             240.00
04022             240.00
04023             160.00
04024             160.00
04025              80.00
04026              80.00
04027             -80.00
04028             -80.00
04029            -160.00
04030            -240.00
04031            -240.00
04032            -320.00
04033            -320.00
04034            -480.00
04035            -480.00
04036            -480.00
04037            -640.00
04038            -720.00
04039            -880.00
04040            -720.00
04041            -800.00
04042            -880.00
04043           -1040.00
04044           -1120.00
04045           -1120.00
04046           -1200.00
04047           -1200.00
04048           -1200.00
04049           -1440.00
04050           -1440.00
04051           -1440.00
04052           -1520.00
04053           -1520.00
04054           -1680.00
04055           -1760.00
04056           -1760.00
04057           -1840.00
04058           -2000.00
04059           -2000.00
04060           -2000.00
04061           -2080.00
04062           -2080.00
04063           -2160.00
04064           -2240.00
04065           -2400.00
04066           -2400.00
04067           -2400.00
04068           -2400.00
04069           -2640.00
04070           -2560.00
04071           -2640.00
04072           -2640.00
04073           -2800.00
04074           -2800.00
04075           -2800.00
04076           -2880.00
04077           -3040.00
04078           -3040.00
04079           -3040.00
04080           -3120.00
04081           -3280.00
04082           -3280.00
04083           -3360.00
04084           -3360.00
04085           -3440.00
04086           -3440.00
04087           -3440.00
04088           -3600.00
04089           -3680.00
04090           -3680.00
04091           -3680.00
04092           -3760.00
04093           -3760.00
04094           -3920.00
04095           -3920.00
04096           -4000.00
04097           -4080.00
04098           -4080.00
04099           -4080.00
04100           -4240.00
04101           -4320.00
04102           -4320.00
04103           -4400.00
04104           -4400.00
04105           -4560.00
04106           -4560.00
04107           -4560.00
04108           -4720.00
04109           -4720.00
04110           -4720.00
04111           -4880.00
04112           -4880.00
04113           -4960.00
04114           -4960.00
04115           -5040.00
04116           -5040.00
04117           -5200.00
04118           -5200.00
04119           -5280.00
04120           -5280.00
04121           -5360.00
04122           -5360.00
04123           -5360.00
04124           -5520.00
04125           -5520.00
04126           -5600.00
04127           -5600.00
04128           -5680.00
04129           -5760.00
04130           -5760.00
04131           -5920.00
04132           -5840.00
04133           -5920.00
04134           -5920.00
04135           -6000.00
04136           -6000.00
04137           -6160.00
04138           -6160.00
04139           -6240.00
04140           -6240.00
04141           -6240.00
04142           -6240.00
04143           -6320.00
04144           -6480.00
04145           -6480.00
04146           -6480.00
04147           -6560.00
04148           -6640.00
04149           -6640.00
04150           -6640.00
04151           -6720.00
04152           -6800.00
04153           -6800.00
04154           -6880.00
04155           -6880.00
04156           -6880.00
04157           -6880.00
04158           -6960.00
04159           -7120.00
04160           -7120.00
04161           -7120.00
04162           -7200.00
04163           -7280.00
04164           -7200.00
04165           -7280.00
04166           -7280.00
04167           -7440.00
04168           -7360.00
04169           -7440.00
04170           -7520.00
04171           -7520.00
04172           -7520.00
04173           -7600.00
04174           -7600.00
04175           -7600.00
04176           -7760.00
04177           -7840.00
04178           -7840.00
04179           -7840.00
04180           -7840.00
04181           -7920.00
04182           -7920.00
04183           -8000.00
04184           -7920.00
04185           -8080.00
04186           -8080.00
04187           -8080.00
04188           -8160.00
04189           -8160.00
04190           -8160.00
04191           -8240.00
04192           -8240.00
04193           -8240.00
04194           -8240.00
04195           -8400.00
04196           -8400.00
04197           -8400.00
04198           -8480.00
04199           -8480.00
04200           -8480.00
04201           -8480.00
04202           -8560.00
04203           -8560.00
04204           -8560.00
04205           -8560.00
04206           -8560.00
04207           -8640.00
04208           -8720.00
04209           -8720.00
04210           -8800.00
04211           -8720.00
04212           -8800.00
04213           -8800.00
04214           -8800.00
04215           -8800.00
04216           -8800.00
04217           -8880.00
04218           -8880.00
04219           -8880.00
04220           -8880.00
04221           -9040.00
04222           -9040.00
04223           -9040.00
04224           -9040.00
04225           -9040.00
04226           -9040.00
04227           -9120.00
04228           -9120.00
04229           -9120.00
04230           -9200.00
04231           -9120.00
04232           -9200.00
04233           -9200.00
04234           -9200.00
04235           -9200.00
04236           -9200.00
04237           -9360.00
04238           -9280.00
04239           -9280.00
04240           -9200.00
04241           -9360.00
04242           -9360.00
04243           -9360.00
04244           -9440.00
04245           -9360.00
04246           -9360.00
04247           -9440.00
04248           -9440.00
04249           -9440.00
04250           -9440.00
04251           -9440.00
04252           -9440.00
04253           -9520.00
04254           -9520.00
04255           -9440.00
04256           -9440.00
04257           -9520.00
04258           -9520.00
04259           -9520.00
04260           -9520.00
04261           -9520.00
04262           -9440.00
04263           -9520.00
04264           -9520.00
04265           -9520.00
04266           -9520.00
04267           -9520.00
04268           -9520.00
04269           -9520.00
04270           -9520.00
04271           -9520.00
04272           -9520.00
04273           -9680.00
04274           -9520.00
04275           -9520.00
04276           -9520.00
04277           -9600.00
04278           -9520.00
04279           -9520.00
04280           -9520.00
04281           -9680.00
04282           -9520.00
04283           -9520.00
04284           -9520.00
04285           -9520.00
04286           -9520.00
04287           -9520.00
04288           -9520.00
04289           -9520.00
04290           -9520.00
04291           -9520.00
04292           -9440.00
04293           -9520.00
04294           -9520.00
04295           -9520.00
04296           -9520.00
04297           -9440.00
04298           -9520.00
04299           -9440.00
04300           -9440.00
04301           -9520.00
04302           -9440.00
04303           -9520.00
04304           -9440.00
04305           -9520.00
04306           -9440.00
04307           -9440.00
04308           -9440.00
04309           -9440.00
04310           -9440.00
04311           -9440.00
04312           -9440.00
04313           -9360.00
04314           -9440.00
04315           -9360.00
04316           -9360.00
04317           -9360.00
04318           -9360.00
04319           -9360.00
04320           -9360.00
04321           -9360.00
04322           -9200.00
04323           -9360.00
04324           -9200.00
04325           -9200.00
04326           -9200.00
04327           -9200.00
04328           -9200.00
04329           -9120.00
04330           -9200.00
04331           -9120.00
04332           -9040.00
04333           -9040.00
04334           -9040.00
04335           -9040.00
04336           -9040.00
04337           -9040.00
04338           -9040.00
04339           -8960.00
04340           -8880.00
04341           -9040.00
04342           -8880.00
04343           -8880.00
04344           -8800.00
04345           -8800.00
04346           -8800.00
04347           -8800.00
04348           -8800.00
04349           -8720.00
04350           -8640.00
04351           -8720.00
04352           -8560.00
04353           -8720.00
04354           -8560.00
04355           -8560.00
04356           -8560.00
04357           -8480.00
04358           -8480.00
04359           -8480.00
04360           -8480.00
04361           -8400.00
04362           -8480.00
04363           -8400.00
04364           -8320.00
04365           -8240.00
04366           -8240.00
04367           -8240.00
04368           -8160.00
04369           -8160.00
04370           -8160.00
04371           -8080.00
04372           -8080.00
04373           -8080.00
04374           -8080.00
04375           -7920.00
04376           -7920.00
04377           -7920.00
04378           -7920.00
04379           -7840.00
04380           -7840.00
04381           -7840.00
04382           -7840.00
04383           -7680.00
04384           -7760.00
04385           -7600.00
04386           -7600.00
04387           -7600.00
04388           -7520.00
04389           -7520.00
04390           -7520.00
04391           -7440.00
04392           -7440.00
04393           -7280.00
04394           -7280.00
04395           -7280.00
04396           -7280.00
04397           -7200.00
04398           -7200.00
04399           -7120.00
04400           -7120.00
04401           -7120.00
04402           -6960.00
04403           -6960.00
04404           -6880.00
04405           -6880.00
04406           -6880.00
04407           -6800.00
04408           -6800.00
04409           -6640.00
04410           -6640.00
04411           -6640.00
04412           -6560.00
04413           -6480.00
04414           -6480.00
04415           -6400.00
04416           -6320.00
04417           -6320.00
04418           -6320.00
04419           -6240.00
04420           -6240.00
04421           -6160.00
04422           -6160.00
04423           -6000.00
04424           -6000.00
04425           -6000.00
04426           -6000.00
04427           -5920.00
04428           -5920.00
04429           -5840.00
04430           -5840.00
04431           -5680.00
04432           -5680.00
04433           -5600.00
04434           -5600.00
04435           -5600.00
04436           -5520.00
04437           -5520.00
04438           -5360.00
04439           -5360.00
04440           -5280.00
04441           -5280.00
04442           -5200.00
04443           -5200.00
04444           -5120.00
04445           -5040.00
04446           -4960.00
04447           -4960.00
04448           -4960.00
04449           -4880.00
04450           -4800.00
04451           -4720.00
04452           -4720.00
04453           -4640.00
04454           -4560.00
04455           -4560.00
04456           -4560.00
04457           -4480.00
04458           -4320.00
04459           -4320.00
04460           -4320.00
04461           -4320.00
04462           -4160.00
04463           -4080.00
04464           -4000.00
04465           -4000.00
04466           -4000.00
04467           -3920.00
04468           -3760.00
04469           -3760.00
04470           -3680.00
04471           -3680.00
04472           -3680.00
04473           -3600.00
04474           -3600.00
04475           -3440.00
04476           -3440.00
04477           -3360.00
04478           -3280.00
04479           -3280.00
04480           -3120.00
04481           -3120.00
04482           -3040.00
04483           -2960.00
04484           -2960.00
04485           -2880.00
04486           -2800.00
04487           -2800.00
04488           -2720.00
04489           -2720.00
04490           -2640.00
04491           -2560.00
04492           -2480.00
04493           -2480.00
04494           -2400.00
04495           -2320.00
04496           -2320.00
04497           -2160.00
04498           -2160.00
04499           -2080.00
04500           -2080.00
04501           -2000.00
04502           -1920.00
04503           -1920.00
04504           -1840.00
04505           -1840.00
04506           -1760.00
04507           -1680.00
04508           -1680.00
04509           -1520.00
04510           -1520.00
04511           -1440.00
04512           -1360.00
04513           -1280.00
04514           -1280.00
04515           -1200.00
04516           -1120.00
04517           -1120.00
04518           -1040.00
04519           -1040.00
04520            -880.00
04521            -880.00
04522            -800.00
04523            -720.00
04524            -720.00
04525            -720.00
04526            -560.00
04527            -480.00
04528            -480.00
04529            -480.00
04530            -240.00
04531            -240.00
04532            -240.00
04533            -160.00
04534             -80.00
04535             -80.00
04536              80.00
04537              80.00
04538             160.00
04539             240.00
04540             240.00
04541             240.00
04542             400.00
04543             480.00
04544             480.00
04545             560.00
04546             560.00
04547             800.00
04548             800.00
04549             800.00
04550             800.00
04551             880.00
04552            1040.00
04553            1120.00
04554            1040.00
04555            1120.00
04556            1200.00
04557            1200.00
04558            1360.00
04559            1360.00
04560            1440.00
04561            1440.00
04562            1520.00
04563            1680.00
04564            1680.00
04565            1680.00
04566            1760.00
04567            1840.00
04568            1840.00
04569            2000.00
04570            2000.00
04571            2080.00
04572            2080.00
04573            2160.00
04574            2320.00
04575            2320.00
04576            2320.00
04577            2480.00
04578            2480.00
04579            2480.00
04580            2640.00
04581            2720.00
04582            2720.00
04583            2800.00
04584            2800.00
04585            2960.00
04586            2960.00
04587            3040.00
04588            3040.00
04589            3120.00
04590            3120.00
04591            3280.00
04592            3360.00
04593            3280.00
04594            3360.00
04595            3440.00
04596            3600.00
04597            3600.00
04598            3680.00
04599            3680.00
04600            3760.00
04601            3760.00
04602            3920.00
04603            3920.00
04604            4000.00
04605            4000.00
04606            4080.00
04607            4080.00
04608            4240.00
04609            4240.00
04610            4320.00
04611            4320.00
04612            4400.00
04613            4400.00
04614            4560.00
04615            4560.00
04616            4640.00
04617            4640.00
04618            4640.00
04619            4720.00
04620            4880.00
04621            4880.00
04622            4880.00
04623            4960.00
04624            5040.00
04625            5040.00
04626            5200.00
04627            5200.00
04628            5280.00
04629            5280.00
04630            5360.00
04631            5360.00
04632            5520.00
04633            5520.00
04634            5520.00
04635            5600.00
04636            5600.00
04637            5600.00
04638            5680.00
04639            5760.00
04640            5840.00
04641            5840.00
04642            5920.00
04643            5920.00
04644            6000.00
04645            6000.00
04646            6160.00
04647            6160.00
04648            6160.00
04649            6240.00
04650            6240.00
04651            6320.00
04652            6400.00
04653            6480.00
04654            6480.00
04655            6480.00
04656            6560.00
04657            6560.00
04658            6560.00
04659            6640.00
04660            6640.00
04661            6800.00
04662            6800.00
04663            6800.00
04664            6880.00
04665            6960.00
04666            6960.00
04667            6960.00
04668            7120.00
04669            7120.00
04670            7200.00
04671            7200.00
04672            7200.00
04673            7200.00
04674            7280.00
04675            7360.00
04676            7360.00
04677            7440.00
04678            7440.00
04679            7520.00
04680            7520.00
04681            7520.00
04682            7600.00
04683            7600.00
04684            7760.00
04685            7680.00
04686            7760.00
04687            7760.00
04688            7840.00
04689            7840.00
04690            7840.00
04691            7920.00
04692            7920.00
04693            8000.00
04694            8080.00
04695            8080.00
04696            8080.00
04697            8160.00
04698            8160.00
04699            8160.00
04700            8160.00
04701            8160.00
04702            8240.00
04703            8240.00
04704            8320.00
04705            8320.00
04706            8400.00
04707            8400.00
04708            8480.00
04709            8480.00
04710            8480.00
04711            8480.00
04712            8560.00
04713            8560.00
04714            8560.00
04715            8560.00
04716            8640.00
04717            8720.00
04718            8720.00
04719            8720.00
04720            8720.00
04721            8720.00
04722            8800.00
04723            8800.00
04724            8800.00
04725            8880.00
04726            8880.00
04727            8880.00
04728            8960.00
04729            9040.00
04730            9040.00
04731            9040.00
04732            9040.00
04733            9040.00
04734            9040.00
04735            9120.00
04736            9120.00
04737            9120.00
04738            9120.00
04739            9120.00
04740            9200.00
04741            9200.00
04742            9200.00
04743            9200.00
04744            9200.00
04745            9280.00
04746            9360.00
04747            9200.00
04748            9280.00
04749            9360.00
04750            9360.00
04751            9360.00
04752            9360.00
04753            9360.00
04754            9360.00
04755            9440.00
04756            9440.00
04757            9360.00
04758            9440.00
04759            9440.00
04760            9440.00
04761            9440.00
04762            9440.00
04763            9440.00
04764            9440.00
04765            9520.00
04766            9440.00
04767            9520.00
04768            9440.00
04769            9440.00
04770            9440.00
04771            9520.00
04772            9520.00
04773            9520.00
04774            9520.00
04775            9520.00
04776            9520.00
04777            9520.00
04778            9520.00
04779            9520.00
04780            9520.00
04781            9520.00
04782            9520.00
04783            9520.00
04784            9600.00
04785            9520.00
04786            9520.00
04787            9520.00
04788            9520.00
04789            9520.00
04790            9680.00
04791            9520.00
04792            9680.00
04793            9520.00
04794            9680.00
04795            9600.00
04796            9520.00
04797            9520.00
04798            9600.00
04799            9600.00
04800            9520.00
04801            9520.00
04802            9520.00
04803            9520.00
04804            9600.00
04805            9520.00
04806            9520.00
04807            9520.00
04808            9520.00
04809            9520.00
04810            9440.00
04811            9520.00
04812            9520.00
04813            9520.00
04814            9520.00
04815            9440.00
04816            9520.00
04817            9440.00
04818            9440.00
04819            9440.00
04820            9440.00
04821            9360.00
04822            9360.00
04823            9360.00
04824            9360.00
04825            9360.00
04826            9360.00
04827            9360.00
04828            9360.00
04829            9360.00
04830            9200.00
04831            9360.00
04832            9200.00
04833            9200.00
04834            9200.00
04835            9200.00
04836            9120.00
04837            9120.00
04838            9120.00
04839            9120.00
04840            9120.00
04841            9120.00
04842            9040.00
04843            9040.00
04844            9040.00
04845            9040.00
04846            9040.00
04847            8880.00
04848            9040.00
04849            8960.00
04850            8880.00
04851            8880.00
04852            8800.00
04853            8880.00
04854            8800.00
04855            8800.00
04856            8800.00
04857            8720.00
04858            8720.00
04859            8720.00
04860            8720.00
04861            8720.00
04862            8720.00
04863            8560.00
04864            8560.00
04865            8560.00
04866            8560.00
04867            8480.00
04868            8480.00
04869            8480.00
04870            8480.00
04871            8400.00
04872            8400.00
04873            8400.00
04874            8400.00
04875            8320.00
04876            8240.00
04877            8240.00
04878            8240.00
04879            8160.00
04880            8160.00
04881            8160.00
04882            8080.00
04883            8080.00
04884            8080.00
04885            7920.00
04886            7920.00
04887            7920.00
04888            7840.00
04889            7840.00
04890            7840.00
04891            7760.00
04892            7760.00
04893            7760.00
04894            7680.00
04895            7600.00
04896            7520.00
04897            7520.00
04898            7520.00
04899            7440.00
04900            7440.00
04901            7440.00
04902            7360.00
04903            7360.00
04904            7200.00
04905            7200.00
04906            7200.00
04907            7200.00
04908            7120.00
04909            7120.00
04910            7120.00
04911            6960.00
04912            6960.00
04913            6880.00
04914            6880.00
04915            6880.00
04916            6800.00
04917            6800.00
04918            6800.00
04919            6640.00
04920            6640.00
04921            6640.00
04922            6560.00
04923            6560.00
04924            6480.00
04925            6480.00
04926            6400.00
04927            6320.00
04928            6320.00
04929            6240.00
04930            6240.00
04931            6160.00
04932            6160.00
04933            6080.00
04934            6000.00
04935            6000.00
04936            5920.00
04937            5920.00
04938            5840.00
04939            5840.00
04940            5840.00
04941            5840.00
04942            5680.00
04943            5600.00
04944            5600.00
04945            5520.00
04946            5520.00
04947            5360.00
04948            5360.00
04949            5280.00
04950            5280.00
04951            5200.00
04952            5200.00
04953            5120.00
04954            5040.00
04955            5040.00
04956            4960.00
04957            4960.00
04958            4880.00
04959            4720.00
04960            4720.00
04961            4640.00
04962            4640.00
04963            4640.00
04964            4560.00
04965            4560.00
04966            4400.00
04967            4400.00
04968            4320.00
04969            4240.00
04970            4240.00
04971            4240.00
04972            4160.00
04973            4080.00
04974            4000.00
04975            4000.00
04976            4000.00
04977            3840.00
04978            3840.00
04979            3760.00
04980            3680.00
04981            3600.00
04982            3600.00
04983            3600.00
04984            3440.00
04985            3360.00
04986            3360.00
04987            3360.00
04988            3280.00
04989            3280.00
04990            3120.00
04991            3120.00
04992            3040.00
04993            3040.00
04994            2960.00
04995            2960.00
04996            2800.00
04997            2720.00
04998            2720.00
04999            2720.00
05000            2640.00
