Unit:(mV)
                     CH1
Frequency     98.089 kHz
00001           -1440.00
00002           -1520.00
00003           -1520.00
00004           -1520.00
00005           -1520.00
00006           -1680.00
00007           -1680.00
00008           -1680.00
00009           -1680.00
00010           -1680.00
00011           -1760.00
00012           -1760.00
00013           -1760.00
00014           -1760.00
00015           -1760.00
00016           -1760.00
00017           -1760.00
00018           -1840.00
00019           -1840.00
00020           -1840.00
00021           -1840.00
00022           -2000.00
00023           -2000.00
00024           -2000.00
00025           -2000.00
00026           -2080.00
00027           -2080.00
00028           -2160.00
00029           -2160.00
00030           -2080.00
00031           -2160.00
00032           -2160.00
00033           -2160.00
00034           -2320.00
00035           -2240.00
00036           -2320.00
00037           -2320.00
00038           -2400.00
00039           -2400.00
00040           -2400.00
00041           -2400.00
00042           -2400.00
00043           -2400.00
00044           -2480.00
00045           -2480.00
00046           -2480.00
00047           -2480.00
00048           -2720.00
00049           -2640.00
00050           -2640.00
00051           -2640.00
00052           -2720.00
00053           -2720.00
00054           -2720.00
00055           -2800.00
00056           -2800.00
00057           -2800.00
00058           -2800.00
00059           -2800.00
00060           -2960.00
00061           -2960.00
00062           -2800.00
00063           -2960.00
00064           -3040.00
00065           -2960.00
00066           -2960.00
00067           -3040.00
00068           -3040.00
00069           -3040.00
00070           -3040.00
00071           -3040.00
00072           -3120.00
00073           -3120.00
00074           -3120.00
00075           -3120.00
00076           -3200.00
00077           -3280.00
00078           -3280.00
00079           -3200.00
00080           -3280.00
00081           -3280.00
00082           -3360.00
00083           -3280.00
00084           -3360.00
00085           -3360.00
00086           -3360.00
00087           -3360.00
00088           -3360.00
00089           -3440.00
00090           -3440.00
00091           -3440.00
00092           -3440.00
00093           -3440.00
00094           -3520.00
00095           -3440.00
00096           -3520.00
00097           -3520.00
00098           -3600.00
00099           -3600.00
00100           -3520.00
00101           -3680.00
00102           -3680.00
00103           -3680.00
00104           -3680.00
00105           -3680.00
00106           -3680.00
00107           -3680.00
00108           -3680.00
00109           -3760.00
00110           -3680.00
00111           -3680.00
00112           -3760.00
00113           -3760.00
00114           -3760.00
00115           -3760.00
00116           -3840.00
00117           -3920.00
00118           -3920.00
00119           -3920.00
00120           -3920.00
00121           -3920.00
00122           -3920.00
00123           -3920.00
00124           -3920.00
00125           -4000.00
00126           -4000.00
00127           -4000.00
00128           -4000.00
00129           -4080.00
00130           -4000.00
00131           -4000.00
00132           -4080.00
00133           -4080.00
00134           -4080.00
00135           -4080.00
00136           -4080.00
00137           -4080.00
00138           -4080.00
00139           -4080.00
00140           -4080.00
00141           -4080.00
00142           -4080.00
00143           -4240.00
00144           -4080.00
00145           -4240.00
00146           -4160.00
00147           -4240.00
00148           -4240.00
00149           -4240.00
00150           -4240.00
00151           -4240.00
00152           -4320.00
00153           -4240.00
00154           -4240.00
00155           -4240.00
00156           -4320.00
00157           -4320.00
00158           -4240.00
00159           -4320.00
00160           -4320.00
00161           -4320.00
00162           -4320.00
00163           -4320.00
00164           -4320.00
00165           -4320.00
00166           -4320.00
00167           -4320.00
00168           -4320.00
00169           -4320.00
00170           -4320.00
00171           -4320.00
00172           -4400.00
00173           -4400.00
00174           -4400.00
00175           -4400.00
00176           -4400.00
00177           -4400.00
00178           -4400.00
00179           -4400.00
00180           -4400.00
00181           -4400.00
00182           -4400.00
00183           -4400.00
00184           -4400.00
00185           -4480.00
00186           -4400.00
00187           -4400.00
00188           -4560.00
00189           -4400.00
00190           -4400.00
00191           -4480.00
00192           -4400.00
00193           -4400.00
00194           -4400.00
00195           -4480.00
00196           -4400.00
00197           -4400.00
00198           -4400.00
00199           -4560.00
00200           -4480.00
00201           -4400.00
00202           -4400.00
00203           -4560.00
00204           -4400.00
00205           -4400.00
00206           -4400.00
00207           -4400.00
00208           -4400.00
00209           -4400.00
00210           -4400.00
00211           -4400.00
00212           -4400.00
00213           -4560.00
00214           -4400.00
00215           -4400.00
00216           -4400.00
00217           -4400.00
00218           -4400.00
00219           -4400.00
00220           -4400.00
00221           -4400.00
00222           -4400.00
00223           -4400.00
00224           -4400.00
00225           -4400.00
00226           -4320.00
00227           -4320.00
00228           -4400.00
00229           -4320.00
00230           -4320.00
00231           -4320.00
00232           -4320.00
00233           -4400.00
00234           -4400.00
00235           -4320.00
00236           -4320.00
00237           -4320.00
00238           -4320.00
00239           -4320.00
00240           -4320.00
00241           -4320.00
00242           -4320.00
00243           -4320.00
00244           -4320.00
00245           -4320.00
00246           -4320.00
00247           -4240.00
00248           -4320.00
00249           -4320.00
00250           -4240.00
00251           -4320.00
00252           -4320.00
00253           -4240.00
00254           -4240.00
00255           -4080.00
00256           -4240.00
00257           -4240.00
00258           -4240.00
00259           -4240.00
00260           -4080.00
00261           -4080.00
00262           -4080.00
00263           -4160.00
00264           -4080.00
00265           -4080.00
00266           -4080.00
00267           -4080.00
00268           -4080.00
00269           -4080.00
00270           -4080.00
00271           -4080.00
00272           -4080.00
00273           -4080.00
00274           -4000.00
00275           -4000.00
00276           -4000.00
00277           -4000.00
00278           -3920.00
00279           -4000.00
00280           -4000.00
00281           -3920.00
00282           -3920.00
00283           -3920.00
00284           -3920.00
00285           -3840.00
00286           -3760.00
00287           -3760.00
00288           -3760.00
00289           -3760.00
00290           -3760.00
00291           -3760.00
00292           -3760.00
00293           -3760.00
00294           -3760.00
00295           -3680.00
00296           -3680.00
00297           -3680.00
00298           -3680.00
00299           -3680.00
00300           -3680.00
00301           -3680.00
00302           -3600.00
00303           -3600.00
00304           -3600.00
00305           -3600.00
00306           -3440.00
00307           -3520.00
00308           -3520.00
00309           -3600.00
00310           -3520.00
00311           -3440.00
00312           -3520.00
00313           -3440.00
00314           -3440.00
00315           -3440.00
00316           -3440.00
00317           -3440.00
00318           -3360.00
00319           -3440.00
00320           -3360.00
00321           -3360.00
00322           -3360.00
00323           -3280.00
00324           -3360.00
00325           -3280.00
00326           -3280.00
00327           -3120.00
00328           -3280.00
00329           -3120.00
00330           -3120.00
00331           -3120.00
00332           -3040.00
00333           -3120.00
00334           -3040.00
00335           -3040.00
00336           -3040.00
00337           -3040.00
00338           -2960.00
00339           -2960.00
00340           -2960.00
00341           -2880.00
00342           -2880.00
00343           -2800.00
00344           -2800.00
00345           -2800.00
00346           -2800.00
00347           -2800.00
00348           -2800.00
00349           -2800.00
00350           -2720.00
00351           -2720.00
00352           -2640.00
00353           -2640.00
00354           -2640.00
00355           -2640.00
00356           -2640.00
00357           -2480.00
00358           -2480.00
00359           -2480.00
00360           -2480.00
00361           -2400.00
00362           -2480.00
00363           -2400.00
00364           -2400.00
00365           -2400.00
00366           -2400.00
00367           -2400.00
00368           -2320.00
00369           -2320.00
00370           -2320.00
00371           -2320.00
00372           -2160.00
00373           -2160.00
00374           -2160.00
00375           -2080.00
00376           -2160.00
00377           -2080.00
00378           -2160.00
00379           -2000.00
00380           -2080.00
00381           -2080.00
00382           -2000.00
00383           -2000.00
00384           -2000.00
00385           -1920.00
00386           -1840.00
00387           -1840.00
00388           -1840.00
00389           -1840.00
00390           -1840.00
00391           -1760.00
00392           -1760.00
00393           -1760.00
00394           -1760.00
00395           -1680.00
00396           -1680.00
00397           -1680.00
00398           -1600.00
00399           -1520.00
00400           -1520.00
00401           -1520.00
00402           -1440.00
00403           -1520.00
00404           -1440.00
00405           -1440.00
00406           -1360.00
00407           -1360.00
00408           -1360.00
00409           -1200.00
00410           -1200.00
00411           -1200.00
00412           -1200.00
00413           -1200.00
00414           -1120.00
00415           -1120.00
00416           -1120.00
00417           -1120.00
00418           -1040.00
00419           -1120.00
00420           -1040.00
00421            -960.00
00422            -880.00
00423            -880.00
00424            -880.00
00425            -880.00
00426            -880.00
00427            -800.00
00428            -880.00
00429            -800.00
00430            -720.00
00431            -720.00
00432            -720.00
00433            -720.00
00434            -640.00
00435            -560.00
00436            -560.00
00437            -560.00
00438            -560.00
00439            -480.00
00440            -480.00
00441            -480.00
00442            -480.00
00443            -400.00
00444            -480.00
00445            -320.00
00446            -320.00
00447            -240.00
00448            -240.00
00449            -240.00
00450            -240.00
00451            -240.00
00452            -160.00
00453            -160.00
00454            -160.00
00455             -80.00
00456             -80.00
00457             -80.00
00458              80.00
00459              80.00
00460              80.00
00461              80.00
00462              80.00
00463             160.00
00464             160.00
00465             240.00
00466             320.00
00467             160.00
00468             240.00
00469             240.00
00470             240.00
00471             400.00
00472             480.00
00473             400.00
00474             400.00
00475             480.00
00476             560.00
00477             560.00
00478             560.00
00479             560.00
00480             560.00
00481             720.00
00482             720.00
00483             720.00
00484             720.00
00485             800.00
00486             800.00
00487             800.00
00488             800.00
00489             880.00
00490             880.00
00491             960.00
00492            1040.00
00493             960.00
00494             960.00
00495            1040.00
00496            1040.00
00497            1040.00
00498            1040.00
00499            1120.00
00500            1200.00
00501            1200.00
00502            1200.00
00503            1200.00
00504            1360.00
00505            1360.00
00506            1360.00
00507            1360.00
00508            1360.00
00509            1360.00
00510            1440.00
00511            1440.00
00512            1440.00
00513            1520.00
00514            1520.00
00515            1600.00
00516            1600.00
00517            1680.00
00518            1600.00
00519            1680.00
00520            1680.00
00521            1680.00
00522            1760.00
00523            1760.00
00524            1760.00
00525            1760.00
00526            1840.00
00527            1840.00
00528            1920.00
00529            2000.00
00530            1920.00
00531            2000.00
00532            2000.00
00533            2080.00
00534            2080.00
00535            2080.00
00536            2080.00
00537            2160.00
00538            2160.00
00539            2240.00
00540            2160.00
00541            2160.00
00542            2240.00
00543            2320.00
00544            2320.00
00545            2320.00
00546            2320.00
00547            2320.00
00548            2400.00
00549            2400.00
00550            2400.00
00551            2480.00
00552            2480.00
00553            2480.00
00554            2640.00
00555            2560.00
00556            2480.00
00557            2640.00
00558            2640.00
00559            2640.00
00560            2720.00
00561            2720.00
00562            2720.00
00563            2720.00
00564            2720.00
00565            2800.00
00566            2800.00
00567            2800.00
00568            2800.00
00569            2800.00
00570            2800.00
00571            2960.00
00572            2800.00
00573            2960.00
00574            2960.00
00575            3040.00
00576            3040.00
00577            2960.00
00578            3040.00
00579            3040.00
00580            3120.00
00581            3040.00
00582            3120.00
00583            3120.00
00584            3120.00
00585            3120.00
00586            3120.00
00587            3280.00
00588            3280.00
00589            3280.00
00590            3280.00
00591            3360.00
00592            3360.00
00593            3360.00
00594            3280.00
00595            3360.00
00596            3360.00
00597            3360.00
00598            3440.00
00599            3360.00
00600            3440.00
00601            3440.00
00602            3440.00
00603            3440.00
00604            3600.00
00605            3600.00
00606            3600.00
00607            3600.00
00608            3600.00
00609            3680.00
00610            3600.00
00611            3680.00
00612            3680.00
00613            3680.00
00614            3680.00
00615            3760.00
00616            3760.00
00617            3760.00
00618            3760.00
00619            3760.00
00620            3760.00
00621            3840.00
00622            3840.00
00623            3840.00
00624            3920.00
00625            3920.00
00626            3920.00
00627            3920.00
00628            3920.00
00629            3920.00
00630            4000.00
00631            4000.00
00632            4000.00
00633            4000.00
00634            4000.00
00635            4000.00
00636            4000.00
00637            4000.00
00638            4000.00
00639            4080.00
00640            4000.00
00641            4000.00
00642            4000.00
00643            4000.00
00644            4080.00
00645            4080.00
00646            4080.00
00647            4080.00
00648            4080.00
00649            4240.00
00650            4080.00
00651            4240.00
00652            4080.00
00653            4240.00
00654            4240.00
00655            4160.00
00656            4240.00
00657            4240.00
00658            4240.00
00659            4240.00
00660            4240.00
00661            4240.00
00662            4240.00
00663            4240.00
00664            4240.00
00665            4240.00
00666            4320.00
00667            4320.00
00668            4320.00
00669            4320.00
00670            4240.00
00671            4320.00
00672            4320.00
00673            4400.00
00674            4320.00
00675            4320.00
00676            4320.00
00677            4320.00
00678            4400.00
00679            4400.00
00680            4400.00
00681            4400.00
00682            4400.00
00683            4400.00
00684            4400.00
00685            4400.00
00686            4400.00
00687            4400.00
00688            4400.00
00689            4480.00
00690            4400.00
00691            4560.00
00692            4560.00
00693            4480.00
00694            4400.00
00695            4400.00
00696            4400.00
00697            4560.00
00698            4400.00
00699            4400.00
00700            4480.00
00701            4400.00
00702            4560.00
00703            4400.00
00704            4480.00
00705            4480.00
00706            4400.00
00707            4400.00
00708            4560.00
00709            4560.00
00710            4400.00
00711            4400.00
00712            4560.00
00713            4400.00
00714            4400.00
00715            4400.00
00716            4400.00
00717            4400.00
00718            4480.00
00719            4400.00
00720            4400.00
00721            4400.00
00722            4400.00
00723            4400.00
00724            4400.00
00725            4400.00
00726            4400.00
00727            4480.00
00728            4480.00
00729            4400.00
00730            4400.00
00731            4400.00
00732            4400.00
00733            4400.00
00734            4400.00
00735            4400.00
00736            4320.00
00737            4400.00
00738            4400.00
00739            4400.00
00740            4400.00
00741            4400.00
00742            4400.00
00743            4400.00
00744            4400.00
00745            4320.00
00746            4400.00
00747            4400.00
00748            4400.00
00749            4320.00
00750            4320.00
00751            4320.00
00752            4400.00
00753            4320.00
00754            4320.00
00755            4320.00
00756            4240.00
00757            4320.00
00758            4320.00
00759            4240.00
00760            4240.00
00761            4320.00
00762            4240.00
00763            4240.00
00764            4240.00
00765            4240.00
00766            4240.00
00767            4160.00
00768            4160.00
00769            4240.00
00770            4160.00
00771            4160.00
00772            4160.00
00773            4080.00
00774            4240.00
00775            4080.00
00776            4080.00
00777            4080.00
00778            4080.00
00779            4080.00
00780            4000.00
00781            4000.00
00782            4000.00
00783            4000.00
00784            4000.00
00785            3920.00
00786            4000.00
00787            4000.00
00788            4000.00
00789            3920.00
00790            4000.00
00791            3920.00
00792            3920.00
00793            4000.00
00794            3920.00
00795            3920.00
00796            3920.00
00797            3920.00
00798            3920.00
00799            3920.00
00800            3920.00
00801            3760.00
00802            3840.00
00803            3760.00
00804            3760.00
00805            3760.00
00806            3760.00
00807            3760.00
00808            3680.00
00809            3760.00
00810            3680.00
00811            3680.00
00812            3680.00
00813            3600.00
00814            3600.00
00815            3600.00
00816            3600.00
00817            3600.00
00818            3520.00
00819            3520.00
00820            3440.00
00821            3440.00
00822            3440.00
00823            3440.00
00824            3360.00
00825            3360.00
00826            3440.00
00827            3360.00
00828            3360.00
00829            3360.00
00830            3360.00
00831            3360.00
00832            3360.00
00833            3280.00
00834            3280.00
00835            3200.00
00836            3280.00
00837            3120.00
00838            3120.00
00839            3120.00
00840            3120.00
00841            3120.00
00842            3040.00
00843            3120.00
00844            3040.00
00845            3040.00
00846            3040.00
00847            3040.00
00848            3040.00
00849            2960.00
00850            2960.00
00851            2880.00
00852            2960.00
00853            2880.00
00854            2800.00
00855            2720.00
00856            2800.00
00857            2800.00
00858            2800.00
00859            2720.00
00860            2720.00
00861            2720.00
00862            2720.00
00863            2640.00
00864            2720.00
00865            2640.00
00866            2640.00
00867            2640.00
00868            2640.00
00869            2480.00
00870            2640.00
00871            2480.00
00872            2400.00
00873            2480.00
00874            2400.00
00875            2400.00
00876            2400.00
00877            2400.00
00878            2320.00
00879            2320.00
00880            2320.00
00881            2320.00
00882            2160.00
00883            2320.00
00884            2160.00
00885            2160.00
00886            2160.00
00887            2080.00
00888            2080.00
00889            2080.00
00890            2080.00
00891            2080.00
00892            2000.00
00893            2080.00
00894            1840.00
00895            2000.00
00896            1920.00
00897            1840.00
00898            1760.00
00899            1760.00
00900            1760.00
00901            1760.00
00902            1680.00
00903            1760.00
00904            1680.00
00905            1680.00
00906            1680.00
00907            1600.00
00908            1520.00
00909            1520.00
00910            1520.00
00911            1520.00
00912            1440.00
00913            1520.00
00914            1440.00
00915            1440.00
00916            1360.00
00917            1440.00
00918            1360.00
00919            1360.00
00920            1200.00
00921            1200.00
00922            1200.00
00923            1120.00
00924            1200.00
00925            1120.00
00926            1120.00
00927            1040.00
00928            1120.00
00929            1040.00
00930            1040.00
00931            1040.00
00932            1040.00
00933             960.00
00934             960.00
00935             880.00
00936             800.00
00937             880.00
00938             800.00
00939             800.00
00940             800.00
00941             800.00
00942             800.00
00943             720.00
00944             720.00
00945             640.00
00946             640.00
00947             560.00
00948             560.00
00949             560.00
00950             480.00
00951             480.00
00952             480.00
00953             480.00
00954             400.00
00955             400.00
00956             400.00
00957             400.00
00958             240.00
00959             240.00
00960             160.00
00961             160.00
00962             160.00
00963             160.00
00964             160.00
00965              80.00
00966              80.00
00967             -80.00
00968               0.00
00969               0.00
00970             -80.00
00971            -160.00
00972            -160.00
00973            -160.00
00974            -160.00
00975            -160.00
00976            -240.00
00977            -320.00
00978            -400.00
00979            -400.00
00980            -240.00
00981            -320.00
00982            -400.00
00983            -480.00
00984            -400.00
00985            -480.00
00986            -480.00
00987            -560.00
00988            -560.00
00989            -560.00
00990            -560.00
00991            -560.00
00992            -720.00
00993            -720.00
00994            -800.00
00995            -720.00
00996            -800.00
00997            -880.00
00998            -880.00
00999            -880.00
01000            -880.00
01001            -880.00
01002            -880.00
01003            -960.00
01004           -1040.00
01005            -960.00
01006           -1040.00
01007           -1120.00
01008           -1120.00
01009           -1120.00
01010           -1120.00
01011           -1120.00
01012           -1120.00
01013           -1200.00
01014           -1200.00
01015           -1280.00
01016           -1200.00
01017           -1360.00
01018           -1360.00
01019           -1360.00
01020           -1360.00
01021           -1440.00
01022           -1440.00
01023           -1520.00
01024           -1520.00
01025           -1520.00
01026           -1520.00
01027           -1680.00
01028           -1680.00
01029           -1680.00
01030           -1680.00
01031           -1760.00
01032           -1760.00
01033           -1760.00
01034           -1760.00
01035           -1760.00
01036           -1840.00
01037           -1840.00
01038           -1920.00
01039           -1840.00
01040           -2000.00
01041           -1920.00
01042           -2000.00
01043           -2080.00
01044           -2000.00
01045           -2080.00
01046           -2080.00
01047           -2080.00
01048           -2080.00
01049           -2160.00
01050           -2160.00
01051           -2160.00
01052           -2240.00
01053           -2320.00
01054           -2320.00
01055           -2400.00
01056           -2320.00
01057           -2320.00
01058           -2400.00
01059           -2400.00
01060           -2400.00
01061           -2400.00
01062           -2480.00
01063           -2480.00
01064           -2480.00
01065           -2480.00
01066           -2480.00
01067           -2480.00
01068           -2640.00
01069           -2640.00
01070           -2640.00
01071           -2640.00
01072           -2720.00
01073           -2720.00
01074           -2720.00
01075           -2720.00
01076           -2720.00
01077           -2800.00
01078           -2800.00
01079           -2800.00
01080           -2800.00
01081           -2880.00
01082           -2880.00
01083           -2880.00
01084           -2960.00
01085           -2960.00
01086           -2960.00
01087           -3040.00
01088           -2960.00
01089           -3040.00
01090           -3040.00
01091           -3120.00
01092           -3120.00
01093           -3120.00
01094           -3120.00
01095           -3200.00
01096           -3200.00
01097           -3280.00
01098           -3280.00
01099           -3280.00
01100           -3280.00
01101           -3360.00
01102           -3280.00
01103           -3280.00
01104           -3360.00
01105           -3440.00
01106           -3360.00
01107           -3440.00
01108           -3440.00
01109           -3440.00
01110           -3440.00
01111           -3440.00
01112           -3440.00
01113           -3520.00
01114           -3440.00
01115           -3520.00
01116           -3520.00
01117           -3600.00
01118           -3600.00
01119           -3600.00
01120           -3600.00
01121           -3600.00
01122           -3600.00
01123           -3680.00
01124           -3680.00
01125           -3680.00
01126           -3680.00
01127           -3680.00
01128           -3760.00
01129           -3760.00
01130           -3680.00
01131           -3760.00
01132           -3760.00
01133           -3760.00
01134           -3760.00
01135           -3760.00
01136           -3840.00
01137           -3840.00
01138           -3920.00
01139           -3840.00
01140           -3920.00
01141           -3920.00
01142           -3920.00
01143           -3920.00
01144           -3920.00
01145           -4000.00
01146           -3920.00
01147           -4000.00
01148           -4000.00
01149           -4000.00
01150           -4000.00
01151           -4080.00
01152           -4080.00
01153           -4080.00
01154           -4080.00
01155           -4080.00
01156           -4080.00
01157           -4080.00
01158           -4080.00
01159           -4160.00
01160           -4080.00
01161           -4080.00
01162           -4240.00
01163           -4080.00
01164           -4240.00
01165           -4240.00
01166           -4240.00
01167           -4240.00
01168           -4240.00
01169           -4240.00
01170           -4320.00
01171           -4240.00
01172           -4320.00
01173           -4320.00
01174           -4320.00
01175           -4320.00
01176           -4240.00
01177           -4240.00
01178           -4320.00
01179           -4320.00
01180           -4320.00
01181           -4320.00
01182           -4320.00
01183           -4320.00
01184           -4320.00
01185           -4320.00
01186           -4320.00
01187           -4320.00
01188           -4320.00
01189           -4320.00
01190           -4400.00
01191           -4320.00
01192           -4320.00
01193           -4400.00
01194           -4400.00
01195           -4320.00
01196           -4400.00
01197           -4320.00
01198           -4400.00
01199           -4400.00
01200           -4400.00
01201           -4400.00
01202           -4400.00
01203           -4400.00
01204           -4400.00
01205           -4400.00
01206           -4400.00
01207           -4400.00
01208           -4400.00
01209           -4400.00
01210           -4400.00
01211           -4400.00
01212           -4400.00
01213           -4400.00
01214           -4400.00
01215           -4400.00
01216           -4320.00
01217           -4400.00
01218           -4400.00
01219           -4400.00
01220           -4400.00
01221           -4480.00
01222           -4400.00
01223           -4400.00
01224           -4480.00
01225           -4400.00
01226           -4480.00
01227           -4400.00
01228           -4400.00
01229           -4560.00
01230           -4400.00
01231           -4400.00
01232           -4400.00
01233           -4400.00
01234           -4400.00
01235           -4400.00
01236           -4400.00
01237           -4400.00
01238           -4400.00
01239           -4400.00
01240           -4400.00
01241           -4400.00
01242           -4400.00
01243           -4400.00
01244           -4400.00
01245           -4400.00
01246           -4400.00
01247           -4320.00
01248           -4400.00
01249           -4320.00
01250           -4400.00
01251           -4320.00
01252           -4320.00
01253           -4320.00
01254           -4400.00
01255           -4400.00
01256           -4320.00
01257           -4320.00
01258           -4320.00
01259           -4320.00
01260           -4320.00
01261           -4320.00
01262           -4320.00
01263           -4240.00
01264           -4240.00
01265           -4320.00
01266           -4160.00
01267           -4240.00
01268           -4240.00
01269           -4240.00
01270           -4240.00
01271           -4240.00
01272           -4240.00
01273           -4240.00
01274           -4240.00
01275           -4240.00
01276           -4240.00
01277           -4240.00
01278           -4160.00
01279           -4240.00
01280           -4160.00
01281           -4080.00
01282           -4160.00
01283           -4080.00
01284           -4080.00
01285           -4080.00
01286           -4080.00
01287           -4080.00
01288           -4080.00
01289           -4080.00
01290           -4080.00
01291           -4080.00
01292           -4080.00
01293           -4080.00
01294           -4000.00
01295           -4000.00
01296           -4000.00
01297           -4080.00
01298           -3920.00
01299           -4000.00
01300           -3920.00
01301           -4000.00
01302           -3920.00
01303           -3920.00
01304           -3920.00
01305           -3840.00
01306           -3920.00
01307           -3840.00
01308           -3920.00
01309           -3920.00
01310           -3760.00
01311           -3760.00
01312           -3760.00
01313           -3760.00
01314           -3760.00
01315           -3760.00
01316           -3680.00
01317           -3680.00
01318           -3680.00
01319           -3680.00
01320           -3680.00
01321           -3600.00
01322           -3600.00
01323           -3600.00
01324           -3600.00
01325           -3600.00
01326           -3520.00
01327           -3440.00
01328           -3440.00
01329           -3440.00
01330           -3440.00
01331           -3440.00
01332           -3440.00
01333           -3440.00
01334           -3360.00
01335           -3440.00
01336           -3360.00
01337           -3440.00
01338           -3360.00
01339           -3360.00
01340           -3280.00
01341           -3280.00
01342           -3280.00
01343           -3280.00
01344           -3280.00
01345           -3280.00
01346           -3280.00
01347           -3120.00
01348           -3120.00
01349           -3120.00
01350           -3040.00
01351           -3120.00
01352           -3120.00
01353           -3040.00
01354           -3040.00
01355           -3040.00
01356           -3040.00
01357           -3040.00
01358           -3040.00
01359           -2960.00
01360           -2960.00
01361           -2880.00
01362           -2960.00
01363           -2880.00
01364           -2800.00
01365           -2800.00
01366           -2800.00
01367           -2800.00
01368           -2800.00
01369           -2800.00
01370           -2720.00
01371           -2720.00
01372           -2720.00
01373           -2640.00
01374           -2720.00
01375           -2720.00
01376           -2640.00
01377           -2640.00
01378           -2480.00
01379           -2480.00
01380           -2480.00
01381           -2480.00
01382           -2400.00
01383           -2400.00
01384           -2400.00
01385           -2400.00
01386           -2400.00
01387           -2400.00
01388           -2400.00
01389           -2320.00
01390           -2160.00
01391           -2160.00
01392           -2160.00
01393           -2160.00
01394           -2160.00
01395           -2160.00
01396           -2080.00
01397           -2080.00
01398           -2080.00
01399           -2080.00
01400           -2000.00
01401           -2000.00
01402           -1840.00
01403           -2000.00
01404           -1920.00
01405           -1840.00
01406           -1920.00
01407           -1840.00
01408           -1760.00
01409           -1760.00
01410           -1760.00
01411           -1760.00
01412           -1680.00
01413           -1680.00
01414           -1680.00
01415           -1680.00
01416           -1520.00
01417           -1600.00
01418           -1520.00
01419           -1520.00
01420           -1520.00
01421           -1520.00
01422           -1440.00
01423           -1440.00
01424           -1440.00
01425           -1440.00
01426           -1440.00
01427           -1360.00
01428           -1360.00
01429           -1200.00
01430           -1360.00
01431           -1200.00
01432           -1280.00
01433           -1200.00
01434           -1200.00
01435           -1120.00
01436           -1200.00
01437           -1120.00
01438           -1040.00
01439           -1040.00
01440           -1040.00
01441            -960.00
01442            -960.00
01443            -960.00
01444            -880.00
01445            -880.00
01446            -880.00
01447            -800.00
01448            -800.00
01449            -800.00
01450            -800.00
01451            -720.00
01452            -720.00
01453            -720.00
01454            -560.00
01455            -560.00
01456            -480.00
01457            -560.00
01458            -480.00
01459            -480.00
01460            -480.00
01461            -400.00
01462            -400.00
01463            -400.00
01464            -240.00
01465            -240.00
01466            -240.00
01467            -240.00
01468            -240.00
01469            -240.00
01470            -240.00
01471            -240.00
01472            -160.00
01473             -80.00
01474            -160.00
01475             -80.00
01476               0.00
01477              80.00
01478              80.00
01479              80.00
01480             160.00
01481              80.00
01482              80.00
01483             160.00
01484             160.00
01485             240.00
01486             240.00
01487             240.00
01488             240.00
01489             160.00
01490             400.00
01491             480.00
01492             400.00
01493             400.00
01494             400.00
01495             480.00
01496             560.00
01497             560.00
01498             480.00
01499             480.00
01500             720.00
01501             720.00
01502             720.00
01503             640.00
01504             720.00
01505             800.00
01506             800.00
01507             800.00
01508             800.00
01509             800.00
01510             880.00
01511            1040.00
01512            1040.00
01513             960.00
01514            1040.00
01515            1120.00
01516            1040.00
01517            1040.00
01518            1040.00
01519            1120.00
01520            1200.00
01521            1200.00
01522            1200.00
01523            1200.00
01524            1360.00
01525            1280.00
01526            1440.00
01527            1360.00
01528            1440.00
01529            1440.00
01530            1440.00
01531            1440.00
01532            1440.00
01533            1520.00
01534            1520.00
01535            1600.00
01536            1680.00
01537            1680.00
01538            1680.00
01539            1680.00
01540            1760.00
01541            1680.00
01542            1760.00
01543            1760.00
01544            1760.00
01545            1840.00
01546            1840.00
01547            2000.00
01548            1840.00
01549            1840.00
01550            2000.00
01551            2000.00
01552            2000.00
01553            2000.00
01554            2000.00
01555            2080.00
01556            2080.00
01557            2080.00
01558            2160.00
01559            2160.00
01560            2240.00
01561            2160.00
01562            2240.00
01563            2320.00
01564            2320.00
01565            2320.00
01566            2320.00
01567            2400.00
01568            2320.00
01569            2400.00
01570            2400.00
01571            2480.00
01572            2400.00
01573            2480.00
01574            2480.00
01575            2480.00
01576            2640.00
01577            2480.00
01578            2640.00
01579            2640.00
01580            2720.00
01581            2720.00
01582            2720.00
01583            2720.00
01584            2720.00
01585            2800.00
01586            2720.00
01587            2800.00
01588            2880.00
01589            2960.00
01590            2960.00
01591            2960.00
01592            2960.00
01593            2960.00
01594            3040.00
01595            3040.00
01596            3040.00
01597            3120.00
01598            3040.00
01599            3120.00
01600            3120.00
01601            3120.00
01602            3120.00
01603            3120.00
01604            3280.00
01605            3200.00
01606            3280.00
01607            3280.00
01608            3360.00
01609            3360.00
01610            3280.00
01611            3360.00
01612            3280.00
01613            3360.00
01614            3360.00
01615            3360.00
01616            3360.00
01617            3440.00
01618            3360.00
01619            3440.00
01620            3440.00
01621            3440.00
01622            3440.00
01623            3600.00
01624            3520.00
01625            3600.00
01626            3520.00
01627            3600.00
01628            3600.00
01629            3600.00
01630            3600.00
01631            3600.00
01632            3680.00
01633            3680.00
01634            3680.00
01635            3680.00
01636            3680.00
01637            3680.00
01638            3680.00
01639            3760.00
01640            3760.00
01641            3840.00
01642            3760.00
01643            3920.00
01644            3760.00
01645            3920.00
01646            3840.00
01647            4000.00
01648            3920.00
01649            3920.00
01650            3920.00
01651            4000.00
01652            4000.00
01653            4000.00
01654            4000.00
01655            4000.00
01656            4080.00
01657            4000.00
01658            4080.00
01659            4000.00
01660            4080.00
01661            4080.00
01662            4080.00
01663            4080.00
01664            4080.00
01665            4080.00
01666            4160.00
01667            4080.00
01668            4240.00
01669            4240.00
01670            4080.00
01671            4240.00
01672            4160.00
01673            4240.00
01674            4240.00
01675            4240.00
01676            4240.00
01677            4240.00
01678            4320.00
01679            4240.00
01680            4240.00
01681            4240.00
01682            4240.00
01683            4240.00
01684            4240.00
01685            4320.00
01686            4320.00
01687            4320.00
01688            4240.00
01689            4320.00
01690            4320.00
01691            4320.00
01692            4320.00
01693            4320.00
01694            4320.00
01695            4320.00
01696            4320.00
01697            4320.00
01698            4400.00
01699            4320.00
01700            4400.00
01701            4320.00
01702            4320.00
01703            4320.00
01704            4400.00
01705            4400.00
01706            4400.00
01707            4400.00
01708            4400.00
01709            4400.00
01710            4400.00
01711            4400.00
01712            4400.00
01713            4400.00
01714            4400.00
01715            4400.00
01716            4480.00
01717            4400.00
01718            4400.00
01719            4480.00
01720            4480.00
01721            4400.00
01722            4560.00
01723            4400.00
01724            4400.00
01725            4400.00
01726            4400.00
01727            4560.00
01728            4560.00
01729            4480.00
01730            4480.00
01731            4480.00
01732            4400.00
01733            4560.00
01734            4480.00
01735            4560.00
01736            4480.00
01737            4560.00
01738            4400.00
01739            4400.00
01740            4400.00
01741            4400.00
01742            4400.00
01743            4560.00
01744            4400.00
01745            4400.00
01746            4400.00
01747            4400.00
01748            4480.00
01749            4400.00
01750            4400.00
01751            4400.00
01752            4400.00
01753            4400.00
01754            4400.00
01755            4320.00
01756            4400.00
01757            4400.00
01758            4400.00
01759            4400.00
01760            4320.00
01761            4400.00
01762            4320.00
01763            4400.00
01764            4320.00
01765            4320.00
01766            4400.00
01767            4320.00
01768            4320.00
01769            4320.00
01770            4320.00
01771            4400.00
01772            4320.00
01773            4320.00
01774            4240.00
01775            4320.00
01776            4320.00
01777            4240.00
01778            4320.00
01779            4240.00
01780            4320.00
01781            4240.00
01782            4320.00
01783            4320.00
01784            4240.00
01785            4240.00
01786            4240.00
01787            4240.00
01788            4240.00
01789            4240.00
01790            4240.00
01791            4080.00
01792            4240.00
01793            4240.00
01794            4080.00
01795            4160.00
01796            4160.00
01797            4080.00
01798            4160.00
01799            4080.00
01800            4080.00
01801            4000.00
01802            4080.00
01803            4080.00
01804            4080.00
01805            4000.00
01806            4000.00
01807            4000.00
01808            4000.00
01809            4000.00
01810            3920.00
01811            3920.00
01812            3920.00
01813            3920.00
01814            3920.00
01815            3920.00
01816            3920.00
01817            3840.00
01818            3840.00
01819            3920.00
01820            3920.00
01821            3840.00
01822            3760.00
01823            3760.00
01824            3760.00
01825            3760.00
01826            3760.00
01827            3680.00
01828            3680.00
01829            3680.00
01830            3680.00
01831            3600.00
01832            3600.00
01833            3600.00
01834            3600.00
01835            3600.00
01836            3600.00
01837            3520.00
01838            3600.00
01839            3440.00
01840            3440.00
01841            3600.00
01842            3440.00
01843            3440.00
01844            3360.00
01845            3440.00
01846            3360.00
01847            3360.00
01848            3360.00
01849            3360.00
01850            3360.00
01851            3280.00
01852            3360.00
01853            3280.00
01854            3280.00
01855            3280.00
01856            3280.00
01857            3280.00
01858            3280.00
01859            3200.00
01860            3120.00
01861            3120.00
01862            3120.00
01863            3040.00
01864            3120.00
01865            3040.00
01866            3040.00
01867            3040.00
01868            2960.00
01869            2960.00
01870            2960.00
01871            3040.00
01872            2960.00
01873            2800.00
01874            2800.00
01875            2800.00
01876            2720.00
01877            2800.00
01878            2720.00
01879            2720.00
01880            2720.00
01881            2720.00
01882            2720.00
01883            2640.00
01884            2640.00
01885            2720.00
01886            2640.00
01887            2480.00
01888            2560.00
01889            2480.00
01890            2640.00
01891            2400.00
01892            2480.00
01893            2400.00
01894            2400.00
01895            2320.00
01896            2320.00
01897            2320.00
01898            2320.00
01899            2320.00
01900            2320.00
01901            2160.00
01902            2240.00
01903            2160.00
01904            2160.00
01905            2160.00
01906            2160.00
01907            2080.00
01908            2080.00
01909            2080.00
01910            2080.00
01911            2080.00
01912            2000.00
01913            2000.00
01914            2000.00
01915            2000.00
01916            1840.00
01917            1840.00
01918            1760.00
01919            1840.00
01920            1760.00
01921            1760.00
01922            1760.00
01923            1760.00
01924            1680.00
01925            1680.00
01926            1680.00
01927            1680.00
01928            1520.00
01929            1520.00
01930            1520.00
01931            1440.00
01932            1440.00
01933            1440.00
01934            1440.00
01935            1440.00
01936            1360.00
01937            1440.00
01938            1280.00
01939            1360.00
01940            1200.00
01941            1200.00
01942            1200.00
01943            1120.00
01944            1200.00
01945            1120.00
01946            1120.00
01947            1040.00
01948            1040.00
01949            1040.00
01950            1040.00
01951             960.00
01952             880.00
01953             960.00
01954             880.00
01955             800.00
01956             880.00
01957             880.00
01958             800.00
01959             720.00
01960             720.00
01961             720.00
01962             720.00
01963             720.00
01964             560.00
01965             560.00
01966             560.00
01967             480.00
01968             480.00
01969             480.00
01970             480.00
01971             480.00
01972             480.00
01973             400.00
01974             400.00
01975             400.00
01976             320.00
01977             240.00
01978             240.00
01979             160.00
01980             160.00
01981             160.00
01982             160.00
01983             160.00
01984              80.00
01985              80.00
01986              80.00
01987              80.00
01988              80.00
01989             -80.00
01990             -80.00
01991             -80.00
01992            -160.00
01993            -160.00
01994            -160.00
01995            -160.00
01996            -240.00
01997            -240.00
01998            -240.00
01999            -240.00
02000            -240.00
02001            -240.00
02002            -400.00
02003            -480.00
02004            -480.00
02005            -480.00
02006            -480.00
02007            -480.00
02008            -560.00
02009            -560.00
02010            -560.00
02011            -560.00
02012            -720.00
02013            -800.00
02014            -800.00
02015            -720.00
02016            -800.00
02017            -800.00
02018            -880.00
02019            -880.00
02020            -880.00
02021            -880.00
02022            -960.00
02023           -1040.00
02024           -1040.00
02025           -1040.00
02026           -1040.00
02027           -1040.00
02028           -1200.00
02029           -1120.00
02030           -1200.00
02031           -1120.00
02032           -1200.00
02033           -1200.00
02034           -1200.00
02035           -1360.00
02036           -1360.00
02037           -1440.00
02038           -1440.00
02039           -1440.00
02040           -1440.00
02041           -1440.00
02042           -1520.00
02043           -1520.00
02044           -1520.00
02045           -1520.00
02046           -1680.00
02047           -1680.00
02048           -1680.00
02049           -1680.00
02050           -1680.00
02051           -1760.00
02052           -1760.00
02053           -1760.00
02054           -1760.00
02055           -1840.00
02056           -1760.00
02057           -1840.00
02058           -1840.00
02059           -1840.00
02060           -2000.00
02061           -2000.00
02062           -2000.00
02063           -2000.00
02064           -2080.00
02065           -2080.00
02066           -2080.00
02067           -2080.00
02068           -2080.00
02069           -2160.00
02070           -2160.00
02071           -2160.00
02072           -2240.00
02073           -2320.00
02074           -2320.00
02075           -2320.00
02076           -2400.00
02077           -2400.00
02078           -2400.00
02079           -2400.00
02080           -2400.00
02081           -2480.00
02082           -2480.00
02083           -2480.00
02084           -2480.00
02085           -2640.00
02086           -2480.00
02087           -2640.00
02088           -2640.00
02089           -2720.00
02090           -2640.00
02091           -2800.00
02092           -2720.00
02093           -2800.00
02094           -2720.00
02095           -2800.00
02096           -2800.00
02097           -2800.00
02098           -2800.00
02099           -2800.00
02100           -2880.00
02101           -2800.00
02102           -2880.00
02103           -2960.00
02104           -2960.00
02105           -3040.00
02106           -3040.00
02107           -3040.00
02108           -3040.00
02109           -3040.00
02110           -3040.00
02111           -3120.00
02112           -3040.00
02113           -3040.00
02114           -3120.00
02115           -3200.00
02116           -3120.00
02117           -3200.00
02118           -3280.00
02119           -3200.00
02120           -3280.00
02121           -3280.00
02122           -3280.00
02123           -3360.00
02124           -3360.00
02125           -3360.00
02126           -3360.00
02127           -3360.00
02128           -3360.00
02129           -3440.00
02130           -3440.00
02131           -3440.00
02132           -3440.00
02133           -3440.00
02134           -3440.00
02135           -3600.00
02136           -3600.00
02137           -3600.00
02138           -3680.00
02139           -3600.00
02140           -3680.00
02141           -3600.00
02142           -3680.00
02143           -3680.00
02144           -3680.00
02145           -3680.00
02146           -3760.00
02147           -3680.00
02148           -3760.00
02149           -3760.00
02150           -3760.00
02151           -3760.00
02152           -3760.00
02153           -3760.00
02154           -3760.00
02155           -3840.00
02156           -3920.00
02157           -3840.00
02158           -3920.00
02159           -3920.00
02160           -3920.00
02161           -4000.00
02162           -3920.00
02163           -3920.00
02164           -4000.00
02165           -4000.00
02166           -4000.00
02167           -4000.00
02168           -4000.00
02169           -4080.00
02170           -4000.00
02171           -4000.00
02172           -4080.00
02173           -4080.00
02174           -4080.00
02175           -4080.00
02176           -4080.00
02177           -4080.00
02178           -4080.00
02179           -4080.00
02180           -4080.00
02181           -4080.00
02182           -4080.00
02183           -4160.00
02184           -4160.00
02185           -4160.00
02186           -4240.00
02187           -4240.00
02188           -4240.00
02189           -4240.00
02190           -4240.00
02191           -4240.00
02192           -4240.00
02193           -4240.00
02194           -4240.00
02195           -4240.00
02196           -4320.00
02197           -4320.00
02198           -4240.00
02199           -4320.00
02200           -4320.00
02201           -4320.00
02202           -4320.00
02203           -4320.00
02204           -4320.00
02205           -4320.00
02206           -4320.00
02207           -4400.00
02208           -4400.00
02209           -4400.00
02210           -4320.00
02211           -4400.00
02212           -4320.00
02213           -4400.00
02214           -4320.00
02215           -4400.00
02216           -4400.00
02217           -4400.00
02218           -4400.00
02219           -4400.00
02220           -4400.00
02221           -4400.00
02222           -4560.00
02223           -4400.00
02224           -4400.00
02225           -4400.00
02226           -4400.00
02227           -4400.00
02228           -4400.00
02229           -4400.00
02230           -4400.00
02231           -4400.00
02232           -4400.00
02233           -4480.00
02234           -4400.00
02235           -4400.00
02236           -4400.00
02237           -4400.00
02238           -4480.00
02239           -4400.00
02240           -4400.00
02241           -4400.00
02242           -4480.00
02243           -4560.00
02244           -4400.00
02245           -4400.00
02246           -4480.00
02247           -4400.00
02248           -4400.00
02249           -4400.00
02250           -4400.00
02251           -4400.00
02252           -4400.00
02253           -4400.00
02254           -4400.00
02255           -4400.00
02256           -4400.00
02257           -4400.00
02258           -4320.00
02259           -4400.00
02260           -4400.00
02261           -4400.00
02262           -4320.00
02263           -4400.00
02264           -4400.00
02265           -4400.00
02266           -4400.00
02267           -4400.00
02268           -4400.00
02269           -4400.00
02270           -4320.00
02271           -4320.00
02272           -4320.00
02273           -4320.00
02274           -4320.00
02275           -4400.00
02276           -4320.00
02277           -4400.00
02278           -4320.00
02279           -4320.00
02280           -4320.00
02281           -4320.00
02282           -4320.00
02283           -4320.00
02284           -4320.00
02285           -4320.00
02286           -4240.00
02287           -4320.00
02288           -4240.00
02289           -4320.00
02290           -4320.00
02291           -4240.00
02292           -4240.00
02293           -4240.00
02294           -4240.00
02295           -4240.00
02296           -4240.00
02297           -4240.00
02298           -4160.00
02299           -4240.00
02300           -4080.00
02301           -4080.00
02302           -4080.00
02303           -4080.00
02304           -4080.00
02305           -4080.00
02306           -4080.00
02307           -4080.00
02308           -4080.00
02309           -4080.00
02310           -4000.00
02311           -4000.00
02312           -4080.00
02313           -4000.00
02314           -4000.00
02315           -4000.00
02316           -4000.00
02317           -3920.00
02318           -3920.00
02319           -3920.00
02320           -3920.00
02321           -3840.00
02322           -3920.00
02323           -3840.00
02324           -3760.00
02325           -3840.00
02326           -3760.00
02327           -3760.00
02328           -3840.00
02329           -3760.00
02330           -3760.00
02331           -3760.00
02332           -3760.00
02333           -3760.00
02334           -3760.00
02335           -3680.00
02336           -3760.00
02337           -3680.00
02338           -3680.00
02339           -3680.00
02340           -3680.00
02341           -3680.00
02342           -3680.00
02343           -3600.00
02344           -3600.00
02345           -3600.00
02346           -3600.00
02347           -3600.00
02348           -3440.00
02349           -3520.00
02350           -3520.00
02351           -3440.00
02352           -3440.00
02353           -3440.00
02354           -3440.00
02355           -3440.00
02356           -3360.00
02357           -3360.00
02358           -3360.00
02359           -3360.00
02360           -3280.00
02361           -3360.00
02362           -3280.00
02363           -3280.00
02364           -3280.00
02365           -3280.00
02366           -3120.00
02367           -3120.00
02368           -3120.00
02369           -3120.00
02370           -3040.00
02371           -3040.00
02372           -3040.00
02373           -3040.00
02374           -3040.00
02375           -3040.00
02376           -3040.00
02377           -2960.00
02378           -2960.00
02379           -2880.00
02380           -2800.00
02381           -2800.00
02382           -2800.00
02383           -2800.00
02384           -2800.00
02385           -2800.00
02386           -2800.00
02387           -2800.00
02388           -2720.00
02389           -2720.00
02390           -2720.00
02391           -2720.00
02392           -2720.00
02393           -2640.00
02394           -2720.00
02395           -2560.00
02396           -2640.00
02397           -2480.00
02398           -2480.00
02399           -2480.00
02400           -2480.00
02401           -2480.00
02402           -2400.00
02403           -2400.00
02404           -2480.00
02405           -2400.00
02406           -2400.00
02407           -2320.00
02408           -2320.00
02409           -2320.00
02410           -2320.00
02411           -2240.00
02412           -2160.00
02413           -2240.00
02414           -2160.00
02415           -2160.00
02416           -2160.00
02417           -2080.00
02418           -2080.00
02419           -2080.00
02420           -2000.00
02421           -2000.00
02422           -2000.00
02423           -1920.00
02424           -1840.00
02425           -1840.00
02426           -1840.00
02427           -1840.00
02428           -1840.00
02429           -1760.00
02430           -1760.00
02431           -1760.00
02432           -1760.00
02433           -1680.00
02434           -1680.00
02435           -1680.00
02436           -1520.00
02437           -1600.00
02438           -1520.00
02439           -1520.00
02440           -1440.00
02441           -1520.00
02442           -1440.00
02443           -1440.00
02444           -1360.00
02445           -1360.00
02446           -1360.00
02447           -1360.00
02448           -1200.00
02449           -1280.00
02450           -1200.00
02451           -1200.00
02452           -1120.00
02453           -1120.00
02454           -1120.00
02455           -1120.00
02456           -1120.00
02457           -1120.00
02458            -960.00
02459           -1040.00
02460           -1040.00
02461            -880.00
02462            -960.00
02463            -880.00
02464            -880.00
02465            -880.00
02466            -800.00
02467            -880.00
02468            -800.00
02469            -800.00
02470            -720.00
02471            -800.00
02472            -720.00
02473            -720.00
02474            -560.00
02475            -560.00
02476            -560.00
02477            -560.00
02478            -560.00
02479            -480.00
02480            -480.00
02481            -480.00
02482            -480.00
02483            -400.00
02484            -400.00
02485            -320.00
02486            -240.00
02487            -240.00
02488            -240.00
02489            -240.00
02490            -160.00
02491            -160.00
02492             -80.00
02493             -80.00
02494             -80.00
02495             -80.00
02496             -80.00
02497             -80.00
02498              80.00
02499              80.00
02500             160.00
02501             160.00
02502             160.00
02503             160.00
02504             240.00
02505             320.00
02506             240.00
02507             240.00
02508             240.00
02509             240.00
02510             400.00
02511             480.00
02512             480.00
02513             480.00
02514             400.00
02515             560.00
02516             560.00
02517             560.00
02518             560.00
02519             560.00
02520             800.00
02521             720.00
02522             720.00
02523             720.00
02524             800.00
02525             800.00
02526             800.00
02527             800.00
02528             800.00
02529             880.00
02530             880.00
02531             960.00
02532             880.00
02533            1040.00
02534            1040.00
02535            1040.00
02536            1120.00
02537            1040.00
02538            1120.00
02539            1120.00
02540            1200.00
02541            1200.00
02542            1120.00
02543            1200.00
02544            1360.00
02545            1360.00
02546            1360.00
02547            1360.00
02548            1360.00
02549            1440.00
02550            1440.00
02551            1440.00
02552            1440.00
02553            1440.00
02554            1520.00
02555            1680.00
02556            1680.00
02557            1680.00
02558            1680.00
02559            1680.00
02560            1680.00
02561            1680.00
02562            1680.00
02563            1760.00
02564            1760.00
02565            1840.00
02566            1840.00
02567            1840.00
02568            2000.00
02569            2080.00
02570            2000.00
02571            2080.00
02572            2080.00
02573            2080.00
02574            2080.00
02575            2080.00
02576            2080.00
02577            2160.00
02578            2160.00
02579            2160.00
02580            2320.00
02581            2320.00
02582            2320.00
02583            2320.00
02584            2320.00
02585            2400.00
02586            2400.00
02587            2400.00
02588            2400.00
02589            2400.00
02590            2480.00
02591            2400.00
02592            2480.00
02593            2480.00
02594            2480.00
02595            2480.00
02596            2640.00
02597            2640.00
02598            2640.00
02599            2640.00
02600            2640.00
02601            2640.00
02602            2720.00
02603            2720.00
02604            2720.00
02605            2720.00
02606            2720.00
02607            2800.00
02608            2800.00
02609            2880.00
02610            2960.00
02611            2880.00
02612            2960.00
02613            2960.00
02614            2960.00
02615            3040.00
02616            3040.00
02617            3040.00
02618            3040.00
02619            3040.00
02620            3120.00
02621            3120.00
02622            3120.00
02623            3120.00
02624            3200.00
02625            3280.00
02626            3280.00
02627            3280.00
02628            3360.00
02629            3280.00
02630            3360.00
02631            3280.00
02632            3360.00
02633            3360.00
02634            3360.00
02635            3440.00
02636            3440.00
02637            3440.00
02638            3440.00
02639            3440.00
02640            3440.00
02641            3440.00
02642            3600.00
02643            3600.00
02644            3600.00
02645            3600.00
02646            3600.00
02647            3600.00
02648            3600.00
02649            3600.00
02650            3680.00
02651            3600.00
02652            3680.00
02653            3680.00
02654            3680.00
02655            3680.00
02656            3680.00
02657            3760.00
02658            3760.00
02659            3760.00
02660            3760.00
02661            3760.00
02662            3840.00
02663            3760.00
02664            3840.00
02665            3920.00
02666            3920.00
02667            3920.00
02668            3920.00
02669            3920.00
02670            3920.00
02671            3920.00
02672            4000.00
02673            4000.00
02674            4000.00
02675            4000.00
02676            4000.00
02677            4000.00
02678            4000.00
02679            4000.00
02680            4000.00
02681            4080.00
02682            4080.00
02683            4080.00
02684            4080.00
02685            4080.00
02686            4160.00
02687            4160.00
02688            4240.00
02689            4240.00
02690            4240.00
02691            4160.00
02692            4240.00
02693            4240.00
02694            4240.00
02695            4240.00
02696            4240.00
02697            4240.00
02698            4240.00
02699            4240.00
02700            4320.00
02701            4240.00
02702            4320.00
02703            4320.00
02704            4320.00
02705            4320.00
02706            4320.00
02707            4320.00
02708            4320.00
02709            4320.00
02710            4320.00
02711            4320.00
02712            4400.00
02713            4320.00
02714            4400.00
02715            4320.00
02716            4320.00
02717            4400.00
02718            4400.00
02719            4480.00
02720            4400.00
02721            4400.00
02722            4320.00
02723            4400.00
02724            4400.00
02725            4320.00
02726            4400.00
02727            4400.00
02728            4400.00
02729            4400.00
02730            4400.00
02731            4400.00
02732            4400.00
02733            4400.00
02734            4400.00
02735            4400.00
02736            4560.00
02737            4400.00
02738            4400.00
02739            4400.00
02740            4400.00
02741            4400.00
02742            4400.00
02743            4560.00
02744            4400.00
02745            4560.00
02746            4480.00
02747            4560.00
02748            4400.00
02749            4400.00
02750            4400.00
02751            4560.00
02752            4480.00
02753            4400.00
02754            4560.00
02755            4400.00
02756            4480.00
02757            4560.00
02758            4400.00
02759            4400.00
02760            4560.00
02761            4560.00
02762            4480.00
02763            4560.00
02764            4480.00
02765            4400.00
02766            4400.00
02767            4480.00
02768            4480.00
02769            4400.00
02770            4400.00
02771            4400.00
02772            4400.00
02773            4400.00
02774            4400.00
02775            4480.00
02776            4400.00
02777            4400.00
02778            4400.00
02779            4320.00
02780            4400.00
02781            4400.00
02782            4400.00
02783            4400.00
02784            4320.00
02785            4320.00
02786            4400.00
02787            4320.00
02788            4320.00
02789            4320.00
02790            4320.00
02791            4320.00
02792            4320.00
02793            4320.00
02794            4320.00
02795            4320.00
02796            4320.00
02797            4320.00
02798            4320.00
02799            4320.00
02800            4240.00
02801            4240.00
02802            4240.00
02803            4240.00
02804            4240.00
02805            4240.00
02806            4240.00
02807            4080.00
02808            4160.00
02809            4240.00
02810            4240.00
02811            4160.00
02812            4240.00
02813            4160.00
02814            4240.00
02815            4160.00
02816            4080.00
02817            4080.00
02818            4080.00
02819            4000.00
02820            4080.00
02821            4000.00
02822            4080.00
02823            4000.00
02824            4000.00
02825            4000.00
02826            4000.00
02827            4000.00
02828            4000.00
02829            4000.00
02830            4000.00
02831            4000.00
02832            3920.00
02833            3920.00
02834            4000.00
02835            3920.00
02836            3920.00
02837            3920.00
02838            3920.00
02839            3920.00
02840            3760.00
02841            3840.00
02842            3760.00
02843            3840.00
02844            3680.00
02845            3760.00
02846            3760.00
02847            3760.00
02848            3680.00
02849            3680.00
02850            3680.00
02851            3600.00
02852            3680.00
02853            3680.00
02854            3600.00
02855            3600.00
02856            3600.00
02857            3440.00
02858            3520.00
02859            3520.00
02860            3440.00
02861            3440.00
02862            3440.00
02863            3360.00
02864            3360.00
02865            3360.00
02866            3360.00
02867            3360.00
02868            3360.00
02869            3360.00
02870            3360.00
02871            3280.00
02872            3280.00
02873            3280.00
02874            3280.00
02875            3280.00
02876            3200.00
02877            3200.00
02878            3200.00
02879            3120.00
02880            3120.00
02881            3040.00
02882            3120.00
02883            3120.00
02884            3120.00
02885            3040.00
02886            3040.00
02887            2960.00
02888            2960.00
02889            2960.00
02890            2960.00
02891            2880.00
02892            2960.00
02893            2960.00
02894            2960.00
02895            2800.00
02896            2800.00
02897            2800.00
02898            2800.00
02899            2720.00
02900            2800.00
02901            2720.00
02902            2640.00
02903            2720.00
02904            2640.00
02905            2640.00
02906            2640.00
02907            2640.00
02908            2560.00
02909            2480.00
02910            2480.00
02911            2480.00
02912            2480.00
02913            2480.00
02914            2400.00
02915            2400.00
02916            2400.00
02917            2320.00
02918            2320.00
02919            2320.00
02920            2240.00
02921            2240.00
02922            2240.00
02923            2160.00
02924            2160.00
02925            2160.00
02926            2080.00
02927            2080.00
02928            2080.00
02929            2080.00
02930            2080.00
02931            2000.00
02932            2000.00
02933            1920.00
02934            1840.00
02935            1840.00
02936            1840.00
02937            1840.00
02938            1760.00
02939            1760.00
02940            1760.00
02941            1760.00
02942            1760.00
02943            1680.00
02944            1680.00
02945            1680.00
02946            1680.00
02947            1600.00
02948            1520.00
02949            1520.00
02950            1520.00
02951            1440.00
02952            1440.00
02953            1440.00
02954            1440.00
02955            1440.00
02956            1360.00
02957            1360.00
02958            1360.00
02959            1360.00
02960            1360.00
02961            1200.00
02962            1200.00
02963            1200.00
02964            1120.00
02965            1200.00
02966            1120.00
02967            1120.00
02968            1120.00
02969            1040.00
02970            1040.00
02971            1040.00
02972            1040.00
02973             960.00
02974             880.00
02975             880.00
02976             880.00
02977             800.00
02978             800.00
02979             800.00
02980             720.00
02981             720.00
02982             720.00
02983             720.00
02984             640.00
02985             560.00
02986             560.00
02987             480.00
02988             480.00
02989             480.00
02990             480.00
02991             480.00
02992             400.00
02993             400.00
02994             400.00
02995             240.00
02996             240.00
02997             240.00
02998             160.00
02999             160.00
03000             160.00
03001             160.00
03002             160.00
03003              80.00
03004              80.00
03005              80.00
03006               0.00
03007             -80.00
03008               0.00
03009             -80.00
03010             -80.00
03011             -80.00
03012            -160.00
03013            -160.00
03014            -160.00
03015            -240.00
03016            -240.00
03017            -400.00
03018            -240.00
03019            -240.00
03020            -240.00
03021            -400.00
03022            -480.00
03023            -480.00
03024            -480.00
03025            -480.00
03026            -480.00
03027            -560.00
03028            -560.00
03029            -560.00
03030            -560.00
03031            -640.00
03032            -720.00
03033            -720.00
03034            -720.00
03035            -720.00
03036            -800.00
03037            -880.00
03038            -880.00
03039            -880.00
03040            -880.00
03041            -880.00
03042            -880.00
03043            -960.00
03044            -960.00
03045           -1040.00
03046           -1120.00
03047           -1120.00
03048           -1120.00
03049           -1120.00
03050           -1120.00
03051           -1200.00
03052           -1200.00
03053           -1200.00
03054           -1200.00
03055           -1280.00
03056           -1360.00
03057           -1280.00
03058           -1440.00
03059           -1440.00
03060           -1440.00
03061           -1520.00
03062           -1440.00
03063           -1520.00
03064           -1520.00
03065           -1520.00
03066           -1680.00
03067           -1680.00
03068           -1680.00
03069           -1760.00
03070           -1680.00
03071           -1760.00
03072           -1760.00
03073           -1760.00
03074           -1760.00
03075           -1840.00
03076           -1840.00
03077           -1840.00
03078           -1840.00
03079           -2000.00
03080           -2000.00
03081           -2000.00
03082           -2000.00
03083           -2000.00
03084           -2080.00
03085           -2080.00
03086           -2080.00
03087           -2080.00
03088           -2160.00
03089           -2160.00
03090           -2160.00
03091           -2240.00
03092           -2160.00
03093           -2320.00
03094           -2320.00
03095           -2320.00
03096           -2320.00
03097           -2400.00
03098           -2400.00
03099           -2400.00
03100           -2480.00
03101           -2400.00
03102           -2480.00
03103           -2480.00
03104           -2560.00
03105           -2480.00
03106           -2640.00
03107           -2640.00
03108           -2640.00
03109           -2640.00
03110           -2720.00
03111           -2640.00
03112           -2720.00
03113           -2720.00
03114           -2800.00
03115           -2800.00
03116           -2800.00
03117           -2800.00
03118           -2800.00
03119           -2800.00
03120           -2880.00
03121           -2960.00
03122           -2960.00
03123           -2960.00
03124           -3040.00
03125           -3040.00
03126           -3040.00
03127           -3040.00
03128           -3040.00
03129           -3040.00
03130           -3040.00
03131           -3120.00
03132           -3120.00
03133           -3120.00
03134           -3200.00
03135           -3120.00
03136           -3200.00
03137           -3280.00
03138           -3280.00
03139           -3360.00
03140           -3280.00
03141           -3280.00
03142           -3280.00
03143           -3360.00
03144           -3440.00
03145           -3360.00
03146           -3360.00
03147           -3440.00
03148           -3440.00
03149           -3440.00
03150           -3440.00
03151           -3440.00
03152           -3440.00
03153           -3520.00
03154           -3520.00
03155           -3440.00
03156           -3600.00
03157           -3600.00
03158           -3600.00
03159           -3600.00
03160           -3600.00
03161           -3680.00
03162           -3600.00
03163           -3680.00
03164           -3680.00
03165           -3680.00
03166           -3680.00
03167           -3680.00
03168           -3760.00
03169           -3760.00
03170           -3760.00
03171           -3760.00
03172           -3760.00
03173           -3760.00
03174           -3840.00
03175           -3760.00
03176           -3920.00
03177           -3840.00
03178           -3920.00
03179           -3920.00
03180           -3920.00
03181           -4000.00
03182           -3920.00
03183           -3920.00
03184           -3920.00
03185           -4000.00
03186           -4000.00
03187           -4000.00
03188           -4000.00
03189           -4080.00
03190           -4080.00
03191           -4080.00
03192           -4080.00
03193           -4080.00
03194           -4080.00
03195           -4160.00
03196           -4080.00
03197           -4080.00
03198           -4080.00
03199           -4080.00
03200           -4160.00
03201           -4160.00
03202           -4240.00
03203           -4240.00
03204           -4240.00
03205           -4080.00
03206           -4240.00
03207           -4160.00
03208           -4240.00
03209           -4240.00
03210           -4240.00
03211           -4320.00
03212           -4240.00
03213           -4240.00
03214           -4320.00
03215           -4320.00
03216           -4320.00
03217           -4240.00
03218           -4320.00
03219           -4320.00
03220           -4240.00
03221           -4240.00
03222           -4320.00
03223           -4320.00
03224           -4320.00
03225           -4320.00
03226           -4320.00
03227           -4400.00
03228           -4320.00
03229           -4320.00
03230           -4320.00
03231           -4320.00
03232           -4320.00
03233           -4400.00
03234           -4320.00
03235           -4320.00
03236           -4400.00
03237           -4320.00
03238           -4400.00
03239           -4400.00
03240           -4400.00
03241           -4400.00
03242           -4400.00
03243           -4400.00
03244           -4400.00
03245           -4400.00
03246           -4400.00
03247           -4400.00
03248           -4400.00
03249           -4480.00
03250           -4400.00
03251           -4400.00
03252           -4400.00
03253           -4400.00
03254           -4480.00
03255           -4400.00
03256           -4400.00
03257           -4560.00
03258           -4560.00
03259           -4400.00
03260           -4560.00
03261           -4400.00
03262           -4400.00
03263           -4480.00
03264           -4400.00
03265           -4480.00
03266           -4400.00
03267           -4400.00
03268           -4400.00
03269           -4480.00
03270           -4400.00
03271           -4400.00
03272           -4400.00
03273           -4400.00
03274           -4400.00
03275           -4400.00
03276           -4400.00
03277           -4400.00
03278           -4400.00
03279           -4400.00
03280           -4400.00
03281           -4320.00
03282           -4400.00
03283           -4400.00
03284           -4400.00
03285           -4320.00
03286           -4320.00
03287           -4400.00
03288           -4320.00
03289           -4320.00
03290           -4400.00
03291           -4320.00
03292           -4320.00
03293           -4400.00
03294           -4320.00
03295           -4320.00
03296           -4320.00
03297           -4320.00
03298           -4320.00
03299           -4320.00
03300           -4320.00
03301           -4320.00
03302           -4240.00
03303           -4320.00
03304           -4320.00
03305           -4320.00
03306           -4240.00
03307           -4240.00
03308           -4240.00
03309           -4240.00
03310           -4240.00
03311           -4240.00
03312           -4240.00
03313           -4320.00
03314           -4240.00
03315           -4240.00
03316           -4240.00
03317           -4240.00
03318           -4240.00
03319           -4160.00
03320           -4160.00
03321           -4080.00
03322           -4080.00
03323           -4080.00
03324           -4080.00
03325           -4080.00
03326           -4080.00
03327           -4080.00
03328           -4080.00
03329           -4080.00
03330           -4080.00
03331           -4000.00
03332           -4000.00
03333           -4000.00
03334           -4080.00
03335           -4000.00
03336           -4000.00
03337           -4000.00
03338           -3920.00
03339           -4000.00
03340           -3840.00
03341           -3920.00
03342           -3920.00
03343           -4000.00
03344           -3920.00
03345           -3760.00
03346           -3840.00
03347           -3760.00
03348           -3760.00
03349           -3760.00
03350           -3680.00
03351           -3760.00
03352           -3680.00
03353           -3680.00
03354           -3680.00
03355           -3680.00
03356           -3680.00
03357           -3680.00
03358           -3600.00
03359           -3600.00
03360           -3680.00
03361           -3600.00
03362           -3600.00
03363           -3600.00
03364           -3600.00
03365           -3600.00
03366           -3520.00
03367           -3520.00
03368           -3520.00
03369           -3440.00
03370           -3440.00
03371           -3440.00
03372           -3440.00
03373           -3440.00
03374           -3440.00
03375           -3360.00
03376           -3440.00
03377           -3360.00
03378           -3360.00
03379           -3360.00
03380           -3360.00
03381           -3280.00
03382           -3280.00
03383           -3280.00
03384           -3280.00
03385           -3200.00
03386           -3200.00
03387           -3280.00
03388           -3120.00
03389           -3120.00
03390           -3040.00
03391           -3120.00
03392           -3040.00
03393           -3040.00
03394           -3040.00
03395           -3040.00
03396           -3040.00
03397           -3040.00
03398           -2960.00
03399           -2960.00
03400           -2960.00
03401           -2960.00
03402           -2800.00
03403           -2800.00
03404           -2800.00
03405           -2800.00
03406           -2720.00
03407           -2800.00
03408           -2720.00
03409           -2720.00
03410           -2720.00
03411           -2640.00
03412           -2640.00
03413           -2640.00
03414           -2640.00
03415           -2560.00
03416           -2640.00
03417           -2480.00
03418           -2480.00
03419           -2480.00
03420           -2400.00
03421           -2480.00
03422           -2400.00
03423           -2400.00
03424           -2320.00
03425           -2400.00
03426           -2320.00
03427           -2320.00
03428           -2160.00
03429           -2240.00
03430           -2320.00
03431           -2320.00
03432           -2160.00
03433           -2160.00
03434           -2160.00
03435           -2160.00
03436           -2080.00
03437           -2080.00
03438           -2080.00
03439           -2000.00
03440           -2000.00
03441           -2000.00
03442           -2000.00
03443           -2000.00
03444           -1920.00
03445           -1840.00
03446           -1840.00
03447           -1760.00
03448           -1840.00
03449           -1760.00
03450           -1760.00
03451           -1760.00
03452           -1760.00
03453           -1760.00
03454           -1600.00
03455           -1680.00
03456           -1520.00
03457           -1520.00
03458           -1520.00
03459           -1520.00
03460           -1520.00
03461           -1520.00
03462           -1520.00
03463           -1440.00
03464           -1440.00
03465           -1360.00
03466           -1360.00
03467           -1280.00
03468           -1200.00
03469           -1200.00
03470           -1200.00
03471           -1200.00
03472           -1120.00
03473           -1120.00
03474           -1120.00
03475           -1120.00
03476           -1040.00
03477           -1040.00
03478           -1040.00
03479           -1040.00
03480           -1040.00
03481            -880.00
03482            -880.00
03483            -880.00
03484            -880.00
03485            -880.00
03486            -800.00
03487            -800.00
03488            -800.00
03489            -720.00
03490            -720.00
03491            -720.00
03492            -560.00
03493            -560.00
03494            -640.00
03495            -560.00
03496            -480.00
03497            -480.00
03498            -480.00
03499            -480.00
03500            -480.00
03501            -480.00
03502            -400.00
03503            -320.00
03504            -400.00
03505            -400.00
03506            -240.00
03507            -240.00
03508            -240.00
03509            -240.00
03510            -240.00
03511            -160.00
03512             -80.00
03513            -160.00
03514             -80.00
03515             -80.00
03516             -80.00
03517               0.00
03518              80.00
03519              80.00
03520              80.00
03521             160.00
03522              80.00
03523             160.00
03524             160.00
03525             320.00
03526             160.00
03527             240.00
03528             240.00
03529             400.00
03530             400.00
03531             400.00
03532             480.00
03533             400.00
03534             480.00
03535             560.00
03536             560.00
03537             560.00
03538             560.00
03539             720.00
03540             720.00
03541             720.00
03542             720.00
03543             720.00
03544             800.00
03545             800.00
03546             800.00
03547             880.00
03548             880.00
03549             960.00
03550            1040.00
03551             960.00
03552             960.00
03553            1040.00
03554            1040.00
03555            1120.00
03556            1120.00
03557            1120.00
03558            1120.00
03559            1200.00
03560            1200.00
03561            1280.00
03562            1360.00
03563            1360.00
03564            1360.00
03565            1360.00
03566            1360.00
03567            1360.00
03568            1440.00
03569            1440.00
03570            1440.00
03571            1440.00
03572            1440.00
03573            1520.00
03574            1520.00
03575            1680.00
03576            1680.00
03577            1680.00
03578            1680.00
03579            1680.00
03580            1680.00
03581            1760.00
03582            1760.00
03583            1760.00
03584            1760.00
03585            1760.00
03586            2000.00
03587            1840.00
03588            2000.00
03589            2000.00
03590            2000.00
03591            2000.00
03592            2080.00
03593            2080.00
03594            2080.00
03595            2080.00
03596            2160.00
03597            2160.00
03598            2320.00
03599            2160.00
03600            2320.00
03601            2160.00
03602            2320.00
03603            2320.00
03604            2320.00
03605            2320.00
03606            2400.00
03607            2400.00
03608            2480.00
03609            2400.00
03610            2400.00
03611            2480.00
03612            2480.00
03613            2560.00
03614            2640.00
03615            2640.00
03616            2640.00
03617            2640.00
03618            2720.00
03619            2720.00
03620            2720.00
03621            2720.00
03622            2720.00
03623            2720.00
03624            2720.00
03625            2800.00
03626            2800.00
03627            2800.00
03628            2880.00
03629            2960.00
03630            2960.00
03631            2960.00
03632            2960.00
03633            3040.00
03634            2960.00
03635            3040.00
03636            3040.00
03637            3040.00
03638            3040.00
03639            3040.00
03640            3120.00
03641            3120.00
03642            3120.00
03643            3120.00
03644            3280.00
03645            3280.00
03646            3280.00
03647            3280.00
03648            3280.00
03649            3280.00
03650            3280.00
03651            3280.00
03652            3360.00
03653            3360.00
03654            3360.00
03655            3360.00
03656            3440.00
03657            3440.00
03658            3440.00
03659            3440.00
03660            3440.00
03661            3440.00
03662            3520.00
03663            3600.00
03664            3600.00
03665            3600.00
03666            3600.00
03667            3600.00
03668            3600.00
03669            3680.00
03670            3600.00
03671            3680.00
03672            3680.00
03673            3760.00
03674            3680.00
03675            3760.00
03676            3760.00
03677            3760.00
03678            3840.00
03679            3760.00
03680            3840.00
03681            3920.00
03682            3920.00
03683            3920.00
03684            3920.00
03685            3920.00
03686            3920.00
03687            3920.00
03688            4000.00
03689            3920.00
03690            4000.00
03691            4000.00
03692            4000.00
03693            4000.00
03694            4000.00
03695            4000.00
03696            4000.00
03697            4000.00
03698            4000.00
03699            4000.00
03700            4080.00
03701            4080.00
03702            4080.00
03703            4080.00
03704            4080.00
03705            4160.00
03706            4080.00
03707            4160.00
03708            4080.00
03709            4080.00
03710            4160.00
03711            4160.00
03712            4240.00
03713            4240.00
03714            4160.00
03715            4240.00
03716            4240.00
03717            4240.00
03718            4240.00
03719            4240.00
03720            4240.00
03721            4320.00
03722            4240.00
03723            4320.00
03724            4240.00
03725            4320.00
03726            4320.00
03727            4320.00
03728            4320.00
03729            4320.00
03730            4400.00
03731            4320.00
03732            4320.00
03733            4320.00
03734            4320.00
03735            4400.00
03736            4400.00
03737            4400.00
03738            4400.00
03739            4400.00
03740            4560.00
03741            4400.00
03742            4400.00
03743            4400.00
03744            4560.00
03745            4400.00
03746            4400.00
03747            4400.00
03748            4480.00
03749            4480.00
03750            4480.00
03751            4400.00
03752            4400.00
03753            4400.00
03754            4400.00
03755            4480.00
03756            4560.00
03757            4560.00
03758            4480.00
03759            4560.00
03760            4560.00
03761            4480.00
03762            4400.00
03763            4560.00
03764            4480.00
03765            4400.00
03766            4560.00
03767            4400.00
03768            4480.00
03769            4480.00
03770            4560.00
03771            4400.00
03772            4560.00
03773            4400.00
03774            4560.00
03775            4480.00
03776            4480.00
03777            4400.00
03778            4400.00
03779            4560.00
03780            4400.00
03781            4400.00
03782            4480.00
03783            4400.00
03784            4400.00
03785            4480.00
03786            4400.00
03787            4400.00
03788            4480.00
03789            4400.00
03790            4400.00
03791            4400.00
03792            4480.00
03793            4400.00
03794            4400.00
03795            4400.00
03796            4400.00
03797            4400.00
03798            4400.00
03799            4400.00
03800            4400.00
03801            4400.00
03802            4400.00
03803            4320.00
03804            4400.00
03805            4320.00
03806            4400.00
03807            4400.00
03808            4400.00
03809            4400.00
03810            4320.00
03811            4320.00
03812            4320.00
03813            4320.00
03814            4400.00
03815            4240.00
03816            4320.00
03817            4320.00
03818            4320.00
03819            4240.00
03820            4240.00
03821            4240.00
03822            4320.00
03823            4240.00
03824            4240.00
03825            4240.00
03826            4240.00
03827            4240.00
03828            4240.00
03829            4240.00
03830            4080.00
03831            4240.00
03832            4080.00
03833            4080.00
03834            4080.00
03835            4080.00
03836            4080.00
03837            4080.00
03838            4000.00
03839            4080.00
03840            4000.00
03841            4000.00
03842            4000.00
03843            4000.00
03844            4000.00
03845            4000.00
03846            4000.00
03847            3920.00
03848            4000.00
03849            3920.00
03850            3920.00
03851            4000.00
03852            3920.00
03853            3920.00
03854            3840.00
03855            3920.00
03856            3920.00
03857            3840.00
03858            3920.00
03859            3760.00
03860            3920.00
03861            3760.00
03862            3760.00
03863            3760.00
03864            3760.00
03865            3680.00
03866            3760.00
03867            3680.00
03868            3680.00
03869            3680.00
03870            3680.00
03871            3680.00
03872            3680.00
03873            3680.00
03874            3600.00
03875            3600.00
03876            3600.00
03877            3600.00
03878            3520.00
03879            3440.00
03880            3440.00
03881            3440.00
03882            3520.00
03883            3440.00
03884            3440.00
03885            3440.00
03886            3360.00
03887            3360.00
03888            3360.00
03889            3360.00
03890            3360.00
03891            3360.00
03892            3280.00
03893            3360.00
03894            3280.00
03895            3280.00
03896            3120.00
03897            3280.00
03898            3120.00
03899            3120.00
03900            3120.00
03901            3040.00
03902            3040.00
03903            3040.00
03904            3040.00
03905            3040.00
03906            2960.00
03907            2960.00
03908            2960.00
03909            2960.00
03910            2800.00
03911            2960.00
03912            2800.00
03913            2800.00
03914            2800.00
03915            2800.00
03916            2720.00
03917            2720.00
03918            2720.00
03919            2720.00
03920            2720.00
03921            2720.00
03922            2640.00
03923            2640.00
03924            2640.00
03925            2640.00
03926            2640.00
03927            2480.00
03928            2480.00
03929            2480.00
03930            2480.00
03931            2480.00
03932            2480.00
03933            2400.00
03934            2400.00
03935            2400.00
03936            2320.00
03937            2320.00
03938            2320.00
03939            2320.00
03940            2320.00
03941            2240.00
03942            2160.00
03943            2240.00
03944            2160.00
03945            2160.00
03946            2080.00
03947            2160.00
03948            2080.00
03949            2080.00
03950            2000.00
03951            2000.00
03952            1920.00
03953            2000.00
03954            2000.00
03955            1840.00
03956            1920.00
03957            1840.00
03958            1760.00
03959            1760.00
03960            1760.00
03961            1760.00
03962            1680.00
03963            1680.00
03964            1680.00
03965            1680.00
03966            1520.00
03967            1520.00
03968            1520.00
03969            1520.00
03970            1440.00
03971            1440.00
03972            1440.00
03973            1440.00
03974            1440.00
03975            1360.00
03976            1360.00
03977            1360.00
03978            1360.00
03979            1280.00
03980            1280.00
03981            1120.00
03982            1200.00
03983            1120.00
03984            1120.00
03985            1120.00
03986            1120.00
03987            1120.00
03988            1040.00
03989            1040.00
03990            1040.00
03991             960.00
03992            1040.00
03993             880.00
03994             880.00
03995             800.00
03996             880.00
03997             800.00
03998             800.00
03999             800.00
04000             720.00
04001             720.00
04002             720.00
04003             640.00
04004             720.00
04005             560.00
04006             560.00
04007             560.00
04008             560.00
04009             480.00
04010             480.00
04011             480.00
04012             400.00
04013             400.00
04014             400.00
04015             400.00
04016             320.00
04017             240.00
04018             160.00
04019             160.00
04020             160.00
04021             160.00
04022             160.00
04023             160.00
04024              80.00
04025              80.00
04026               0.00
04027             -80.00
04028             -80.00
04029             -80.00
04030            -160.00
04031            -160.00
04032            -160.00
04033            -160.00
04034            -240.00
04035            -240.00
04036            -400.00
04037            -400.00
04038            -240.00
04039            -240.00
04040            -400.00
04041            -400.00
04042            -480.00
04043            -480.00
04044            -480.00
04045            -480.00
04046            -560.00
04047            -560.00
04048            -560.00
04049            -640.00
04050            -640.00
04051            -720.00
04052            -800.00
04053            -800.00
04054            -800.00
04055            -800.00
04056            -800.00
04057            -880.00
04058            -800.00
04059            -880.00
04060            -880.00
04061           -1040.00
04062            -960.00
04063           -1040.00
04064           -1040.00
04065           -1040.00
04066           -1120.00
04067           -1120.00
04068           -1120.00
04069           -1120.00
04070           -1200.00
04071           -1200.00
04072           -1200.00
04073           -1200.00
04074           -1200.00
04075           -1280.00
04076           -1360.00
04077           -1360.00
04078           -1360.00
04079           -1440.00
04080           -1440.00
04081           -1440.00
04082           -1520.00
04083           -1520.00
04084           -1520.00
04085           -1520.00
04086           -1600.00
04087           -1680.00
04088           -1680.00
04089           -1680.00
04090           -1760.00
04091           -1840.00
04092           -1760.00
04093           -1840.00
04094           -1760.00
04095           -1840.00
04096           -1840.00
04097           -1840.00
04098           -1920.00
04099           -2000.00
04100           -2000.00
04101           -2000.00
04102           -2000.00
04103           -2080.00
04104           -2080.00
04105           -2080.00
04106           -2080.00
04107           -2160.00
04108           -2160.00
04109           -2160.00
04110           -2160.00
04111           -2240.00
04112           -2240.00
04113           -2320.00
04114           -2400.00
04115           -2400.00
04116           -2400.00
04117           -2400.00
04118           -2400.00
04119           -2400.00
04120           -2400.00
04121           -2480.00
04122           -2480.00
04123           -2480.00
04124           -2480.00
04125           -2640.00
04126           -2640.00
04127           -2640.00
04128           -2640.00
04129           -2640.00
04130           -2640.00
04131           -2720.00
04132           -2720.00
04133           -2720.00
04134           -2800.00
04135           -2800.00
04136           -2800.00
04137           -2800.00
04138           -2800.00
04139           -2800.00
04140           -2960.00
04141           -2880.00
04142           -2960.00
04143           -2960.00
04144           -2960.00
04145           -3040.00
04146           -2960.00
04147           -3040.00
04148           -3040.00
04149           -3040.00
04150           -3040.00
04151           -3120.00
04152           -3120.00
04153           -3120.00
04154           -3200.00
04155           -3200.00
04156           -3280.00
04157           -3280.00
04158           -3280.00
04159           -3360.00
04160           -3360.00
04161           -3360.00
04162           -3360.00
04163           -3360.00
04164           -3360.00
04165           -3360.00
04166           -3440.00
04167           -3440.00
04168           -3440.00
04169           -3440.00
04170           -3440.00
04171           -3440.00
04172           -3440.00
04173           -3600.00
04174           -3520.00
04175           -3600.00
04176           -3600.00
04177           -3680.00
04178           -3680.00
04179           -3600.00
04180           -3680.00
04181           -3680.00
04182           -3680.00
04183           -3680.00
04184           -3760.00
04185           -3680.00
04186           -3680.00
04187           -3760.00
04188           -3760.00
04189           -3680.00
04190           -3760.00
04191           -3760.00
04192           -3760.00
04193           -3760.00
04194           -3760.00
04195           -3840.00
04196           -3760.00
04197           -3920.00
04198           -3920.00
04199           -3920.00
04200           -3920.00
04201           -4000.00
04202           -3920.00
04203           -4000.00
04204           -4000.00
04205           -4000.00
04206           -4000.00
04207           -4000.00
04208           -4000.00
04209           -4080.00
04210           -4080.00
04211           -4000.00
04212           -4080.00
04213           -4080.00
04214           -4080.00
04215           -4080.00
04216           -4080.00
04217           -4160.00
04218           -4080.00
04219           -4080.00
04220           -4080.00
04221           -4160.00
04222           -4240.00
04223           -4240.00
04224           -4240.00
04225           -4240.00
04226           -4240.00
04227           -4240.00
04228           -4240.00
04229           -4240.00
04230           -4240.00
04231           -4320.00
04232           -4320.00
04233           -4320.00
04234           -4240.00
04235           -4320.00
04236           -4240.00
04237           -4320.00
04238           -4320.00
04239           -4320.00
04240           -4320.00
04241           -4320.00
04242           -4320.00
04243           -4320.00
04244           -4320.00
04245           -4320.00
04246           -4320.00
04247           -4320.00
04248           -4320.00
04249           -4320.00
04250           -4320.00
04251           -4320.00
04252           -4400.00
04253           -4320.00
04254           -4400.00
04255           -4400.00
04256           -4400.00
04257           -4400.00
04258           -4400.00
04259           -4400.00
04260           -4400.00
04261           -4400.00
04262           -4400.00
04263           -4400.00
04264           -4400.00
04265           -4400.00
04266           -4400.00
04267           -4400.00
04268           -4400.00
04269           -4400.00
04270           -4400.00
04271           -4400.00
04272           -4400.00
04273           -4400.00
04274           -4400.00
04275           -4400.00
04276           -4400.00
04277           -4400.00
04278           -4400.00
04279           -4400.00
04280           -4400.00
04281           -4400.00
04282           -4400.00
04283           -4400.00
04284           -4400.00
04285           -4400.00
04286           -4400.00
04287           -4320.00
04288           -4480.00
04289           -4480.00
04290           -4400.00
04291           -4400.00
04292           -4400.00
04293           -4400.00
04294           -4400.00
04295           -4400.00
04296           -4400.00
04297           -4400.00
04298           -4400.00
04299           -4400.00
04300           -4400.00
04301           -4400.00
04302           -4400.00
04303           -4400.00
04304           -4400.00
04305           -4400.00
04306           -4400.00
04307           -4320.00
04308           -4400.00
04309           -4400.00
04310           -4320.00
04311           -4400.00
04312           -4320.00
04313           -4400.00
04314           -4320.00
04315           -4400.00
04316           -4320.00
04317           -4320.00
04318           -4320.00
04319           -4320.00
04320           -4240.00
04321           -4320.00
04322           -4320.00
04323           -4320.00
04324           -4240.00
04325           -4320.00
04326           -4240.00
04327           -4240.00
04328           -4240.00
04329           -4240.00
04330           -4240.00
04331           -4080.00
04332           -4240.00
04333           -4160.00
04334           -4080.00
04335           -4160.00
04336           -4160.00
04337           -4080.00
04338           -4080.00
04339           -4080.00
04340           -4080.00
04341           -4080.00
04342           -4080.00
04343           -4080.00
04344           -4080.00
04345           -4080.00
04346           -4080.00
04347           -4080.00
04348           -4000.00
04349           -4000.00
04350           -4000.00
04351           -4000.00
04352           -4000.00
04353           -4000.00
04354           -4000.00
04355           -4000.00
04356           -4000.00
04357           -4000.00
04358           -4000.00
04359           -3920.00
04360           -3920.00
04361           -3920.00
04362           -3920.00
04363           -3920.00
04364           -3840.00
04365           -3760.00
04366           -3920.00
04367           -3760.00
04368           -3840.00
04369           -3760.00
04370           -3760.00
04371           -3760.00
04372           -3760.00
04373           -3760.00
04374           -3680.00
04375           -3680.00
04376           -3680.00
04377           -3680.00
04378           -3680.00
04379           -3600.00
04380           -3680.00
04381           -3680.00
04382           -3600.00
04383           -3600.00
04384           -3600.00
04385           -3600.00
04386           -3600.00
04387           -3440.00
04388           -3440.00
04389           -3440.00
04390           -3440.00
04391           -3440.00
04392           -3360.00
04393           -3440.00
04394           -3440.00
04395           -3360.00
04396           -3360.00
04397           -3360.00
04398           -3360.00
04399           -3360.00
04400           -3280.00
04401           -3280.00
04402           -3280.00
04403           -3280.00
04404           -3120.00
04405           -3280.00
04406           -3120.00
04407           -3120.00
04408           -3120.00
04409           -3120.00
04410           -3040.00
04411           -3040.00
04412           -3040.00
04413           -3040.00
04414           -3040.00
04415           -2960.00
04416           -2960.00
04417           -2960.00
04418           -2960.00
04419           -2960.00
04420           -2880.00
04421           -2960.00
04422           -2880.00
04423           -2800.00
04424           -2800.00
04425           -2800.00
04426           -2800.00
04427           -2800.00
04428           -2720.00
04429           -2800.00
04430           -2720.00
04431           -2720.00
04432           -2640.00
04433           -2720.00
04434           -2640.00
04435           -2560.00
04436           -2480.00
04437           -2480.00
04438           -2480.00
04439           -2480.00
04440           -2480.00
04441           -2480.00
04442           -2400.00
04443           -2400.00
04444           -2400.00
04445           -2400.00
04446           -2320.00
04447           -2160.00
04448           -2320.00
04449           -2240.00
04450           -2160.00
04451           -2160.00
04452           -2160.00
04453           -2160.00
04454           -2160.00
04455           -2080.00
04456           -2080.00
04457           -2080.00
04458           -2080.00
04459           -2000.00
04460           -2000.00
04461           -2000.00
04462           -1840.00
04463           -1840.00
04464           -1840.00
04465           -1840.00
04466           -1840.00
04467           -1760.00
04468           -1760.00
04469           -1760.00
04470           -1760.00
04471           -1680.00
04472           -1760.00
04473           -1520.00
04474           -1680.00
04475           -1520.00
04476           -1520.00
04477           -1520.00
04478           -1440.00
04479           -1520.00
04480           -1520.00
04481           -1440.00
04482           -1520.00
04483           -1440.00
04484           -1440.00
04485           -1360.00
04486           -1360.00
04487           -1360.00
04488           -1360.00
04489           -1200.00
04490           -1280.00
04491           -1200.00
04492           -1200.00
04493           -1120.00
04494           -1120.00
04495           -1120.00
04496           -1120.00
04497           -1120.00
04498           -1040.00
04499           -1040.00
04500            -880.00
04501            -880.00
04502            -880.00
04503            -880.00
04504            -880.00
04505            -880.00
04506            -800.00
04507            -800.00
04508            -800.00
04509            -800.00
04510            -640.00
04511            -560.00
04512            -720.00
04513            -560.00
04514            -560.00
04515            -560.00
04516            -480.00
04517            -480.00
04518            -480.00
04519            -480.00
04520            -400.00
04521            -400.00
04522            -400.00
04523            -320.00
04524            -240.00
04525            -240.00
04526            -240.00
04527            -240.00
04528            -240.00
04529            -160.00
04530            -160.00
04531            -160.00
04532             -80.00
04533             -80.00
04534             -80.00
04535             -80.00
04536              80.00
04537               0.00
04538              80.00
04539             160.00
04540             160.00
04541             160.00
04542             160.00
04543             160.00
04544             240.00
04545             240.00
04546             240.00
04547             240.00
04548             240.00
04549             400.00
04550             480.00
04551             400.00
04552             400.00
04553             400.00
04554             480.00
04555             560.00
04556             560.00
04557             480.00
04558             640.00
04559             720.00
04560             800.00
04561             640.00
04562             640.00
04563             800.00
04564             800.00
04565             800.00
04566             800.00
04567             800.00
04568             880.00
04569             880.00
04570            1040.00
04571             880.00
04572             880.00
04573            1040.00
04574            1040.00
04575            1040.00
04576            1040.00
04577            1120.00
04578            1120.00
04579            1200.00
04580            1200.00
04581            1200.00
04582            1200.00
04583            1360.00
04584            1360.00
04585            1360.00
04586            1360.00
04587            1360.00
04588            1440.00
04589            1520.00
04590            1440.00
04591            1440.00
04592            1520.00
04593            1520.00
04594            1680.00
04595            1600.00
04596            1680.00
04597            1680.00
04598            1680.00
04599            1680.00
04600            1680.00
04601            1760.00
04602            1840.00
04603            1760.00
04604            1840.00
04605            1920.00
04606            1920.00
04607            2000.00
04608            2000.00
04609            2000.00
04610            2000.00
04611            2000.00
04612            2080.00
04613            2080.00
04614            2080.00
04615            2080.00
04616            2160.00
04617            2160.00
04618            2160.00
04619            2160.00
04620            2320.00
04621            2240.00
04622            2240.00
04623            2320.00
04624            2320.00
04625            2320.00
04626            2400.00
04627            2320.00
04628            2320.00
04629            2400.00
04630            2400.00
04631            2560.00
04632            2480.00
04633            2480.00
04634            2640.00
04635            2640.00
04636            2640.00
04637            2720.00
04638            2640.00
04639            2720.00
04640            2720.00
04641            2720.00
04642            2800.00
04643            2720.00
04644            2800.00
04645            2800.00
04646            2800.00
04647            2880.00
04648            2880.00
04649            2960.00
04650            2960.00
04651            2960.00
04652            2960.00
04653            3040.00
04654            3040.00
04655            3040.00
04656            3040.00
04657            3040.00
04658            3120.00
04659            3120.00
04660            3120.00
04661            3120.00
04662            3280.00
04663            3120.00
04664            3280.00
04665            3280.00
04666            3280.00
04667            3280.00
04668            3280.00
04669            3360.00
04670            3360.00
04671            3360.00
04672            3360.00
04673            3360.00
04674            3360.00
04675            3360.00
04676            3440.00
04677            3440.00
04678            3440.00
04679            3440.00
04680            3520.00
04681            3440.00
04682            3440.00
04683            3600.00
04684            3600.00
04685            3600.00
04686            3600.00
04687            3600.00
04688            3600.00
04689            3680.00
04690            3680.00
04691            3600.00
04692            3680.00
04693            3600.00
04694            3760.00
04695            3680.00
04696            3680.00
04697            3760.00
04698            3760.00
04699            3760.00
04700            3760.00
04701            3840.00
04702            3760.00
04703            3920.00
04704            3920.00
04705            3840.00
04706            3920.00
04707            3920.00
04708            3920.00
04709            3920.00
04710            4000.00
04711            4000.00
04712            3920.00
04713            4000.00
04714            4000.00
04715            4000.00
04716            4080.00
04717            4000.00
04718            4000.00
04719            4000.00
04720            4080.00
04721            4160.00
04722            4080.00
04723            4080.00
04724            4160.00
04725            4240.00
04726            4160.00
04727            4160.00
04728            4160.00
04729            4240.00
04730            4240.00
04731            4240.00
04732            4240.00
04733            4240.00
04734            4240.00
04735            4240.00
04736            4240.00
04737            4240.00
04738            4240.00
04739            4320.00
04740            4240.00
04741            4240.00
04742            4240.00
04743            4320.00
04744            4240.00
04745            4320.00
04746            4320.00
04747            4320.00
04748            4320.00
04749            4320.00
04750            4320.00
04751            4320.00
04752            4320.00
04753            4320.00
04754            4320.00
04755            4320.00
04756            4320.00
04757            4320.00
04758            4320.00
04759            4320.00
04760            4320.00
04761            4400.00
04762            4320.00
04763            4400.00
04764            4400.00
04765            4320.00
04766            4400.00
04767            4400.00
04768            4400.00
04769            4400.00
04770            4400.00
04771            4400.00
04772            4560.00
04773            4400.00
04774            4400.00
04775            4400.00
04776            4400.00
04777            4400.00
04778            4400.00
04779            4560.00
04780            4400.00
04781            4480.00
04782            4400.00
04783            4560.00
04784            4400.00
04785            4560.00
04786            4400.00
04787            4560.00
04788            4480.00
04789            4400.00
04790            4560.00
04791            4560.00
04792            4400.00
04793            4560.00
04794            4480.00
04795            4480.00
04796            4480.00
04797            4480.00
04798            4480.00
04799            4400.00
04800            4560.00
04801            4400.00
04802            4560.00
04803            4480.00
04804            4400.00
04805            4400.00
04806            4400.00
04807            4560.00
04808            4400.00
04809            4400.00
04810            4400.00
04811            4400.00
04812            4400.00
04813            4400.00
04814            4320.00
04815            4400.00
04816            4400.00
04817            4400.00
04818            4400.00
04819            4400.00
04820            4320.00
04821            4400.00
04822            4320.00
04823            4320.00
04824            4400.00
04825            4320.00
04826            4320.00
04827            4400.00
04828            4320.00
04829            4320.00
04830            4320.00
04831            4240.00
04832            4320.00
04833            4320.00
04834            4320.00
04835            4320.00
04836            4240.00
04837            4320.00
04838            4240.00
04839            4320.00
04840            4240.00
04841            4320.00
04842            4240.00
04843            4240.00
04844            4240.00
04845            4240.00
04846            4240.00
04847            4240.00
04848            4240.00
04849            4240.00
04850            4160.00
04851            4240.00
04852            4080.00
04853            4240.00
04854            4080.00
04855            4080.00
04856            4080.00
04857            4080.00
04858            4080.00
04859            4000.00
04860            4080.00
04861            4000.00
04862            4000.00
04863            4080.00
04864            4000.00
04865            4000.00
04866            4000.00
04867            4000.00
04868            4000.00
04869            3920.00
04870            4000.00
04871            3920.00
04872            3920.00
04873            3920.00
04874            3920.00
04875            3920.00
04876            3920.00
04877            3760.00
04878            3920.00
04879            3760.00
04880            3680.00
04881            3760.00
04882            3760.00
04883            3680.00
04884            3680.00
04885            3680.00
04886            3680.00
04887            3600.00
04888            3680.00
04889            3680.00
04890            3600.00
04891            3600.00
04892            3600.00
04893            3600.00
04894            3600.00
04895            3600.00
04896            3520.00
04897            3440.00
04898            3440.00
04899            3520.00
04900            3440.00
04901            3440.00
04902            3440.00
04903            3360.00
04904            3440.00
04905            3360.00
04906            3360.00
04907            3360.00
04908            3360.00
04909            3360.00
04910            3360.00
04911            3280.00
04912            3280.00
04913            3280.00
04914            3280.00
04915            3280.00
04916            3280.00
04917            3200.00
04918            3120.00
04919            3120.00
04920            3120.00
04921            3120.00
04922            3120.00
04923            3040.00
04924            3040.00
04925            2960.00
04926            3040.00
04927            3040.00
04928            2960.00
04929            2960.00
04930            2960.00
04931            2960.00
04932            2960.00
04933            2800.00
04934            2800.00
04935            2800.00
04936            2720.00
04937            2800.00
04938            2720.00
04939            2640.00
04940            2720.00
04941            2640.00
04942            2640.00
04943            2640.00
04944            2640.00
04945            2480.00
04946            2480.00
04947            2480.00
04948            2480.00
04949            2480.00
04950            2400.00
04951            2400.00
04952            2400.00
04953            2400.00
04954            2400.00
04955            2320.00
04956            2320.00
04957            2320.00
04958            2240.00
04959            2320.00
04960            2160.00
04961            2160.00
04962            2160.00
04963            2160.00
04964            2160.00
04965            2080.00
04966            2080.00
04967            2080.00
04968            2000.00
04969            2080.00
04970            2000.00
04971            2000.00
04972            2000.00
04973            1840.00
04974            1840.00
04975            1840.00
04976            1840.00
04977            1840.00
04978            1760.00
04979            1840.00
04980            1760.00
04981            1760.00
04982            1680.00
04983            1680.00
04984            1680.00
04985            1680.00
04986            1600.00
04987            1520.00
04988            1680.00
04989            1520.00
04990            1520.00
04991            1440.00
04992            1440.00
04993            1440.00
04994            1360.00
04995            1440.00
04996            1360.00
04997            1360.00
04998            1360.00
04999            1200.00
05000            1280.00
