Unit:(mV)
                     CH1
Frequency     98.107 kHz
00001            -560.00
00002            -560.00
00003            -640.00
00004            -640.00
00005            -720.00
00006            -640.00
00007            -720.00
00008            -720.00
00009            -720.00
00010            -720.00
00011            -720.00
00012            -800.00
00013            -800.00
00014            -720.00
00015            -800.00
00016            -800.00
00017            -800.00
00018            -800.00
00019            -800.00
00020            -800.00
00021            -800.00
00022            -880.00
00023            -880.00
00024            -880.00
00025            -880.00
00026            -880.00
00027            -880.00
00028            -880.00
00029            -880.00
00030            -880.00
00031           -1040.00
00032            -880.00
00033            -880.00
00034            -960.00
00035            -880.00
00036           -1040.00
00037            -960.00
00038           -1040.00
00039           -1040.00
00040           -1040.00
00041           -1040.00
00042           -1040.00
00043           -1120.00
00044           -1120.00
00045           -1040.00
00046           -1120.00
00047           -1040.00
00048           -1120.00
00049           -1120.00
00050           -1120.00
00051           -1120.00
00052           -1120.00
00053           -1120.00
00054           -1120.00
00055           -1200.00
00056           -1200.00
00057           -1120.00
00058           -1200.00
00059           -1200.00
00060           -1200.00
00061           -1360.00
00062           -1200.00
00063           -1360.00
00064           -1200.00
00065           -1280.00
00066           -1280.00
00067           -1360.00
00068           -1280.00
00069           -1360.00
00070           -1440.00
00071           -1360.00
00072           -1360.00
00073           -1360.00
00074           -1360.00
00075           -1440.00
00076           -1440.00
00077           -1360.00
00078           -1360.00
00079           -1360.00
00080           -1440.00
00081           -1440.00
00082           -1440.00
00083           -1440.00
00084           -1440.00
00085           -1440.00
00086           -1440.00
00087           -1440.00
00088           -1520.00
00089           -1440.00
00090           -1520.00
00091           -1440.00
00092           -1520.00
00093           -1520.00
00094           -1520.00
00095           -1520.00
00096           -1520.00
00097           -1520.00
00098           -1520.00
00099           -1600.00
00100           -1520.00
00101           -1520.00
00102           -1520.00
00103           -1520.00
00104           -1520.00
00105           -1520.00
00106           -1520.00
00107           -1600.00
00108           -1680.00
00109           -1520.00
00110           -1600.00
00111           -1520.00
00112           -1680.00
00113           -1680.00
00114           -1520.00
00115           -1680.00
00116           -1600.00
00117           -1680.00
00118           -1680.00
00119           -1680.00
00120           -1680.00
00121           -1680.00
00122           -1680.00
00123           -1680.00
00124           -1760.00
00125           -1760.00
00126           -1760.00
00127           -1760.00
00128           -1760.00
00129           -1760.00
00130           -1760.00
00131           -1760.00
00132           -1760.00
00133           -1760.00
00134           -1760.00
00135           -1760.00
00136           -1760.00
00137           -1840.00
00138           -1840.00
00139           -1760.00
00140           -1840.00
00141           -1840.00
00142           -1760.00
00143           -1840.00
00144           -1760.00
00145           -1840.00
00146           -1760.00
00147           -1760.00
00148           -1840.00
00149           -1760.00
00150           -1840.00
00151           -1840.00
00152           -1840.00
00153           -1840.00
00154           -1840.00
00155           -1840.00
00156           -1840.00
00157           -1840.00
00158           -1840.00
00159           -1840.00
00160           -1840.00
00161           -1840.00
00162           -1840.00
00163           -1840.00
00164           -1920.00
00165           -1840.00
00166           -1840.00
00167           -1920.00
00168           -1840.00
00169           -1840.00
00170           -2000.00
00171           -1840.00
00172           -1840.00
00173           -1840.00
00174           -1840.00
00175           -1840.00
00176           -1840.00
00177           -1840.00
00178           -1920.00
00179           -1840.00
00180           -1920.00
00181           -1840.00
00182           -1840.00
00183           -1920.00
00184           -1920.00
00185           -1840.00
00186           -1920.00
00187           -1840.00
00188           -1840.00
00189           -2000.00
00190           -1920.00
00191           -1840.00
00192           -2000.00
00193           -1840.00
00194           -1840.00
00195           -2000.00
00196           -2000.00
00197           -2000.00
00198           -2000.00
00199           -1920.00
00200           -2000.00
00201           -2000.00
00202           -1920.00
00203           -2000.00
00204           -2000.00
00205           -2000.00
00206           -1920.00
00207           -2000.00
00208           -2000.00
00209           -2000.00
00210           -2000.00
00211           -1840.00
00212           -2000.00
00213           -1920.00
00214           -1920.00
00215           -2000.00
00216           -1920.00
00217           -2000.00
00218           -2000.00
00219           -1920.00
00220           -1840.00
00221           -2000.00
00222           -2000.00
00223           -1840.00
00224           -2000.00
00225           -2000.00
00226           -1840.00
00227           -1840.00
00228           -1920.00
00229           -1840.00
00230           -1840.00
00231           -1840.00
00232           -1840.00
00233           -1840.00
00234           -1840.00
00235           -1840.00
00236           -1840.00
00237           -1840.00
00238           -1840.00
00239           -1840.00
00240           -1840.00
00241           -1840.00
00242           -1840.00
00243           -1840.00
00244           -1840.00
00245           -1840.00
00246           -1840.00
00247           -1840.00
00248           -1840.00
00249           -1840.00
00250           -1840.00
00251           -1840.00
00252           -1840.00
00253           -1840.00
00254           -1840.00
00255           -1840.00
00256           -1760.00
00257           -1840.00
00258           -1840.00
00259           -1840.00
00260           -1840.00
00261           -1840.00
00262           -1760.00
00263           -1840.00
00264           -1840.00
00265           -1840.00
00266           -1840.00
00267           -1840.00
00268           -1760.00
00269           -1840.00
00270           -1840.00
00271           -1760.00
00272           -1760.00
00273           -1760.00
00274           -1760.00
00275           -1760.00
00276           -1760.00
00277           -1760.00
00278           -1760.00
00279           -1760.00
00280           -1760.00
00281           -1760.00
00282           -1760.00
00283           -1760.00
00284           -1760.00
00285           -1680.00
00286           -1760.00
00287           -1680.00
00288           -1760.00
00289           -1680.00
00290           -1680.00
00291           -1600.00
00292           -1680.00
00293           -1680.00
00294           -1680.00
00295           -1600.00
00296           -1520.00
00297           -1680.00
00298           -1520.00
00299           -1600.00
00300           -1600.00
00301           -1520.00
00302           -1520.00
00303           -1520.00
00304           -1520.00
00305           -1520.00
00306           -1520.00
00307           -1600.00
00308           -1520.00
00309           -1520.00
00310           -1520.00
00311           -1520.00
00312           -1520.00
00313           -1520.00
00314           -1520.00
00315           -1520.00
00316           -1440.00
00317           -1520.00
00318           -1440.00
00319           -1440.00
00320           -1440.00
00321           -1520.00
00322           -1440.00
00323           -1440.00
00324           -1440.00
00325           -1440.00
00326           -1440.00
00327           -1440.00
00328           -1440.00
00329           -1440.00
00330           -1360.00
00331           -1360.00
00332           -1360.00
00333           -1360.00
00334           -1360.00
00335           -1360.00
00336           -1360.00
00337           -1280.00
00338           -1360.00
00339           -1280.00
00340           -1280.00
00341           -1360.00
00342           -1280.00
00343           -1200.00
00344           -1280.00
00345           -1280.00
00346           -1280.00
00347           -1200.00
00348           -1200.00
00349           -1120.00
00350           -1200.00
00351           -1120.00
00352           -1120.00
00353           -1200.00
00354           -1200.00
00355           -1120.00
00356           -1120.00
00357           -1120.00
00358           -1120.00
00359           -1040.00
00360           -1120.00
00361           -1040.00
00362           -1120.00
00363           -1040.00
00364           -1040.00
00365           -1120.00
00366           -1120.00
00367           -1040.00
00368           -1040.00
00369           -1040.00
00370           -1040.00
00371            -960.00
00372           -1040.00
00373            -880.00
00374            -960.00
00375            -880.00
00376            -960.00
00377            -880.00
00378            -880.00
00379            -880.00
00380            -880.00
00381            -800.00
00382            -800.00
00383            -880.00
00384            -880.00
00385            -880.00
00386            -880.00
00387            -880.00
00388            -800.00
00389            -800.00
00390            -880.00
00391            -800.00
00392            -800.00
00393            -800.00
00394            -800.00
00395            -800.00
00396            -720.00
00397            -800.00
00398            -800.00
00399            -720.00
00400            -800.00
00401            -720.00
00402            -560.00
00403            -720.00
00404            -560.00
00405            -560.00
00406            -720.00
00407            -640.00
00408            -560.00
00409            -560.00
00410            -640.00
00411            -560.00
00412            -560.00
00413            -480.00
00414            -480.00
00415            -480.00
00416            -480.00
00417            -480.00
00418            -480.00
00419            -480.00
00420            -400.00
00421            -480.00
00422            -480.00
00423            -400.00
00424            -400.00
00425            -480.00
00426            -400.00
00427            -320.00
00428            -400.00
00429            -240.00
00430            -320.00
00431            -240.00
00432            -320.00
00433            -240.00
00434            -320.00
00435            -240.00
00436            -240.00
00437            -240.00
00438            -240.00
00439            -240.00
00440            -240.00
00441            -240.00
00442            -240.00
00443            -160.00
00444            -240.00
00445            -160.00
00446            -160.00
00447            -160.00
00448            -160.00
00449            -160.00
00450            -160.00
00451            -160.00
00452             -80.00
00453             -80.00
00454             -80.00
00455             -80.00
00456             -80.00
00457             -80.00
00458             -80.00
00459              80.00
00460              80.00
00461              80.00
00462              80.00
00463              80.00
00464              80.00
00465              80.00
00466              80.00
00467              80.00
00468              80.00
00469             160.00
00470              80.00
00471             160.00
00472             160.00
00473             160.00
00474             160.00
00475             160.00
00476             160.00
00477             160.00
00478             240.00
00479             240.00
00480             240.00
00481             240.00
00482             240.00
00483             240.00
00484             320.00
00485             400.00
00486             320.00
00487             320.00
00488             320.00
00489             400.00
00490             400.00
00491             400.00
00492             400.00
00493             400.00
00494             480.00
00495             480.00
00496             400.00
00497             480.00
00498             480.00
00499             560.00
00500             480.00
00501             480.00
00502             480.00
00503             560.00
00504             560.00
00505             560.00
00506             560.00
00507             560.00
00508             560.00
00509             560.00
00510             720.00
00511             640.00
00512             720.00
00513             720.00
00514             720.00
00515             720.00
00516             720.00
00517             720.00
00518             720.00
00519             720.00
00520             720.00
00521             720.00
00522             720.00
00523             800.00
00524             800.00
00525             800.00
00526             800.00
00527             800.00
00528             800.00
00529             800.00
00530             880.00
00531             800.00
00532             880.00
00533             880.00
00534             880.00
00535             800.00
00536             880.00
00537             880.00
00538             880.00
00539             880.00
00540            1040.00
00541             880.00
00542             960.00
00543            1040.00
00544            1040.00
00545            1040.00
00546            1040.00
00547            1040.00
00548            1040.00
00549            1040.00
00550            1040.00
00551            1040.00
00552            1120.00
00553            1120.00
00554            1120.00
00555            1120.00
00556            1200.00
00557            1120.00
00558            1120.00
00559            1120.00
00560            1120.00
00561            1200.00
00562            1120.00
00563            1200.00
00564            1200.00
00565            1200.00
00566            1200.00
00567            1200.00
00568            1360.00
00569            1200.00
00570            1360.00
00571            1200.00
00572            1280.00
00573            1360.00
00574            1360.00
00575            1360.00
00576            1360.00
00577            1360.00
00578            1360.00
00579            1360.00
00580            1360.00
00581            1360.00
00582            1360.00
00583            1360.00
00584            1360.00
00585            1360.00
00586            1440.00
00587            1360.00
00588            1440.00
00589            1440.00
00590            1440.00
00591            1440.00
00592            1440.00
00593            1440.00
00594            1440.00
00595            1440.00
00596            1520.00
00597            1440.00
00598            1440.00
00599            1440.00
00600            1520.00
00601            1440.00
00602            1440.00
00603            1520.00
00604            1520.00
00605            1520.00
00606            1520.00
00607            1520.00
00608            1520.00
00609            1600.00
00610            1520.00
00611            1680.00
00612            1680.00
00613            1680.00
00614            1680.00
00615            1680.00
00616            1680.00
00617            1600.00
00618            1680.00
00619            1520.00
00620            1680.00
00621            1680.00
00622            1680.00
00623            1680.00
00624            1680.00
00625            1680.00
00626            1680.00
00627            1680.00
00628            1760.00
00629            1680.00
00630            1760.00
00631            1760.00
00632            1760.00
00633            1760.00
00634            1760.00
00635            1680.00
00636            1760.00
00637            1760.00
00638            1760.00
00639            1760.00
00640            1760.00
00641            1760.00
00642            1840.00
00643            1760.00
00644            1840.00
00645            1840.00
00646            1840.00
00647            1840.00
00648            1760.00
00649            1840.00
00650            1760.00
00651            1840.00
00652            1760.00
00653            1760.00
00654            1760.00
00655            1840.00
00656            1840.00
00657            1840.00
00658            1840.00
00659            1840.00
00660            1840.00
00661            1840.00
00662            1840.00
00663            1840.00
00664            1840.00
00665            1840.00
00666            1920.00
00667            1840.00
00668            1840.00
00669            1840.00
00670            1840.00
00671            1840.00
00672            1920.00
00673            1840.00
00674            1920.00
00675            2000.00
00676            1840.00
00677            1840.00
00678            2000.00
00679            2000.00
00680            1920.00
00681            2000.00
00682            2000.00
00683            2000.00
00684            2000.00
00685            2000.00
00686            1920.00
00687            2000.00
00688            2000.00
00689            2000.00
00690            2080.00
00691            2000.00
00692            2000.00
00693            2000.00
00694            2000.00
00695            2000.00
00696            2000.00
00697            2000.00
00698            2080.00
00699            2000.00
00700            2080.00
00701            2000.00
00702            2000.00
00703            2080.00
00704            2000.00
00705            2080.00
00706            2000.00
00707            1920.00
00708            2000.00
00709            2000.00
00710            2000.00
00711            2000.00
00712            2000.00
00713            2000.00
00714            2000.00
00715            1920.00
00716            2000.00
00717            2000.00
00718            2000.00
00719            2000.00
00720            2000.00
00721            2000.00
00722            2000.00
00723            1920.00
00724            1840.00
00725            2000.00
00726            2000.00
00727            2000.00
00728            2000.00
00729            2000.00
00730            2000.00
00731            1920.00
00732            2000.00
00733            1920.00
00734            2000.00
00735            1920.00
00736            2000.00
00737            2000.00
00738            1920.00
00739            2000.00
00740            1920.00
00741            1920.00
00742            1920.00
00743            1840.00
00744            2000.00
00745            2000.00
00746            2000.00
00747            1840.00
00748            1840.00
00749            2000.00
00750            1920.00
00751            2000.00
00752            1840.00
00753            2000.00
00754            2000.00
00755            2000.00
00756            2000.00
00757            1920.00
00758            1840.00
00759            1840.00
00760            1840.00
00761            1840.00
00762            1840.00
00763            2000.00
00764            1840.00
00765            1920.00
00766            1840.00
00767            1840.00
00768            1840.00
00769            1920.00
00770            1840.00
00771            1840.00
00772            1760.00
00773            1840.00
00774            1760.00
00775            1840.00
00776            1840.00
00777            1760.00
00778            1760.00
00779            1760.00
00780            1760.00
00781            1760.00
00782            1760.00
00783            1760.00
00784            1760.00
00785            1760.00
00786            1760.00
00787            1760.00
00788            1680.00
00789            1760.00
00790            1760.00
00791            1760.00
00792            1680.00
00793            1680.00
00794            1680.00
00795            1680.00
00796            1680.00
00797            1680.00
00798            1680.00
00799            1680.00
00800            1680.00
00801            1680.00
00802            1680.00
00803            1680.00
00804            1680.00
00805            1680.00
00806            1680.00
00807            1680.00
00808            1680.00
00809            1680.00
00810            1680.00
00811            1600.00
00812            1680.00
00813            1680.00
00814            1520.00
00815            1680.00
00816            1680.00
00817            1600.00
00818            1520.00
00819            1600.00
00820            1520.00
00821            1520.00
00822            1600.00
00823            1520.00
00824            1520.00
00825            1520.00
00826            1440.00
00827            1520.00
00828            1440.00
00829            1520.00
00830            1520.00
00831            1520.00
00832            1440.00
00833            1520.00
00834            1440.00
00835            1440.00
00836            1440.00
00837            1440.00
00838            1440.00
00839            1440.00
00840            1440.00
00841            1440.00
00842            1360.00
00843            1440.00
00844            1360.00
00845            1360.00
00846            1360.00
00847            1360.00
00848            1360.00
00849            1360.00
00850            1360.00
00851            1360.00
00852            1360.00
00853            1360.00
00854            1280.00
00855            1200.00
00856            1360.00
00857            1280.00
00858            1200.00
00859            1200.00
00860            1200.00
00861            1200.00
00862            1200.00
00863            1200.00
00864            1200.00
00865            1200.00
00866            1120.00
00867            1200.00
00868            1120.00
00869            1200.00
00870            1120.00
00871            1120.00
00872            1120.00
00873            1120.00
00874            1120.00
00875            1040.00
00876            1120.00
00877            1040.00
00878            1040.00
00879            1040.00
00880            1040.00
00881            1040.00
00882            1040.00
00883            1040.00
00884            1040.00
00885            1040.00
00886            1040.00
00887            1040.00
00888            1040.00
00889             960.00
00890            1040.00
00891             880.00
00892             880.00
00893             960.00
00894             880.00
00895             800.00
00896             880.00
00897             880.00
00898             880.00
00899             800.00
00900             880.00
00901             800.00
00902             800.00
00903             800.00
00904             800.00
00905             800.00
00906             800.00
00907             720.00
00908             720.00
00909             720.00
00910             720.00
00911             720.00
00912             720.00
00913             720.00
00914             720.00
00915             720.00
00916             560.00
00917             640.00
00918             560.00
00919             560.00
00920             560.00
00921             560.00
00922             560.00
00923             480.00
00924             560.00
00925             480.00
00926             480.00
00927             560.00
00928             480.00
00929             480.00
00930             480.00
00931             480.00
00932             480.00
00933             480.00
00934             400.00
00935             400.00
00936             400.00
00937             400.00
00938             400.00
00939             400.00
00940             400.00
00941             320.00
00942             400.00
00943             320.00
00944             240.00
00945             320.00
00946             320.00
00947             240.00
00948             240.00
00949             240.00
00950             240.00
00951             240.00
00952             240.00
00953             240.00
00954             240.00
00955             160.00
00956             160.00
00957             160.00
00958             160.00
00959             160.00
00960             160.00
00961             160.00
00962             160.00
00963             160.00
00964             160.00
00965              80.00
00966              80.00
00967              80.00
00968              80.00
00969              80.00
00970              80.00
00971              80.00
00972             -80.00
00973             -80.00
00974             -80.00
00975             -80.00
00976             -80.00
00977            -160.00
00978            -160.00
00979            -160.00
00980            -160.00
00981            -160.00
00982            -160.00
00983            -160.00
00984            -240.00
00985            -160.00
00986            -160.00
00987            -240.00
00988            -240.00
00989            -240.00
00990            -240.00
00991            -240.00
00992            -240.00
00993            -240.00
00994            -240.00
00995            -240.00
00996            -320.00
00997            -240.00
00998            -320.00
00999            -240.00
01000            -400.00
01001            -400.00
01002            -320.00
01003            -400.00
01004            -400.00
01005            -400.00
01006            -480.00
01007            -480.00
01008            -480.00
01009            -480.00
01010            -480.00
01011            -480.00
01012            -480.00
01013            -480.00
01014            -480.00
01015            -560.00
01016            -480.00
01017            -480.00
01018            -480.00
01019            -560.00
01020            -560.00
01021            -560.00
01022            -560.00
01023            -560.00
01024            -640.00
01025            -560.00
01026            -720.00
01027            -560.00
01028            -720.00
01029            -640.00
01030            -720.00
01031            -720.00
01032            -720.00
01033            -720.00
01034            -720.00
01035            -720.00
01036            -880.00
01037            -720.00
01038            -800.00
01039            -800.00
01040            -800.00
01041            -880.00
01042            -800.00
01043            -880.00
01044            -880.00
01045            -880.00
01046            -880.00
01047            -880.00
01048            -880.00
01049            -880.00
01050            -880.00
01051            -880.00
01052            -880.00
01053           -1040.00
01054           -1040.00
01055           -1040.00
01056           -1040.00
01057           -1040.00
01058           -1040.00
01059           -1040.00
01060           -1120.00
01061           -1120.00
01062           -1120.00
01063           -1120.00
01064           -1120.00
01065           -1120.00
01066           -1120.00
01067           -1120.00
01068           -1120.00
01069           -1120.00
01070           -1120.00
01071           -1120.00
01072           -1120.00
01073           -1120.00
01074           -1200.00
01075           -1120.00
01076           -1200.00
01077           -1120.00
01078           -1120.00
01079           -1200.00
01080           -1200.00
01081           -1120.00
01082           -1360.00
01083           -1120.00
01084           -1200.00
01085           -1280.00
01086           -1200.00
01087           -1360.00
01088           -1200.00
01089           -1360.00
01090           -1360.00
01091           -1360.00
01092           -1360.00
01093           -1280.00
01094           -1360.00
01095           -1360.00
01096           -1440.00
01097           -1360.00
01098           -1440.00
01099           -1440.00
01100           -1360.00
01101           -1440.00
01102           -1440.00
01103           -1440.00
01104           -1520.00
01105           -1440.00
01106           -1520.00
01107           -1440.00
01108           -1520.00
01109           -1520.00
01110           -1520.00
01111           -1440.00
01112           -1520.00
01113           -1520.00
01114           -1520.00
01115           -1520.00
01116           -1520.00
01117           -1600.00
01118           -1600.00
01119           -1600.00
01120           -1520.00
01121           -1600.00
01122           -1600.00
01123           -1520.00
01124           -1520.00
01125           -1520.00
01126           -1600.00
01127           -1680.00
01128           -1600.00
01129           -1600.00
01130           -1680.00
01131           -1680.00
01132           -1680.00
01133           -1680.00
01134           -1600.00
01135           -1680.00
01136           -1680.00
01137           -1680.00
01138           -1760.00
01139           -1760.00
01140           -1680.00
01141           -1680.00
01142           -1760.00
01143           -1760.00
01144           -1680.00
01145           -1680.00
01146           -1680.00
01147           -1760.00
01148           -1760.00
01149           -1760.00
01150           -1760.00
01151           -1760.00
01152           -1760.00
01153           -1760.00
01154           -1760.00
01155           -1760.00
01156           -1760.00
01157           -1760.00
01158           -1760.00
01159           -1760.00
01160           -1760.00
01161           -1760.00
01162           -1840.00
01163           -1760.00
01164           -1840.00
01165           -1840.00
01166           -1760.00
01167           -1760.00
01168           -1760.00
01169           -1760.00
01170           -1840.00
01171           -1840.00
01172           -1840.00
01173           -1840.00
01174           -1840.00
01175           -1840.00
01176           -1840.00
01177           -1920.00
01178           -1840.00
01179           -1840.00
01180           -1840.00
01181           -2000.00
01182           -1920.00
01183           -1840.00
01184           -1840.00
01185           -1840.00
01186           -1840.00
01187           -1920.00
01188           -1840.00
01189           -1920.00
01190           -1920.00
01191           -1920.00
01192           -2000.00
01193           -1840.00
01194           -1920.00
01195           -2000.00
01196           -1920.00
01197           -2000.00
01198           -1840.00
01199           -1920.00
01200           -2000.00
01201           -1840.00
01202           -1840.00
01203           -1920.00
01204           -2000.00
01205           -2000.00
01206           -1920.00
01207           -1840.00
01208           -1840.00
01209           -1840.00
01210           -1920.00
01211           -1840.00
01212           -1840.00
01213           -2000.00
01214           -2000.00
01215           -1840.00
01216           -2000.00
01217           -1920.00
01218           -1920.00
01219           -1840.00
01220           -1840.00
01221           -1920.00
01222           -2000.00
01223           -2000.00
01224           -1840.00
01225           -1920.00
01226           -1920.00
01227           -1840.00
01228           -2000.00
01229           -1920.00
01230           -1840.00
01231           -2000.00
01232           -2000.00
01233           -2000.00
01234           -1840.00
01235           -2000.00
01236           -2000.00
01237           -1840.00
01238           -2000.00
01239           -2000.00
01240           -2000.00
01241           -2000.00
01242           -1840.00
01243           -2000.00
01244           -2000.00
01245           -1920.00
01246           -2000.00
01247           -1840.00
01248           -1840.00
01249           -1840.00
01250           -1840.00
01251           -2000.00
01252           -1920.00
01253           -1840.00
01254           -2000.00
01255           -1840.00
01256           -1840.00
01257           -1840.00
01258           -1920.00
01259           -1840.00
01260           -1840.00
01261           -1840.00
01262           -1840.00
01263           -1840.00
01264           -1840.00
01265           -1840.00
01266           -1840.00
01267           -1840.00
01268           -1840.00
01269           -1840.00
01270           -1840.00
01271           -1840.00
01272           -1840.00
01273           -1840.00
01274           -1760.00
01275           -1840.00
01276           -1760.00
01277           -1760.00
01278           -1760.00
01279           -1840.00
01280           -1840.00
01281           -1760.00
01282           -1760.00
01283           -1760.00
01284           -1840.00
01285           -1760.00
01286           -1760.00
01287           -1760.00
01288           -1760.00
01289           -1760.00
01290           -1760.00
01291           -1760.00
01292           -1760.00
01293           -1760.00
01294           -1760.00
01295           -1760.00
01296           -1760.00
01297           -1760.00
01298           -1760.00
01299           -1760.00
01300           -1760.00
01301           -1760.00
01302           -1760.00
01303           -1760.00
01304           -1760.00
01305           -1680.00
01306           -1760.00
01307           -1680.00
01308           -1680.00
01309           -1680.00
01310           -1680.00
01311           -1680.00
01312           -1680.00
01313           -1680.00
01314           -1680.00
01315           -1680.00
01316           -1680.00
01317           -1680.00
01318           -1680.00
01319           -1520.00
01320           -1680.00
01321           -1680.00
01322           -1520.00
01323           -1680.00
01324           -1600.00
01325           -1680.00
01326           -1520.00
01327           -1520.00
01328           -1520.00
01329           -1520.00
01330           -1520.00
01331           -1520.00
01332           -1520.00
01333           -1520.00
01334           -1520.00
01335           -1520.00
01336           -1440.00
01337           -1440.00
01338           -1520.00
01339           -1440.00
01340           -1440.00
01341           -1440.00
01342           -1440.00
01343           -1440.00
01344           -1440.00
01345           -1440.00
01346           -1360.00
01347           -1440.00
01348           -1440.00
01349           -1360.00
01350           -1360.00
01351           -1360.00
01352           -1280.00
01353           -1360.00
01354           -1360.00
01355           -1360.00
01356           -1360.00
01357           -1360.00
01358           -1200.00
01359           -1280.00
01360           -1200.00
01361           -1200.00
01362           -1200.00
01363           -1280.00
01364           -1200.00
01365           -1200.00
01366           -1200.00
01367           -1200.00
01368           -1200.00
01369           -1200.00
01370           -1200.00
01371           -1200.00
01372           -1200.00
01373           -1120.00
01374           -1200.00
01375           -1120.00
01376           -1120.00
01377           -1200.00
01378           -1120.00
01379           -1120.00
01380           -1120.00
01381           -1120.00
01382           -1120.00
01383           -1120.00
01384           -1120.00
01385           -1120.00
01386           -1120.00
01387           -1040.00
01388           -1040.00
01389            -960.00
01390           -1040.00
01391           -1040.00
01392            -960.00
01393            -880.00
01394           -1040.00
01395            -880.00
01396            -880.00
01397            -880.00
01398            -880.00
01399            -880.00
01400            -880.00
01401            -880.00
01402            -800.00
01403            -880.00
01404            -880.00
01405            -800.00
01406            -800.00
01407            -800.00
01408            -800.00
01409            -800.00
01410            -800.00
01411            -720.00
01412            -800.00
01413            -800.00
01414            -720.00
01415            -720.00
01416            -720.00
01417            -720.00
01418            -720.00
01419            -720.00
01420            -560.00
01421            -720.00
01422            -720.00
01423            -560.00
01424            -720.00
01425            -560.00
01426            -640.00
01427            -560.00
01428            -560.00
01429            -560.00
01430            -560.00
01431            -560.00
01432            -480.00
01433            -560.00
01434            -480.00
01435            -480.00
01436            -480.00
01437            -480.00
01438            -480.00
01439            -480.00
01440            -480.00
01441            -480.00
01442            -400.00
01443            -480.00
01444            -400.00
01445            -400.00
01446            -400.00
01447            -400.00
01448            -400.00
01449            -400.00
01450            -400.00
01451            -400.00
01452            -320.00
01453            -240.00
01454            -320.00
01455            -320.00
01456            -240.00
01457            -240.00
01458            -240.00
01459            -240.00
01460            -240.00
01461            -240.00
01462            -240.00
01463            -160.00
01464            -160.00
01465            -240.00
01466             -80.00
01467            -160.00
01468             -80.00
01469            -160.00
01470             -80.00
01471             -80.00
01472             -80.00
01473             -80.00
01474               0.00
01475              80.00
01476             -80.00
01477             -80.00
01478               0.00
01479              80.00
01480              80.00
01481              80.00
01482              80.00
01483              80.00
01484             160.00
01485              80.00
01486             160.00
01487             160.00
01488             160.00
01489              80.00
01490             160.00
01491             160.00
01492             160.00
01493             160.00
01494             160.00
01495             160.00
01496             160.00
01497             160.00
01498             240.00
01499             240.00
01500             240.00
01501             240.00
01502             240.00
01503             240.00
01504             400.00
01505             240.00
01506             400.00
01507             400.00
01508             400.00
01509             400.00
01510             400.00
01511             400.00
01512             400.00
01513             400.00
01514             480.00
01515             480.00
01516             480.00
01517             480.00
01518             480.00
01519             480.00
01520             480.00
01521             480.00
01522             560.00
01523             560.00
01524             560.00
01525             560.00
01526             560.00
01527             560.00
01528             560.00
01529             560.00
01530             560.00
01531             720.00
01532             720.00
01533             720.00
01534             720.00
01535             720.00
01536             720.00
01537             720.00
01538             720.00
01539             720.00
01540             800.00
01541             720.00
01542             800.00
01543             800.00
01544             800.00
01545             800.00
01546             800.00
01547             800.00
01548             800.00
01549             800.00
01550             880.00
01551             880.00
01552             880.00
01553            1040.00
01554             880.00
01555             880.00
01556             880.00
01557             880.00
01558             880.00
01559             960.00
01560             960.00
01561            1040.00
01562             960.00
01563            1040.00
01564            1040.00
01565            1040.00
01566            1040.00
01567            1040.00
01568            1040.00
01569            1040.00
01570            1040.00
01571            1040.00
01572            1040.00
01573            1040.00
01574            1040.00
01575            1120.00
01576            1120.00
01577            1120.00
01578            1120.00
01579            1120.00
01580            1200.00
01581            1120.00
01582            1120.00
01583            1200.00
01584            1120.00
01585            1200.00
01586            1120.00
01587            1200.00
01588            1200.00
01589            1360.00
01590            1360.00
01591            1200.00
01592            1360.00
01593            1360.00
01594            1360.00
01595            1360.00
01596            1360.00
01597            1360.00
01598            1360.00
01599            1360.00
01600            1360.00
01601            1360.00
01602            1360.00
01603            1440.00
01604            1440.00
01605            1440.00
01606            1440.00
01607            1440.00
01608            1440.00
01609            1440.00
01610            1440.00
01611            1440.00
01612            1440.00
01613            1440.00
01614            1440.00
01615            1440.00
01616            1440.00
01617            1520.00
01618            1520.00
01619            1520.00
01620            1520.00
01621            1520.00
01622            1520.00
01623            1520.00
01624            1520.00
01625            1520.00
01626            1520.00
01627            1520.00
01628            1520.00
01629            1520.00
01630            1600.00
01631            1520.00
01632            1680.00
01633            1520.00
01634            1680.00
01635            1680.00
01636            1680.00
01637            1680.00
01638            1680.00
01639            1680.00
01640            1600.00
01641            1680.00
01642            1680.00
01643            1680.00
01644            1680.00
01645            1680.00
01646            1680.00
01647            1680.00
01648            1760.00
01649            1680.00
01650            1760.00
01651            1680.00
01652            1760.00
01653            1680.00
01654            1760.00
01655            1760.00
01656            1760.00
01657            1760.00
01658            1760.00
01659            1760.00
01660            1760.00
01661            1680.00
01662            1760.00
01663            1760.00
01664            1760.00
01665            1840.00
01666            1840.00
01667            1760.00
01668            1760.00
01669            1760.00
01670            1840.00
01671            1760.00
01672            1840.00
01673            1760.00
01674            1840.00
01675            1840.00
01676            1840.00
01677            1840.00
01678            1840.00
01679            1840.00
01680            1840.00
01681            1840.00
01682            1840.00
01683            1840.00
01684            1920.00
01685            1920.00
01686            1920.00
01687            1840.00
01688            1920.00
01689            1920.00
01690            1920.00
01691            1840.00
01692            2000.00
01693            1920.00
01694            1840.00
01695            2000.00
01696            1840.00
01697            1840.00
01698            1920.00
01699            1840.00
01700            1920.00
01701            1920.00
01702            2000.00
01703            2000.00
01704            2000.00
01705            2000.00
01706            1920.00
01707            1920.00
01708            2000.00
01709            2000.00
01710            2000.00
01711            2000.00
01712            2000.00
01713            1920.00
01714            1920.00
01715            2000.00
01716            2000.00
01717            2000.00
01718            2000.00
01719            2000.00
01720            2000.00
01721            2000.00
01722            2000.00
01723            2000.00
01724            2000.00
01725            2000.00
01726            2000.00
01727            2000.00
01728            2000.00
01729            2000.00
01730            2000.00
01731            2080.00
01732            2000.00
01733            2000.00
01734            2000.00
01735            2080.00
01736            2080.00
01737            2000.00
01738            2080.00
01739            2000.00
01740            2000.00
01741            2000.00
01742            2080.00
01743            2000.00
01744            2000.00
01745            2000.00
01746            2080.00
01747            2080.00
01748            2000.00
01749            2000.00
01750            2000.00
01751            2000.00
01752            2000.00
01753            2000.00
01754            1840.00
01755            2080.00
01756            2000.00
01757            1920.00
01758            2000.00
01759            1840.00
01760            1840.00
01761            2000.00
01762            1840.00
01763            1920.00
01764            1920.00
01765            1920.00
01766            1920.00
01767            1840.00
01768            1840.00
01769            2000.00
01770            1840.00
01771            1840.00
01772            1840.00
01773            2000.00
01774            1840.00
01775            1840.00
01776            1920.00
01777            1840.00
01778            1840.00
01779            1840.00
01780            1920.00
01781            1840.00
01782            1840.00
01783            1840.00
01784            1840.00
01785            1840.00
01786            1920.00
01787            1840.00
01788            1840.00
01789            1760.00
01790            1840.00
01791            1760.00
01792            1840.00
01793            1760.00
01794            1840.00
01795            1840.00
01796            1840.00
01797            1840.00
01798            1760.00
01799            1760.00
01800            1840.00
01801            1760.00
01802            1760.00
01803            1760.00
01804            1760.00
01805            1760.00
01806            1760.00
01807            1760.00
01808            1760.00
01809            1760.00
01810            1760.00
01811            1760.00
01812            1760.00
01813            1760.00
01814            1760.00
01815            1760.00
01816            1680.00
01817            1760.00
01818            1680.00
01819            1680.00
01820            1680.00
01821            1680.00
01822            1680.00
01823            1680.00
01824            1680.00
01825            1680.00
01826            1680.00
01827            1680.00
01828            1680.00
01829            1600.00
01830            1600.00
01831            1680.00
01832            1680.00
01833            1520.00
01834            1520.00
01835            1520.00
01836            1600.00
01837            1520.00
01838            1520.00
01839            1680.00
01840            1440.00
01841            1520.00
01842            1520.00
01843            1520.00
01844            1520.00
01845            1440.00
01846            1440.00
01847            1440.00
01848            1440.00
01849            1440.00
01850            1520.00
01851            1520.00
01852            1440.00
01853            1520.00
01854            1440.00
01855            1440.00
01856            1440.00
01857            1440.00
01858            1440.00
01859            1440.00
01860            1440.00
01861            1440.00
01862            1440.00
01863            1360.00
01864            1360.00
01865            1360.00
01866            1360.00
01867            1360.00
01868            1360.00
01869            1360.00
01870            1360.00
01871            1360.00
01872            1360.00
01873            1360.00
01874            1360.00
01875            1360.00
01876            1360.00
01877            1280.00
01878            1280.00
01879            1200.00
01880            1200.00
01881            1200.00
01882            1200.00
01883            1200.00
01884            1120.00
01885            1120.00
01886            1120.00
01887            1120.00
01888            1120.00
01889            1120.00
01890            1120.00
01891            1120.00
01892            1040.00
01893            1040.00
01894            1040.00
01895            1040.00
01896            1120.00
01897            1040.00
01898            1040.00
01899            1040.00
01900            1040.00
01901             960.00
01902            1040.00
01903            1040.00
01904            1040.00
01905            1040.00
01906             960.00
01907             880.00
01908             880.00
01909             960.00
01910             880.00
01911             880.00
01912             880.00
01913             880.00
01914             880.00
01915             880.00
01916             800.00
01917             800.00
01918             800.00
01919             800.00
01920             800.00
01921             800.00
01922             800.00
01923             800.00
01924             800.00
01925             800.00
01926             720.00
01927             800.00
01928             720.00
01929             800.00
01930             720.00
01931             720.00
01932             720.00
01933             720.00
01934             720.00
01935             640.00
01936             640.00
01937             720.00
01938             560.00
01939             720.00
01940             560.00
01941             560.00
01942             560.00
01943             560.00
01944             560.00
01945             480.00
01946             480.00
01947             560.00
01948             480.00
01949             480.00
01950             560.00
01951             480.00
01952             400.00
01953             480.00
01954             400.00
01955             400.00
01956             400.00
01957             400.00
01958             400.00
01959             400.00
01960             400.00
01961             400.00
01962             320.00
01963             240.00
01964             320.00
01965             240.00
01966             240.00
01967             240.00
01968             240.00
01969             160.00
01970             160.00
01971             160.00
01972             160.00
01973             160.00
01974             160.00
01975             160.00
01976             160.00
01977             160.00
01978             160.00
01979              80.00
01980              80.00
01981             160.00
01982             160.00
01983              80.00
01984              80.00
01985              80.00
01986               0.00
01987               0.00
01988               0.00
01989              80.00
01990              80.00
01991              80.00
01992             -80.00
01993             -80.00
01994             -80.00
01995             -80.00
01996             -80.00
01997            -160.00
01998             -80.00
01999             -80.00
02000            -160.00
02001             -80.00
02002            -160.00
02003            -160.00
02004            -160.00
02005            -240.00
02006            -160.00
02007            -240.00
02008            -240.00
02009            -240.00
02010            -240.00
02011            -240.00
02012            -240.00
02013            -240.00
02014            -240.00
02015            -240.00
02016            -320.00
02017            -240.00
02018            -400.00
02019            -400.00
02020            -400.00
02021            -400.00
02022            -480.00
02023            -400.00
02024            -400.00
02025            -480.00
02026            -480.00
02027            -480.00
02028            -480.00
02029            -480.00
02030            -480.00
02031            -480.00
02032            -480.00
02033            -480.00
02034            -560.00
02035            -560.00
02036            -560.00
02037            -560.00
02038            -560.00
02039            -560.00
02040            -640.00
02041            -560.00
02042            -640.00
02043            -720.00
02044            -560.00
02045            -720.00
02046            -640.00
02047            -720.00
02048            -720.00
02049            -800.00
02050            -720.00
02051            -800.00
02052            -720.00
02053            -720.00
02054            -800.00
02055            -800.00
02056            -800.00
02057            -800.00
02058            -800.00
02059            -880.00
02060            -880.00
02061            -800.00
02062            -880.00
02063            -880.00
02064            -880.00
02065            -880.00
02066            -880.00
02067            -880.00
02068            -880.00
02069            -880.00
02070            -960.00
02071            -960.00
02072            -880.00
02073            -960.00
02074           -1040.00
02075            -960.00
02076           -1040.00
02077           -1040.00
02078           -1040.00
02079           -1040.00
02080           -1040.00
02081           -1040.00
02082           -1040.00
02083           -1120.00
02084           -1120.00
02085           -1120.00
02086           -1120.00
02087           -1120.00
02088           -1200.00
02089           -1120.00
02090           -1200.00
02091           -1200.00
02092           -1200.00
02093           -1200.00
02094           -1200.00
02095           -1200.00
02096           -1200.00
02097           -1200.00
02098           -1360.00
02099           -1200.00
02100           -1200.00
02101           -1200.00
02102           -1280.00
02103           -1280.00
02104           -1200.00
02105           -1360.00
02106           -1360.00
02107           -1360.00
02108           -1360.00
02109           -1280.00
02110           -1360.00
02111           -1360.00
02112           -1280.00
02113           -1360.00
02114           -1360.00
02115           -1360.00
02116           -1360.00
02117           -1440.00
02118           -1440.00
02119           -1440.00
02120           -1440.00
02121           -1440.00
02122           -1440.00
02123           -1440.00
02124           -1360.00
02125           -1440.00
02126           -1440.00
02127           -1520.00
02128           -1440.00
02129           -1440.00
02130           -1520.00
02131           -1520.00
02132           -1440.00
02133           -1520.00
02134           -1520.00
02135           -1520.00
02136           -1520.00
02137           -1520.00
02138           -1520.00
02139           -1520.00
02140           -1520.00
02141           -1520.00
02142           -1520.00
02143           -1520.00
02144           -1520.00
02145           -1600.00
02146           -1680.00
02147           -1600.00
02148           -1680.00
02149           -1520.00
02150           -1680.00
02151           -1680.00
02152           -1680.00
02153           -1680.00
02154           -1680.00
02155           -1680.00
02156           -1680.00
02157           -1680.00
02158           -1680.00
02159           -1760.00
02160           -1760.00
02161           -1760.00
02162           -1760.00
02163           -1760.00
02164           -1760.00
02165           -1680.00
02166           -1760.00
02167           -1760.00
02168           -1760.00
02169           -1760.00
02170           -1760.00
02171           -1760.00
02172           -1760.00
02173           -1760.00
02174           -1760.00
02175           -1760.00
02176           -1760.00
02177           -1760.00
02178           -1760.00
02179           -1840.00
02180           -1760.00
02181           -1840.00
02182           -1760.00
02183           -1840.00
02184           -1760.00
02185           -1840.00
02186           -1760.00
02187           -1760.00
02188           -1760.00
02189           -1760.00
02190           -1840.00
02191           -1840.00
02192           -1840.00
02193           -1840.00
02194           -1840.00
02195           -1840.00
02196           -1840.00
02197           -1840.00
02198           -1840.00
02199           -1840.00
02200           -1840.00
02201           -1840.00
02202           -1840.00
02203           -1840.00
02204           -1840.00
02205           -1840.00
02206           -1840.00
02207           -1840.00
02208           -1840.00
02209           -1840.00
02210           -1920.00
02211           -1840.00
02212           -1840.00
02213           -2000.00
02214           -1920.00
02215           -1920.00
02216           -1920.00
02217           -1840.00
02218           -2000.00
02219           -1920.00
02220           -2000.00
02221           -1920.00
02222           -1840.00
02223           -1840.00
02224           -2000.00
02225           -1840.00
02226           -2000.00
02227           -2000.00
02228           -2000.00
02229           -2000.00
02230           -2000.00
02231           -2000.00
02232           -1840.00
02233           -2000.00
02234           -1920.00
02235           -1840.00
02236           -1920.00
02237           -1920.00
02238           -2000.00
02239           -2000.00
02240           -2000.00
02241           -2000.00
02242           -1920.00
02243           -2000.00
02244           -1840.00
02245           -1840.00
02246           -2000.00
02247           -1840.00
02248           -2000.00
02249           -2000.00
02250           -1840.00
02251           -1840.00
02252           -2000.00
02253           -1840.00
02254           -1840.00
02255           -1920.00
02256           -2000.00
02257           -2000.00
02258           -1920.00
02259           -2000.00
02260           -1840.00
02261           -1920.00
02262           -1840.00
02263           -1840.00
02264           -1840.00
02265           -1840.00
02266           -1840.00
02267           -1840.00
02268           -1920.00
02269           -1920.00
02270           -1920.00
02271           -1840.00
02272           -1840.00
02273           -1840.00
02274           -1840.00
02275           -1840.00
02276           -1920.00
02277           -1840.00
02278           -1920.00
02279           -1840.00
02280           -1840.00
02281           -1920.00
02282           -2000.00
02283           -1840.00
02284           -1840.00
02285           -1840.00
02286           -1840.00
02287           -1840.00
02288           -1840.00
02289           -1840.00
02290           -1840.00
02291           -1840.00
02292           -1840.00
02293           -1840.00
02294           -1840.00
02295           -1840.00
02296           -1840.00
02297           -1760.00
02298           -1840.00
02299           -1840.00
02300           -1760.00
02301           -1840.00
02302           -1840.00
02303           -1760.00
02304           -1760.00
02305           -1760.00
02306           -1760.00
02307           -1760.00
02308           -1760.00
02309           -1760.00
02310           -1760.00
02311           -1760.00
02312           -1760.00
02313           -1760.00
02314           -1760.00
02315           -1760.00
02316           -1760.00
02317           -1760.00
02318           -1680.00
02319           -1760.00
02320           -1760.00
02321           -1760.00
02322           -1760.00
02323           -1760.00
02324           -1680.00
02325           -1680.00
02326           -1680.00
02327           -1680.00
02328           -1680.00
02329           -1680.00
02330           -1680.00
02331           -1680.00
02332           -1680.00
02333           -1680.00
02334           -1520.00
02335           -1680.00
02336           -1520.00
02337           -1520.00
02338           -1600.00
02339           -1520.00
02340           -1600.00
02341           -1520.00
02342           -1680.00
02343           -1520.00
02344           -1520.00
02345           -1600.00
02346           -1520.00
02347           -1600.00
02348           -1520.00
02349           -1520.00
02350           -1520.00
02351           -1520.00
02352           -1520.00
02353           -1520.00
02354           -1520.00
02355           -1520.00
02356           -1520.00
02357           -1520.00
02358           -1440.00
02359           -1440.00
02360           -1440.00
02361           -1520.00
02362           -1440.00
02363           -1440.00
02364           -1520.00
02365           -1440.00
02366           -1440.00
02367           -1440.00
02368           -1440.00
02369           -1360.00
02370           -1360.00
02371           -1440.00
02372           -1360.00
02373           -1360.00
02374           -1360.00
02375           -1280.00
02376           -1360.00
02377           -1360.00
02378           -1360.00
02379           -1200.00
02380           -1200.00
02381           -1360.00
02382           -1200.00
02383           -1360.00
02384           -1200.00
02385           -1200.00
02386           -1200.00
02387           -1200.00
02388           -1200.00
02389           -1200.00
02390           -1120.00
02391           -1200.00
02392           -1120.00
02393           -1200.00
02394           -1120.00
02395           -1120.00
02396           -1120.00
02397           -1120.00
02398           -1120.00
02399           -1120.00
02400           -1120.00
02401           -1120.00
02402           -1040.00
02403           -1120.00
02404           -1040.00
02405           -1120.00
02406           -1040.00
02407           -1040.00
02408           -1120.00
02409            -960.00
02410           -1040.00
02411           -1040.00
02412            -880.00
02413           -1040.00
02414            -880.00
02415            -880.00
02416            -880.00
02417            -960.00
02418            -880.00
02419            -880.00
02420            -880.00
02421            -880.00
02422            -880.00
02423            -880.00
02424            -880.00
02425            -800.00
02426            -880.00
02427            -800.00
02428            -800.00
02429            -880.00
02430            -800.00
02431            -800.00
02432            -800.00
02433            -800.00
02434            -720.00
02435            -720.00
02436            -720.00
02437            -640.00
02438            -720.00
02439            -720.00
02440            -720.00
02441            -720.00
02442            -640.00
02443            -560.00
02444            -560.00
02445            -640.00
02446            -560.00
02447            -560.00
02448            -560.00
02449            -480.00
02450            -560.00
02451            -560.00
02452            -560.00
02453            -480.00
02454            -480.00
02455            -480.00
02456            -480.00
02457            -400.00
02458            -480.00
02459            -480.00
02460            -480.00
02461            -400.00
02462            -400.00
02463            -400.00
02464            -320.00
02465            -400.00
02466            -400.00
02467            -400.00
02468            -400.00
02469            -240.00
02470            -320.00
02471            -240.00
02472            -240.00
02473            -320.00
02474            -240.00
02475            -240.00
02476            -240.00
02477            -240.00
02478            -240.00
02479            -240.00
02480            -240.00
02481            -160.00
02482            -160.00
02483            -160.00
02484            -240.00
02485            -160.00
02486            -160.00
02487            -160.00
02488            -160.00
02489             -80.00
02490            -160.00
02491             -80.00
02492             -80.00
02493             -80.00
02494             -80.00
02495             -80.00
02496             -80.00
02497             -80.00
02498              80.00
02499              80.00
02500              80.00
02501              80.00
02502              80.00
02503              80.00
02504              80.00
02505             160.00
02506             160.00
02507              80.00
02508             160.00
02509             160.00
02510             160.00
02511             160.00
02512             160.00
02513             160.00
02514             160.00
02515             160.00
02516             240.00
02517             240.00
02518             240.00
02519             240.00
02520             320.00
02521             240.00
02522             400.00
02523             320.00
02524             400.00
02525             400.00
02526             400.00
02527             400.00
02528             400.00
02529             400.00
02530             400.00
02531             400.00
02532             480.00
02533             400.00
02534             480.00
02535             480.00
02536             480.00
02537             480.00
02538             480.00
02539             480.00
02540             480.00
02541             560.00
02542             560.00
02543             480.00
02544             560.00
02545             560.00
02546             560.00
02547             560.00
02548             560.00
02549             560.00
02550             560.00
02551             640.00
02552             720.00
02553             560.00
02554             720.00
02555             720.00
02556             720.00
02557             720.00
02558             720.00
02559             800.00
02560             720.00
02561             800.00
02562             800.00
02563             800.00
02564             800.00
02565             800.00
02566             880.00
02567             800.00
02568             800.00
02569             880.00
02570             800.00
02571            1040.00
02572             880.00
02573             880.00
02574             880.00
02575             880.00
02576             880.00
02577             960.00
02578            1040.00
02579            1040.00
02580            1040.00
02581            1040.00
02582            1040.00
02583            1040.00
02584            1040.00
02585            1040.00
02586            1040.00
02587            1040.00
02588            1040.00
02589            1040.00
02590            1120.00
02591            1040.00
02592            1120.00
02593            1040.00
02594            1120.00
02595            1120.00
02596            1200.00
02597            1120.00
02598            1120.00
02599            1120.00
02600            1200.00
02601            1200.00
02602            1200.00
02603            1200.00
02604            1200.00
02605            1200.00
02606            1200.00
02607            1200.00
02608            1200.00
02609            1360.00
02610            1200.00
02611            1280.00
02612            1200.00
02613            1200.00
02614            1200.00
02615            1360.00
02616            1360.00
02617            1360.00
02618            1360.00
02619            1360.00
02620            1360.00
02621            1360.00
02622            1360.00
02623            1360.00
02624            1360.00
02625            1360.00
02626            1440.00
02627            1360.00
02628            1440.00
02629            1440.00
02630            1440.00
02631            1440.00
02632            1440.00
02633            1440.00
02634            1440.00
02635            1520.00
02636            1440.00
02637            1520.00
02638            1440.00
02639            1520.00
02640            1520.00
02641            1520.00
02642            1520.00
02643            1520.00
02644            1520.00
02645            1600.00
02646            1600.00
02647            1680.00
02648            1600.00
02649            1680.00
02650            1680.00
02651            1680.00
02652            1600.00
02653            1680.00
02654            1680.00
02655            1680.00
02656            1680.00
02657            1680.00
02658            1680.00
02659            1680.00
02660            1680.00
02661            1680.00
02662            1680.00
02663            1680.00
02664            1680.00
02665            1680.00
02666            1680.00
02667            1760.00
02668            1760.00
02669            1680.00
02670            1680.00
02671            1760.00
02672            1680.00
02673            1760.00
02674            1760.00
02675            1760.00
02676            1680.00
02677            1760.00
02678            1680.00
02679            1760.00
02680            1760.00
02681            1840.00
02682            1760.00
02683            1760.00
02684            1760.00
02685            1760.00
02686            1760.00
02687            1760.00
02688            1760.00
02689            1840.00
02690            1840.00
02691            1760.00
02692            1840.00
02693            1760.00
02694            1840.00
02695            1840.00
02696            1840.00
02697            1840.00
02698            1840.00
02699            1840.00
02700            1840.00
02701            1840.00
02702            1840.00
02703            1840.00
02704            1840.00
02705            1840.00
02706            1840.00
02707            1840.00
02708            2000.00
02709            2000.00
02710            2000.00
02711            2000.00
02712            1920.00
02713            1920.00
02714            2000.00
02715            1840.00
02716            2000.00
02717            2000.00
02718            2000.00
02719            2000.00
02720            2000.00
02721            1920.00
02722            2000.00
02723            2000.00
02724            2000.00
02725            2000.00
02726            2000.00
02727            2000.00
02728            2080.00
02729            2000.00
02730            1920.00
02731            2000.00
02732            2000.00
02733            2000.00
02734            2000.00
02735            2000.00
02736            1920.00
02737            2000.00
02738            1920.00
02739            2000.00
02740            2000.00
02741            2000.00
02742            1920.00
02743            2000.00
02744            2000.00
02745            1920.00
02746            2000.00
02747            2000.00
02748            2000.00
02749            2000.00
02750            2000.00
02751            2000.00
02752            2000.00
02753            2000.00
02754            1920.00
02755            2000.00
02756            2000.00
02757            2000.00
02758            2080.00
02759            2000.00
02760            2000.00
02761            2000.00
02762            2000.00
02763            2000.00
02764            2000.00
02765            2000.00
02766            2000.00
02767            2000.00
02768            1920.00
02769            2000.00
02770            1920.00
02771            2000.00
02772            2000.00
02773            2000.00
02774            2000.00
02775            2000.00
02776            2000.00
02777            1920.00
02778            2000.00
02779            2000.00
02780            1920.00
02781            2000.00
02782            2000.00
02783            2000.00
02784            2000.00
02785            1920.00
02786            2000.00
02787            2000.00
02788            2000.00
02789            1920.00
02790            2000.00
02791            2000.00
02792            1840.00
02793            1920.00
02794            1920.00
02795            1840.00
02796            1840.00
02797            1840.00
02798            1840.00
02799            1840.00
02800            1840.00
02801            1840.00
02802            1840.00
02803            1840.00
02804            1840.00
02805            1840.00
02806            1760.00
02807            1840.00
02808            1840.00
02809            1840.00
02810            1760.00
02811            1840.00
02812            1760.00
02813            1760.00
02814            1760.00
02815            1760.00
02816            1840.00
02817            1840.00
02818            1760.00
02819            1760.00
02820            1840.00
02821            1760.00
02822            1760.00
02823            1760.00
02824            1760.00
02825            1760.00
02826            1760.00
02827            1760.00
02828            1760.00
02829            1760.00
02830            1760.00
02831            1760.00
02832            1680.00
02833            1680.00
02834            1680.00
02835            1680.00
02836            1760.00
02837            1680.00
02838            1680.00
02839            1680.00
02840            1680.00
02841            1680.00
02842            1680.00
02843            1680.00
02844            1680.00
02845            1680.00
02846            1680.00
02847            1680.00
02848            1680.00
02849            1680.00
02850            1680.00
02851            1600.00
02852            1680.00
02853            1600.00
02854            1600.00
02855            1680.00
02856            1680.00
02857            1520.00
02858            1520.00
02859            1520.00
02860            1520.00
02861            1520.00
02862            1520.00
02863            1520.00
02864            1520.00
02865            1520.00
02866            1440.00
02867            1440.00
02868            1520.00
02869            1440.00
02870            1440.00
02871            1440.00
02872            1440.00
02873            1440.00
02874            1440.00
02875            1440.00
02876            1440.00
02877            1440.00
02878            1440.00
02879            1440.00
02880            1360.00
02881            1360.00
02882            1360.00
02883            1360.00
02884            1360.00
02885            1360.00
02886            1360.00
02887            1360.00
02888            1360.00
02889            1360.00
02890            1360.00
02891            1280.00
02892            1280.00
02893            1280.00
02894            1360.00
02895            1280.00
02896            1280.00
02897            1200.00
02898            1200.00
02899            1200.00
02900            1200.00
02901            1200.00
02902            1120.00
02903            1200.00
02904            1200.00
02905            1120.00
02906            1200.00
02907            1120.00
02908            1120.00
02909            1120.00
02910            1120.00
02911            1040.00
02912            1120.00
02913            1120.00
02914            1120.00
02915            1040.00
02916            1040.00
02917            1040.00
02918            1040.00
02919            1040.00
02920            1040.00
02921            1040.00
02922            1040.00
02923            1040.00
02924            1040.00
02925            1040.00
02926             960.00
02927             880.00
02928             880.00
02929             880.00
02930             880.00
02931             880.00
02932             880.00
02933             880.00
02934             880.00
02935             880.00
02936             800.00
02937             800.00
02938             800.00
02939             800.00
02940             800.00
02941             800.00
02942             800.00
02943             720.00
02944             720.00
02945             720.00
02946             800.00
02947             720.00
02948             720.00
02949             720.00
02950             720.00
02951             720.00
02952             720.00
02953             720.00
02954             720.00
02955             560.00
02956             640.00
02957             560.00
02958             560.00
02959             640.00
02960             560.00
02961             560.00
02962             480.00
02963             560.00
02964             480.00
02965             480.00
02966             480.00
02967             480.00
02968             560.00
02969             480.00
02970             480.00
02971             480.00
02972             400.00
02973             400.00
02974             400.00
02975             480.00
02976             400.00
02977             400.00
02978             400.00
02979             400.00
02980             400.00
02981             400.00
02982             400.00
02983             400.00
02984             320.00
02985             240.00
02986             240.00
02987             240.00
02988             240.00
02989             240.00
02990             160.00
02991             240.00
02992             160.00
02993             160.00
02994             160.00
02995             160.00
02996             160.00
02997              80.00
02998             160.00
02999             160.00
03000              80.00
03001             160.00
03002              80.00
03003              80.00
03004              80.00
03005              80.00
03006              80.00
03007              80.00
03008               0.00
03009             -80.00
03010             -80.00
03011             -80.00
03012             -80.00
03013             -80.00
03014             -80.00
03015              80.00
03016             -80.00
03017            -160.00
03018             -80.00
03019            -240.00
03020            -160.00
03021            -240.00
03022            -160.00
03023            -160.00
03024            -160.00
03025            -240.00
03026            -240.00
03027            -240.00
03028            -240.00
03029            -240.00
03030            -240.00
03031            -240.00
03032            -240.00
03033            -240.00
03034            -240.00
03035            -240.00
03036            -320.00
03037            -400.00
03038            -320.00
03039            -400.00
03040            -400.00
03041            -400.00
03042            -480.00
03043            -400.00
03044            -400.00
03045            -400.00
03046            -480.00
03047            -400.00
03048            -480.00
03049            -480.00
03050            -480.00
03051            -480.00
03052            -480.00
03053            -480.00
03054            -560.00
03055            -560.00
03056            -560.00
03057            -560.00
03058            -560.00
03059            -640.00
03060            -640.00
03061            -720.00
03062            -720.00
03063            -720.00
03064            -720.00
03065            -640.00
03066            -720.00
03067            -800.00
03068            -720.00
03069            -720.00
03070            -800.00
03071            -720.00
03072            -800.00
03073            -800.00
03074            -800.00
03075            -800.00
03076            -800.00
03077            -800.00
03078            -880.00
03079            -800.00
03080            -880.00
03081            -880.00
03082            -880.00
03083            -880.00
03084            -880.00
03085            -880.00
03086            -880.00
03087            -880.00
03088            -880.00
03089            -880.00
03090            -880.00
03091            -880.00
03092            -960.00
03093           -1040.00
03094           -1040.00
03095           -1040.00
03096           -1040.00
03097           -1040.00
03098           -1040.00
03099           -1040.00
03100           -1040.00
03101           -1040.00
03102           -1040.00
03103           -1120.00
03104           -1040.00
03105           -1120.00
03106           -1120.00
03107           -1120.00
03108           -1120.00
03109           -1120.00
03110           -1120.00
03111           -1200.00
03112           -1200.00
03113           -1200.00
03114           -1120.00
03115           -1120.00
03116           -1200.00
03117           -1200.00
03118           -1200.00
03119           -1200.00
03120           -1200.00
03121           -1200.00
03122           -1200.00
03123           -1200.00
03124           -1360.00
03125           -1200.00
03126           -1360.00
03127           -1200.00
03128           -1360.00
03129           -1360.00
03130           -1360.00
03131           -1360.00
03132           -1440.00
03133           -1440.00
03134           -1360.00
03135           -1360.00
03136           -1440.00
03137           -1360.00
03138           -1440.00
03139           -1440.00
03140           -1440.00
03141           -1440.00
03142           -1440.00
03143           -1440.00
03144           -1440.00
03145           -1520.00
03146           -1520.00
03147           -1520.00
03148           -1520.00
03149           -1520.00
03150           -1440.00
03151           -1520.00
03152           -1520.00
03153           -1520.00
03154           -1520.00
03155           -1520.00
03156           -1520.00
03157           -1520.00
03158           -1520.00
03159           -1520.00
03160           -1520.00
03161           -1520.00
03162           -1520.00
03163           -1680.00
03164           -1680.00
03165           -1520.00
03166           -1520.00
03167           -1520.00
03168           -1600.00
03169           -1680.00
03170           -1680.00
03171           -1680.00
03172           -1600.00
03173           -1680.00
03174           -1680.00
03175           -1680.00
03176           -1680.00
03177           -1680.00
03178           -1760.00
03179           -1680.00
03180           -1680.00
03181           -1760.00
03182           -1760.00
03183           -1680.00
03184           -1760.00
03185           -1760.00
03186           -1760.00
03187           -1680.00
03188           -1760.00
03189           -1760.00
03190           -1760.00
03191           -1760.00
03192           -1760.00
03193           -1760.00
03194           -1760.00
03195           -1840.00
03196           -1760.00
03197           -1760.00
03198           -1840.00
03199           -1760.00
03200           -1840.00
03201           -1840.00
03202           -1840.00
03203           -1760.00
03204           -1840.00
03205           -1760.00
03206           -1840.00
03207           -1840.00
03208           -1840.00
03209           -1840.00
03210           -1840.00
03211           -1840.00
03212           -1840.00
03213           -1840.00
03214           -1840.00
03215           -1840.00
03216           -1840.00
03217           -1840.00
03218           -1840.00
03219           -1840.00
03220           -1840.00
03221           -1840.00
03222           -1840.00
03223           -1840.00
03224           -1840.00
03225           -1920.00
03226           -1840.00
03227           -1920.00
03228           -1840.00
03229           -1840.00
03230           -1840.00
03231           -1840.00
03232           -1840.00
03233           -1840.00
03234           -1840.00
03235           -1840.00
03236           -1920.00
03237           -1840.00
03238           -1840.00
03239           -2000.00
03240           -2000.00
03241           -1840.00
03242           -1840.00
03243           -2000.00
03244           -1840.00
03245           -1840.00
03246           -2000.00
03247           -1840.00
03248           -2000.00
03249           -1840.00
03250           -2000.00
03251           -1840.00
03252           -1840.00
03253           -2000.00
03254           -2000.00
03255           -1840.00
03256           -1920.00
03257           -2000.00
03258           -2000.00
03259           -1920.00
03260           -2000.00
03261           -2000.00
03262           -2000.00
03263           -2000.00
03264           -2000.00
03265           -2000.00
03266           -1920.00
03267           -2000.00
03268           -2000.00
03269           -1920.00
03270           -1920.00
03271           -2000.00
03272           -1920.00
03273           -2000.00
03274           -1920.00
03275           -2000.00
03276           -2000.00
03277           -2000.00
03278           -1840.00
03279           -2000.00
03280           -2000.00
03281           -2000.00
03282           -2000.00
03283           -2000.00
03284           -1840.00
03285           -1840.00
03286           -1840.00
03287           -1840.00
03288           -1840.00
03289           -1840.00
03290           -1840.00
03291           -1840.00
03292           -1840.00
03293           -1920.00
03294           -1840.00
03295           -1840.00
03296           -1840.00
03297           -1840.00
03298           -1840.00
03299           -1840.00
03300           -1840.00
03301           -1920.00
03302           -1840.00
03303           -1840.00
03304           -1840.00
03305           -1840.00
03306           -1760.00
03307           -1840.00
03308           -1840.00
03309           -1840.00
03310           -1840.00
03311           -1840.00
03312           -1840.00
03313           -1840.00
03314           -1840.00
03315           -1760.00
03316           -1760.00
03317           -1760.00
03318           -1840.00
03319           -1760.00
03320           -1840.00
03321           -1840.00
03322           -1760.00
03323           -1760.00
03324           -1840.00
03325           -1840.00
03326           -1760.00
03327           -1760.00
03328           -1760.00
03329           -1760.00
03330           -1760.00
03331           -1760.00
03332           -1760.00
03333           -1760.00
03334           -1760.00
03335           -1760.00
03336           -1760.00
03337           -1760.00
03338           -1760.00
03339           -1760.00
03340           -1760.00
03341           -1760.00
03342           -1760.00
03343           -1760.00
03344           -1760.00
03345           -1760.00
03346           -1760.00
03347           -1680.00
03348           -1680.00
03349           -1680.00
03350           -1680.00
03351           -1680.00
03352           -1680.00
03353           -1680.00
03354           -1680.00
03355           -1680.00
03356           -1680.00
03357           -1680.00
03358           -1600.00
03359           -1600.00
03360           -1520.00
03361           -1520.00
03362           -1520.00
03363           -1520.00
03364           -1520.00
03365           -1520.00
03366           -1520.00
03367           -1520.00
03368           -1520.00
03369           -1520.00
03370           -1520.00
03371           -1520.00
03372           -1440.00
03373           -1520.00
03374           -1520.00
03375           -1440.00
03376           -1520.00
03377           -1440.00
03378           -1520.00
03379           -1360.00
03380           -1440.00
03381           -1440.00
03382           -1440.00
03383           -1440.00
03384           -1440.00
03385           -1360.00
03386           -1440.00
03387           -1440.00
03388           -1440.00
03389           -1360.00
03390           -1440.00
03391           -1440.00
03392           -1360.00
03393           -1360.00
03394           -1360.00
03395           -1360.00
03396           -1360.00
03397           -1280.00
03398           -1360.00
03399           -1360.00
03400           -1360.00
03401           -1200.00
03402           -1200.00
03403           -1200.00
03404           -1200.00
03405           -1200.00
03406           -1200.00
03407           -1200.00
03408           -1200.00
03409           -1200.00
03410           -1200.00
03411           -1120.00
03412           -1200.00
03413           -1120.00
03414           -1120.00
03415           -1120.00
03416           -1120.00
03417           -1120.00
03418           -1120.00
03419           -1120.00
03420           -1120.00
03421           -1120.00
03422           -1120.00
03423           -1120.00
03424           -1040.00
03425           -1120.00
03426           -1040.00
03427           -1040.00
03428           -1040.00
03429            -960.00
03430           -1040.00
03431            -880.00
03432            -960.00
03433            -880.00
03434            -880.00
03435            -880.00
03436            -960.00
03437            -880.00
03438            -880.00
03439            -880.00
03440            -880.00
03441            -880.00
03442            -880.00
03443            -880.00
03444            -800.00
03445            -880.00
03446            -800.00
03447            -800.00
03448            -880.00
03449            -800.00
03450            -800.00
03451            -800.00
03452            -800.00
03453            -800.00
03454            -720.00
03455            -720.00
03456            -800.00
03457            -720.00
03458            -720.00
03459            -720.00
03460            -720.00
03461            -720.00
03462            -720.00
03463            -720.00
03464            -560.00
03465            -560.00
03466            -640.00
03467            -640.00
03468            -560.00
03469            -560.00
03470            -560.00
03471            -560.00
03472            -560.00
03473            -560.00
03474            -480.00
03475            -480.00
03476            -480.00
03477            -480.00
03478            -480.00
03479            -480.00
03480            -480.00
03481            -480.00
03482            -400.00
03483            -400.00
03484            -400.00
03485            -400.00
03486            -400.00
03487            -240.00
03488            -320.00
03489            -240.00
03490            -400.00
03491            -240.00
03492            -240.00
03493            -240.00
03494            -240.00
03495            -240.00
03496            -240.00
03497            -240.00
03498            -240.00
03499            -240.00
03500            -240.00
03501            -160.00
03502            -160.00
03503            -160.00
03504            -160.00
03505            -160.00
03506            -160.00
03507             -80.00
03508            -160.00
03509             -80.00
03510             -80.00
03511             -80.00
03512              80.00
03513               0.00
03514             -80.00
03515             -80.00
03516              80.00
03517             -80.00
03518              80.00
03519              80.00
03520              80.00
03521              80.00
03522              80.00
03523              80.00
03524              80.00
03525              80.00
03526              80.00
03527             160.00
03528              80.00
03529              80.00
03530             160.00
03531             160.00
03532             160.00
03533             160.00
03534             160.00
03535             160.00
03536             160.00
03537             160.00
03538             240.00
03539             240.00
03540             160.00
03541             240.00
03542             240.00
03543             240.00
03544             320.00
03545             400.00
03546             400.00
03547             320.00
03548             400.00
03549             400.00
03550             480.00
03551             400.00
03552             480.00
03553             400.00
03554             480.00
03555             400.00
03556             480.00
03557             560.00
03558             560.00
03559             480.00
03560             560.00
03561             560.00
03562             560.00
03563             560.00
03564             560.00
03565             640.00
03566             560.00
03567             560.00
03568             560.00
03569             720.00
03570             640.00
03571             720.00
03572             720.00
03573             640.00
03574             720.00
03575             720.00
03576             720.00
03577             800.00
03578             800.00
03579             720.00
03580             800.00
03581             800.00
03582             720.00
03583             800.00
03584             800.00
03585             800.00
03586             800.00
03587             880.00
03588             800.00
03589             800.00
03590             800.00
03591             880.00
03592             880.00
03593             880.00
03594             880.00
03595             880.00
03596             960.00
03597             880.00
03598            1040.00
03599             960.00
03600             880.00
03601             960.00
03602            1040.00
03603            1040.00
03604            1040.00
03605            1040.00
03606            1040.00
03607            1040.00
03608            1120.00
03609            1040.00
03610            1120.00
03611            1040.00
03612            1120.00
03613            1120.00
03614            1040.00
03615            1120.00
03616            1120.00
03617            1120.00
03618            1120.00
03619            1120.00
03620            1120.00
03621            1200.00
03622            1200.00
03623            1200.00
03624            1200.00
03625            1200.00
03626            1200.00
03627            1200.00
03628            1200.00
03629            1280.00
03630            1280.00
03631            1360.00
03632            1280.00
03633            1360.00
03634            1360.00
03635            1360.00
03636            1360.00
03637            1360.00
03638            1360.00
03639            1360.00
03640            1440.00
03641            1440.00
03642            1440.00
03643            1440.00
03644            1360.00
03645            1440.00
03646            1360.00
03647            1440.00
03648            1440.00
03649            1440.00
03650            1440.00
03651            1440.00
03652            1440.00
03653            1440.00
03654            1440.00
03655            1440.00
03656            1440.00
03657            1440.00
03658            1440.00
03659            1520.00
03660            1440.00
03661            1520.00
03662            1520.00
03663            1520.00
03664            1520.00
03665            1600.00
03666            1520.00
03667            1520.00
03668            1520.00
03669            1520.00
03670            1600.00
03671            1680.00
03672            1680.00
03673            1680.00
03674            1520.00
03675            1680.00
03676            1680.00
03677            1680.00
03678            1680.00
03679            1680.00
03680            1680.00
03681            1680.00
03682            1680.00
03683            1680.00
03684            1760.00
03685            1680.00
03686            1680.00
03687            1680.00
03688            1680.00
03689            1760.00
03690            1760.00
03691            1760.00
03692            1680.00
03693            1760.00
03694            1760.00
03695            1760.00
03696            1760.00
03697            1760.00
03698            1760.00
03699            1760.00
03700            1760.00
03701            1760.00
03702            1840.00
03703            1760.00
03704            1760.00
03705            1840.00
03706            1840.00
03707            1760.00
03708            1840.00
03709            1760.00
03710            1760.00
03711            1840.00
03712            1760.00
03713            1840.00
03714            1840.00
03715            1840.00
03716            1840.00
03717            1840.00
03718            1840.00
03719            1840.00
03720            1840.00
03721            1840.00
03722            1840.00
03723            1840.00
03724            1840.00
03725            1840.00
03726            1840.00
03727            1920.00
03728            2000.00
03729            1920.00
03730            1840.00
03731            1920.00
03732            1920.00
03733            1920.00
03734            1840.00
03735            1840.00
03736            1920.00
03737            1840.00
03738            2000.00
03739            2000.00
03740            2000.00
03741            1840.00
03742            1920.00
03743            1840.00
03744            2000.00
03745            1920.00
03746            2000.00
03747            2000.00
03748            2000.00
03749            2000.00
03750            2000.00
03751            1920.00
03752            2000.00
03753            2000.00
03754            2000.00
03755            2000.00
03756            2000.00
03757            2000.00
03758            2000.00
03759            2000.00
03760            2000.00
03761            2000.00
03762            2000.00
03763            2000.00
03764            2000.00
03765            2080.00
03766            2000.00
03767            2000.00
03768            2000.00
03769            2000.00
03770            2000.00
03771            2000.00
03772            2000.00
03773            2000.00
03774            2000.00
03775            2000.00
03776            2000.00
03777            2000.00
03778            2000.00
03779            2000.00
03780            2000.00
03781            2000.00
03782            2000.00
03783            2000.00
03784            2000.00
03785            2000.00
03786            1840.00
03787            1920.00
03788            2000.00
03789            2000.00
03790            2000.00
03791            2000.00
03792            2000.00
03793            2000.00
03794            2000.00
03795            2000.00
03796            1920.00
03797            2000.00
03798            1840.00
03799            1920.00
03800            2000.00
03801            2000.00
03802            2000.00
03803            2000.00
03804            1840.00
03805            1840.00
03806            1920.00
03807            2000.00
03808            1920.00
03809            1920.00
03810            2000.00
03811            1840.00
03812            1920.00
03813            1840.00
03814            1840.00
03815            1840.00
03816            1920.00
03817            1840.00
03818            1840.00
03819            1840.00
03820            1920.00
03821            1840.00
03822            1840.00
03823            1840.00
03824            1920.00
03825            1840.00
03826            1840.00
03827            1840.00
03828            1840.00
03829            1840.00
03830            1840.00
03831            1840.00
03832            1840.00
03833            1840.00
03834            1840.00
03835            1760.00
03836            1760.00
03837            1840.00
03838            1760.00
03839            1760.00
03840            1760.00
03841            1760.00
03842            1760.00
03843            1760.00
03844            1760.00
03845            1760.00
03846            1760.00
03847            1760.00
03848            1760.00
03849            1760.00
03850            1680.00
03851            1760.00
03852            1680.00
03853            1680.00
03854            1680.00
03855            1680.00
03856            1680.00
03857            1680.00
03858            1680.00
03859            1680.00
03860            1680.00
03861            1680.00
03862            1680.00
03863            1680.00
03864            1680.00
03865            1680.00
03866            1600.00
03867            1520.00
03868            1680.00
03869            1600.00
03870            1680.00
03871            1680.00
03872            1680.00
03873            1680.00
03874            1520.00
03875            1600.00
03876            1600.00
03877            1520.00
03878            1600.00
03879            1520.00
03880            1680.00
03881            1520.00
03882            1520.00
03883            1520.00
03884            1520.00
03885            1520.00
03886            1520.00
03887            1520.00
03888            1440.00
03889            1520.00
03890            1440.00
03891            1440.00
03892            1440.00
03893            1440.00
03894            1440.00
03895            1440.00
03896            1440.00
03897            1360.00
03898            1440.00
03899            1440.00
03900            1360.00
03901            1440.00
03902            1440.00
03903            1360.00
03904            1360.00
03905            1360.00
03906            1360.00
03907            1360.00
03908            1360.00
03909            1280.00
03910            1360.00
03911            1200.00
03912            1280.00
03913            1200.00
03914            1360.00
03915            1280.00
03916            1200.00
03917            1200.00
03918            1200.00
03919            1120.00
03920            1120.00
03921            1120.00
03922            1120.00
03923            1200.00
03924            1120.00
03925            1120.00
03926            1120.00
03927            1120.00
03928            1040.00
03929            1120.00
03930            1040.00
03931            1040.00
03932            1040.00
03933            1040.00
03934            1040.00
03935            1040.00
03936            1040.00
03937            1040.00
03938            1040.00
03939            1040.00
03940            1040.00
03941             960.00
03942            1040.00
03943            1040.00
03944            1040.00
03945            1040.00
03946             960.00
03947             880.00
03948            1040.00
03949             880.00
03950             880.00
03951             880.00
03952             880.00
03953             800.00
03954             880.00
03955             880.00
03956             800.00
03957             880.00
03958             800.00
03959             800.00
03960             800.00
03961             800.00
03962             720.00
03963             800.00
03964             800.00
03965             720.00
03966             720.00
03967             720.00
03968             720.00
03969             720.00
03970             720.00
03971             720.00
03972             720.00
03973             640.00
03974             720.00
03975             560.00
03976             560.00
03977             560.00
03978             560.00
03979             560.00
03980             560.00
03981             560.00
03982             560.00
03983             560.00
03984             480.00
03985             480.00
03986             480.00
03987             480.00
03988             480.00
03989             480.00
03990             480.00
03991             400.00
03992             400.00
03993             400.00
03994             400.00
03995             400.00
03996             400.00
03997             400.00
03998             400.00
03999             240.00
04000             400.00
04001             320.00
04002             320.00
04003             240.00
04004             240.00
04005             240.00
04006             240.00
04007             240.00
04008             240.00
04009             160.00
04010             240.00
04011             240.00
04012             160.00
04013             240.00
04014             160.00
04015             160.00
04016             160.00
04017             160.00
04018             160.00
04019             160.00
04020             160.00
04021              80.00
04022              80.00
04023              80.00
04024              80.00
04025              80.00
04026               0.00
04027              80.00
04028              80.00
04029              80.00
04030               0.00
04031             -80.00
04032             -80.00
04033             -80.00
04034             -80.00
04035             -80.00
04036             -80.00
04037            -160.00
04038            -160.00
04039            -160.00
04040            -160.00
04041            -160.00
04042            -240.00
04043            -160.00
04044            -240.00
04045            -240.00
04046            -240.00
04047            -240.00
04048            -240.00
04049            -240.00
04050            -240.00
04051            -240.00
04052            -240.00
04053            -240.00
04054            -240.00
04055            -400.00
04056            -400.00
04057            -400.00
04058            -400.00
04059            -400.00
04060            -400.00
04061            -400.00
04062            -400.00
04063            -480.00
04064            -480.00
04065            -480.00
04066            -480.00
04067            -480.00
04068            -480.00
04069            -480.00
04070            -480.00
04071            -560.00
04072            -560.00
04073            -560.00
04074            -560.00
04075            -560.00
04076            -560.00
04077            -560.00
04078            -560.00
04079            -560.00
04080            -560.00
04081            -560.00
04082            -640.00
04083            -720.00
04084            -560.00
04085            -720.00
04086            -640.00
04087            -720.00
04088            -720.00
04089            -720.00
04090            -720.00
04091            -720.00
04092            -800.00
04093            -800.00
04094            -800.00
04095            -800.00
04096            -800.00
04097            -800.00
04098            -880.00
04099            -800.00
04100            -800.00
04101            -880.00
04102            -880.00
04103            -880.00
04104            -880.00
04105            -960.00
04106            -880.00
04107            -880.00
04108            -880.00
04109           -1040.00
04110            -960.00
04111            -880.00
04112           -1040.00
04113           -1040.00
04114           -1040.00
04115           -1040.00
04116           -1040.00
04117           -1040.00
04118           -1120.00
04119           -1120.00
04120           -1120.00
04121           -1120.00
04122           -1040.00
04123           -1120.00
04124           -1120.00
04125           -1120.00
04126           -1120.00
04127           -1120.00
04128           -1120.00
04129           -1120.00
04130           -1120.00
04131           -1120.00
04132           -1120.00
04133           -1200.00
04134           -1120.00
04135           -1200.00
04136           -1200.00
04137           -1200.00
04138           -1200.00
04139           -1200.00
04140           -1200.00
04141           -1200.00
04142           -1200.00
04143           -1200.00
04144           -1200.00
04145           -1280.00
04146           -1360.00
04147           -1280.00
04148           -1360.00
04149           -1360.00
04150           -1360.00
04151           -1360.00
04152           -1360.00
04153           -1360.00
04154           -1360.00
04155           -1440.00
04156           -1360.00
04157           -1360.00
04158           -1440.00
04159           -1360.00
04160           -1440.00
04161           -1440.00
04162           -1440.00
04163           -1440.00
04164           -1440.00
04165           -1520.00
04166           -1440.00
04167           -1520.00
04168           -1520.00
04169           -1440.00
04170           -1520.00
04171           -1520.00
04172           -1520.00
04173           -1520.00
04174           -1520.00
04175           -1520.00
04176           -1520.00
04177           -1680.00
04178           -1680.00
04179           -1520.00
04180           -1680.00
04181           -1680.00
04182           -1680.00
04183           -1680.00
04184           -1680.00
04185           -1680.00
04186           -1680.00
04187           -1680.00
04188           -1680.00
04189           -1680.00
04190           -1680.00
04191           -1680.00
04192           -1680.00
04193           -1680.00
04194           -1760.00
04195           -1760.00
04196           -1760.00
04197           -1680.00
04198           -1680.00
04199           -1760.00
04200           -1760.00
04201           -1760.00
04202           -1680.00
04203           -1760.00
04204           -1760.00
04205           -1680.00
04206           -1760.00
04207           -1760.00
04208           -1760.00
04209           -1760.00
04210           -1760.00
04211           -1760.00
04212           -1760.00
04213           -1760.00
04214           -1760.00
04215           -1840.00
04216           -1760.00
04217           -1760.00
04218           -1760.00
04219           -1760.00
04220           -1760.00
04221           -1760.00
04222           -1840.00
04223           -1760.00
04224           -1760.00
04225           -1760.00
04226           -1840.00
04227           -1760.00
04228           -1840.00
04229           -1840.00
04230           -1840.00
04231           -1840.00
04232           -1840.00
04233           -1840.00
04234           -1840.00
04235           -1840.00
04236           -1840.00
04237           -1840.00
04238           -1840.00
04239           -1840.00
04240           -1840.00
04241           -1840.00
04242           -1840.00
04243           -1920.00
04244           -1840.00
04245           -1920.00
04246           -1920.00
04247           -1920.00
04248           -1840.00
04249           -1840.00
04250           -2000.00
04251           -1920.00
04252           -2000.00
04253           -1840.00
04254           -2000.00
04255           -1920.00
04256           -2000.00
04257           -2000.00
04258           -1920.00
04259           -2000.00
04260           -1920.00
04261           -1840.00
04262           -1840.00
04263           -1840.00
04264           -1920.00
04265           -2000.00
04266           -2000.00
04267           -1920.00
04268           -2000.00
04269           -2000.00
04270           -1840.00
04271           -2000.00
04272           -1920.00
04273           -1840.00
04274           -1920.00
04275           -1840.00
04276           -1920.00
04277           -1920.00
04278           -1920.00
04279           -1920.00
04280           -2000.00
04281           -2000.00
04282           -2000.00
04283           -1840.00
04284           -2000.00
04285           -1920.00
04286           -1840.00
04287           -2000.00
04288           -1920.00
04289           -1920.00
04290           -1840.00
04291           -1920.00
04292           -2000.00
04293           -1920.00
04294           -2000.00
04295           -1840.00
04296           -2000.00
04297           -1840.00
04298           -1920.00
04299           -1920.00
04300           -1840.00
04301           -2000.00
04302           -2000.00
04303           -2000.00
04304           -1840.00
04305           -1840.00
04306           -2000.00
04307           -1920.00
04308           -2000.00
04309           -2000.00
04310           -1840.00
04311           -2000.00
04312           -1920.00
04313           -2000.00
04314           -1840.00
04315           -1920.00
04316           -1920.00
04317           -1840.00
04318           -1920.00
04319           -1840.00
04320           -1840.00
04321           -1920.00
04322           -1840.00
04323           -1840.00
04324           -1840.00
04325           -1840.00
04326           -1920.00
04327           -1760.00
04328           -1840.00
04329           -1840.00
04330           -1840.00
04331           -1840.00
04332           -1840.00
04333           -1840.00
04334           -1760.00
04335           -1840.00
04336           -1840.00
04337           -1840.00
04338           -1760.00
04339           -1760.00
04340           -1840.00
04341           -1760.00
04342           -1840.00
04343           -1760.00
04344           -1760.00
04345           -1760.00
04346           -1760.00
04347           -1760.00
04348           -1760.00
04349           -1760.00
04350           -1760.00
04351           -1760.00
04352           -1760.00
04353           -1760.00
04354           -1760.00
04355           -1760.00
04356           -1760.00
04357           -1760.00
04358           -1760.00
04359           -1760.00
04360           -1760.00
04361           -1680.00
04362           -1760.00
04363           -1760.00
04364           -1760.00
04365           -1680.00
04366           -1680.00
04367           -1760.00
04368           -1760.00
04369           -1680.00
04370           -1680.00
04371           -1680.00
04372           -1680.00
04373           -1680.00
04374           -1680.00
04375           -1680.00
04376           -1600.00
04377           -1680.00
04378           -1600.00
04379           -1680.00
04380           -1680.00
04381           -1680.00
04382           -1600.00
04383           -1520.00
04384           -1680.00
04385           -1520.00
04386           -1520.00
04387           -1520.00
04388           -1520.00
04389           -1520.00
04390           -1520.00
04391           -1520.00
04392           -1520.00
04393           -1520.00
04394           -1440.00
04395           -1520.00
04396           -1440.00
04397           -1520.00
04398           -1520.00
04399           -1440.00
04400           -1520.00
04401           -1440.00
04402           -1440.00
04403           -1360.00
04404           -1440.00
04405           -1440.00
04406           -1360.00
04407           -1360.00
04408           -1440.00
04409           -1360.00
04410           -1360.00
04411           -1360.00
04412           -1360.00
04413           -1360.00
04414           -1280.00
04415           -1360.00
04416           -1280.00
04417           -1280.00
04418           -1200.00
04419           -1280.00
04420           -1200.00
04421           -1280.00
04422           -1200.00
04423           -1200.00
04424           -1200.00
04425           -1200.00
04426           -1200.00
04427           -1200.00
04428           -1200.00
04429           -1200.00
04430           -1120.00
04431           -1200.00
04432           -1200.00
04433           -1120.00
04434           -1120.00
04435           -1120.00
04436           -1120.00
04437           -1120.00
04438           -1120.00
04439           -1120.00
04440           -1120.00
04441           -1120.00
04442           -1120.00
04443           -1120.00
04444           -1120.00
04445           -1120.00
04446           -1040.00
04447           -1040.00
04448           -1040.00
04449           -1040.00
04450            -880.00
04451           -1040.00
04452           -1040.00
04453            -960.00
04454            -880.00
04455            -960.00
04456            -880.00
04457            -880.00
04458            -880.00
04459            -880.00
04460            -880.00
04461            -800.00
04462            -880.00
04463            -880.00
04464            -880.00
04465            -800.00
04466            -800.00
04467            -800.00
04468            -800.00
04469            -800.00
04470            -720.00
04471            -800.00
04472            -720.00
04473            -720.00
04474            -720.00
04475            -720.00
04476            -720.00
04477            -640.00
04478            -720.00
04479            -720.00
04480            -720.00
04481            -640.00
04482            -560.00
04483            -560.00
04484            -560.00
04485            -560.00
04486            -560.00
04487            -560.00
04488            -560.00
04489            -560.00
04490            -560.00
04491            -480.00
04492            -560.00
04493            -480.00
04494            -480.00
04495            -480.00
04496            -480.00
04497            -480.00
04498            -480.00
04499            -480.00
04500            -400.00
04501            -480.00
04502            -400.00
04503            -400.00
04504            -400.00
04505            -400.00
04506            -400.00
04507            -240.00
04508            -400.00
04509            -240.00
04510            -320.00
04511            -240.00
04512            -240.00
04513            -240.00
04514            -240.00
04515            -240.00
04516            -240.00
04517            -240.00
04518            -240.00
04519            -240.00
04520            -160.00
04521            -160.00
04522            -160.00
04523            -160.00
04524            -160.00
04525            -160.00
04526            -160.00
04527            -160.00
04528            -160.00
04529             -80.00
04530             -80.00
04531             -80.00
04532             -80.00
04533               0.00
04534             -80.00
04535             -80.00
04536             -80.00
04537              80.00
04538              80.00
04539              80.00
04540              80.00
04541              80.00
04542              80.00
04543              80.00
04544             160.00
04545             160.00
04546              80.00
04547             160.00
04548             160.00
04549             160.00
04550             160.00
04551             160.00
04552             160.00
04553             240.00
04554             240.00
04555             240.00
04556             240.00
04557             320.00
04558             240.00
04559             240.00
04560             240.00
04561             240.00
04562             320.00
04563             400.00
04564             240.00
04565             320.00
04566             400.00
04567             400.00
04568             400.00
04569             400.00
04570             400.00
04571             400.00
04572             480.00
04573             400.00
04574             480.00
04575             400.00
04576             480.00
04577             480.00
04578             480.00
04579             480.00
04580             480.00
04581             560.00
04582             480.00
04583             560.00
04584             480.00
04585             560.00
04586             560.00
04587             560.00
04588             720.00
04589             560.00
04590             720.00
04591             560.00
04592             720.00
04593             720.00
04594             720.00
04595             720.00
04596             800.00
04597             720.00
04598             720.00
04599             800.00
04600             800.00
04601             800.00
04602             800.00
04603             800.00
04604             800.00
04605             800.00
04606             800.00
04607             880.00
04608             800.00
04609             880.00
04610             880.00
04611             880.00
04612             880.00
04613             880.00
04614             880.00
04615             880.00
04616             960.00
04617             960.00
04618            1040.00
04619             960.00
04620            1040.00
04621            1040.00
04622            1040.00
04623            1040.00
04624            1040.00
04625             960.00
04626            1040.00
04627            1040.00
04628            1040.00
04629            1040.00
04630            1040.00
04631            1120.00
04632            1040.00
04633            1040.00
04634            1120.00
04635            1120.00
04636            1120.00
04637            1120.00
04638            1200.00
04639            1200.00
04640            1120.00
04641            1200.00
04642            1120.00
04643            1200.00
04644            1200.00
04645            1200.00
04646            1200.00
04647            1280.00
04648            1360.00
04649            1280.00
04650            1280.00
04651            1360.00
04652            1360.00
04653            1360.00
04654            1360.00
04655            1360.00
04656            1360.00
04657            1360.00
04658            1360.00
04659            1360.00
04660            1440.00
04661            1360.00
04662            1440.00
04663            1440.00
04664            1440.00
04665            1440.00
04666            1440.00
04667            1440.00
04668            1440.00
04669            1440.00
04670            1440.00
04671            1440.00
04672            1440.00
04673            1440.00
04674            1520.00
04675            1440.00
04676            1440.00
04677            1520.00
04678            1520.00
04679            1440.00
04680            1520.00
04681            1520.00
04682            1520.00
04683            1520.00
04684            1520.00
04685            1680.00
04686            1600.00
04687            1680.00
04688            1680.00
04689            1680.00
04690            1680.00
04691            1680.00
04692            1600.00
04693            1680.00
04694            1600.00
04695            1600.00
04696            1680.00
04697            1680.00
04698            1680.00
04699            1680.00
04700            1680.00
04701            1680.00
04702            1680.00
04703            1680.00
04704            1680.00
04705            1680.00
04706            1680.00
04707            1680.00
04708            1760.00
04709            1680.00
04710            1680.00
04711            1760.00
04712            1760.00
04713            1760.00
04714            1680.00
04715            1760.00
04716            1760.00
04717            1760.00
04718            1760.00
04719            1760.00
04720            1760.00
04721            1840.00
04722            1760.00
04723            1760.00
04724            1840.00
04725            1760.00
04726            1760.00
04727            1760.00
04728            1840.00
04729            1840.00
04730            1840.00
04731            1840.00
04732            1840.00
04733            1840.00
04734            1840.00
04735            1840.00
04736            1840.00
04737            1760.00
04738            1840.00
04739            1920.00
04740            1840.00
04741            1840.00
04742            1840.00
04743            1920.00
04744            1920.00
04745            1840.00
04746            2000.00
04747            2000.00
04748            2000.00
04749            1840.00
04750            2000.00
04751            1920.00
04752            1920.00
04753            1920.00
04754            2000.00
04755            2000.00
04756            1840.00
04757            1840.00
04758            1920.00
04759            2000.00
04760            1920.00
04761            1920.00
04762            2000.00
04763            2000.00
04764            1920.00
04765            1840.00
04766            1920.00
04767            1920.00
04768            2000.00
04769            1840.00
04770            2000.00
04771            2000.00
04772            2000.00
04773            2000.00
04774            2000.00
04775            2000.00
04776            1840.00
04777            2000.00
04778            1920.00
04779            2000.00
04780            2000.00
04781            2000.00
04782            2000.00
04783            2000.00
04784            2000.00
04785            2000.00
04786            2000.00
04787            2000.00
04788            2000.00
04789            2000.00
04790            2000.00
04791            2080.00
04792            2000.00
04793            2000.00
04794            2000.00
04795            2000.00
04796            2000.00
04797            2000.00
04798            2000.00
04799            2000.00
04800            2000.00
04801            2000.00
04802            2000.00
04803            2080.00
04804            2000.00
04805            2000.00
04806            2080.00
04807            2000.00
04808            2000.00
04809            2000.00
04810            2000.00
04811            2000.00
04812            2000.00
04813            2000.00
04814            2000.00
04815            2000.00
04816            1920.00
04817            2000.00
04818            2000.00
04819            2000.00
04820            2000.00
04821            1920.00
04822            1920.00
04823            1920.00
04824            1920.00
04825            2000.00
04826            1840.00
04827            1840.00
04828            1920.00
04829            1920.00
04830            1840.00
04831            1920.00
04832            1920.00
04833            1920.00
04834            1840.00
04835            1840.00
04836            1840.00
04837            1840.00
04838            1840.00
04839            1840.00
04840            1840.00
04841            1840.00
04842            1840.00
04843            1840.00
04844            1760.00
04845            1840.00
04846            1760.00
04847            1840.00
04848            1840.00
04849            1840.00
04850            1840.00
04851            1840.00
04852            1760.00
04853            1840.00
04854            1760.00
04855            1760.00
04856            1760.00
04857            1760.00
04858            1760.00
04859            1840.00
04860            1760.00
04861            1760.00
04862            1840.00
04863            1760.00
04864            1760.00
04865            1760.00
04866            1840.00
04867            1760.00
04868            1760.00
04869            1760.00
04870            1680.00
04871            1760.00
04872            1760.00
04873            1760.00
04874            1680.00
04875            1680.00
04876            1680.00
04877            1760.00
04878            1680.00
04879            1680.00
04880            1680.00
04881            1680.00
04882            1680.00
04883            1680.00
04884            1680.00
04885            1680.00
04886            1680.00
04887            1680.00
04888            1680.00
04889            1680.00
04890            1680.00
04891            1520.00
04892            1600.00
04893            1520.00
04894            1520.00
04895            1520.00
04896            1520.00
04897            1520.00
04898            1520.00
04899            1520.00
04900            1520.00
04901            1520.00
04902            1440.00
04903            1440.00
04904            1440.00
04905            1520.00
04906            1520.00
04907            1440.00
04908            1520.00
04909            1520.00
04910            1440.00
04911            1440.00
04912            1440.00
04913            1440.00
04914            1440.00
04915            1440.00
04916            1440.00
04917            1440.00
04918            1360.00
04919            1360.00
04920            1360.00
04921            1360.00
04922            1440.00
04923            1440.00
04924            1360.00
04925            1360.00
04926            1360.00
04927            1360.00
04928            1360.00
04929            1360.00
04930            1360.00
04931            1360.00
04932            1360.00
04933            1360.00
04934            1360.00
04935            1280.00
04936            1200.00
04937            1280.00
04938            1200.00
04939            1200.00
04940            1200.00
04941            1200.00
04942            1280.00
04943            1200.00
04944            1200.00
04945            1120.00
04946            1120.00
04947            1120.00
04948            1120.00
04949            1120.00
04950            1120.00
04951            1120.00
04952            1040.00
04953            1120.00
04954            1040.00
04955            1040.00
04956            1040.00
04957            1040.00
04958            1040.00
04959            1040.00
04960            1040.00
04961            1040.00
04962             960.00
04963            1040.00
04964             880.00
04965             880.00
04966             880.00
04967             880.00
04968             880.00
04969             880.00
04970             800.00
04971             800.00
04972             880.00
04973             800.00
04974             800.00
04975             880.00
04976             800.00
04977             800.00
04978             800.00
04979             800.00
04980             800.00
04981             800.00
04982             800.00
04983             720.00
04984             720.00
04985             720.00
04986             800.00
04987             720.00
04988             720.00
04989             720.00
04990             720.00
04991             720.00
04992             560.00
04993             720.00
04994             640.00
04995             640.00
04996             560.00
04997             560.00
04998             560.00
04999             560.00
05000             560.00
