Unit:(mV)
                     CH1
Frequency     98.106 kHz
00001           -2160.00
00002           -2320.00
00003           -2320.00
00004           -2400.00
00005           -2400.00
00006           -2480.00
00007           -2480.00
00008           -2480.00
00009           -2640.00
00010           -2640.00
00011           -2640.00
00012           -2720.00
00013           -2720.00
00014           -2720.00
00015           -2800.00
00016           -2800.00
00017           -2800.00
00018           -2960.00
00019           -2960.00
00020           -2960.00
00021           -3040.00
00022           -3040.00
00023           -3120.00
00024           -3120.00
00025           -3280.00
00026           -3280.00
00027           -3280.00
00028           -3280.00
00029           -3360.00
00030           -3360.00
00031           -3360.00
00032           -3440.00
00033           -3440.00
00034           -3520.00
00035           -3520.00
00036           -3600.00
00037           -3600.00
00038           -3680.00
00039           -3680.00
00040           -3680.00
00041           -3680.00
00042           -3760.00
00043           -3920.00
00044           -3920.00
00045           -3920.00
00046           -4000.00
00047           -3920.00
00048           -4000.00
00049           -4000.00
00050           -4000.00
00051           -4080.00
00052           -4080.00
00053           -4160.00
00054           -4160.00
00055           -4240.00
00056           -4240.00
00057           -4240.00
00058           -4320.00
00059           -4400.00
00060           -4400.00
00061           -4400.00
00062           -4480.00
00063           -4560.00
00064           -4560.00
00065           -4640.00
00066           -4640.00
00067           -4640.00
00068           -4720.00
00069           -4720.00
00070           -4720.00
00071           -4800.00
00072           -4880.00
00073           -4880.00
00074           -4960.00
00075           -4960.00
00076           -4960.00
00077           -4960.00
00078           -5040.00
00079           -5040.00
00080           -5040.00
00081           -5040.00
00082           -5200.00
00083           -5200.00
00084           -5200.00
00085           -5200.00
00086           -5280.00
00087           -5280.00
00088           -5280.00
00089           -5360.00
00090           -5360.00
00091           -5360.00
00092           -5360.00
00093           -5360.00
00094           -5520.00
00095           -5520.00
00096           -5520.00
00097           -5520.00
00098           -5600.00
00099           -5600.00
00100           -5600.00
00101           -5600.00
00102           -5680.00
00103           -5680.00
00104           -5680.00
00105           -5680.00
00106           -5680.00
00107           -5840.00
00108           -5840.00
00109           -5840.00
00110           -5840.00
00111           -5920.00
00112           -5920.00
00113           -5920.00
00114           -5920.00
00115           -5920.00
00116           -6000.00
00117           -6000.00
00118           -6000.00
00119           -6000.00
00120           -6000.00
00121           -6160.00
00122           -6080.00
00123           -6160.00
00124           -6160.00
00125           -6240.00
00126           -6240.00
00127           -6240.00
00128           -6240.00
00129           -6240.00
00130           -6240.00
00131           -6240.00
00132           -6320.00
00133           -6320.00
00134           -6320.00
00135           -6320.00
00136           -6320.00
00137           -6480.00
00138           -6400.00
00139           -6480.00
00140           -6400.00
00141           -6480.00
00142           -6480.00
00143           -6480.00
00144           -6560.00
00145           -6480.00
00146           -6560.00
00147           -6560.00
00148           -6640.00
00149           -6560.00
00150           -6640.00
00151           -6640.00
00152           -6640.00
00153           -6640.00
00154           -6640.00
00155           -6640.00
00156           -6640.00
00157           -6640.00
00158           -6640.00
00159           -6720.00
00160           -6720.00
00161           -6640.00
00162           -6720.00
00163           -6720.00
00164           -6720.00
00165           -6800.00
00166           -6800.00
00167           -6800.00
00168           -6800.00
00169           -6880.00
00170           -6800.00
00171           -6880.00
00172           -6880.00
00173           -6880.00
00174           -6880.00
00175           -6880.00
00176           -6880.00
00177           -6880.00
00178           -6880.00
00179           -6880.00
00180           -6880.00
00181           -6880.00
00182           -6880.00
00183           -6880.00
00184           -6880.00
00185           -6880.00
00186           -6880.00
00187           -6880.00
00188           -6880.00
00189           -6960.00
00190           -6960.00
00191           -6960.00
00192           -6960.00
00193           -6960.00
00194           -6960.00
00195           -6880.00
00196           -6880.00
00197           -6960.00
00198           -6960.00
00199           -6960.00
00200           -6960.00
00201           -6960.00
00202           -6960.00
00203           -6960.00
00204           -6960.00
00205           -6960.00
00206           -6960.00
00207           -6960.00
00208           -6960.00
00209           -6960.00
00210           -6960.00
00211           -6880.00
00212           -6880.00
00213           -6880.00
00214           -6960.00
00215           -6880.00
00216           -6960.00
00217           -6880.00
00218           -6880.00
00219           -6880.00
00220           -6960.00
00221           -6880.00
00222           -6880.00
00223           -6880.00
00224           -6880.00
00225           -6880.00
00226           -6880.00
00227           -6880.00
00228           -6880.00
00229           -6880.00
00230           -6880.00
00231           -6880.00
00232           -6800.00
00233           -6800.00
00234           -6800.00
00235           -6800.00
00236           -6800.00
00237           -6800.00
00238           -6800.00
00239           -6800.00
00240           -6640.00
00241           -6800.00
00242           -6720.00
00243           -6720.00
00244           -6640.00
00245           -6640.00
00246           -6720.00
00247           -6640.00
00248           -6640.00
00249           -6640.00
00250           -6640.00
00251           -6640.00
00252           -6560.00
00253           -6640.00
00254           -6560.00
00255           -6640.00
00256           -6560.00
00257           -6560.00
00258           -6560.00
00259           -6480.00
00260           -6560.00
00261           -6480.00
00262           -6480.00
00263           -6480.00
00264           -6480.00
00265           -6560.00
00266           -6480.00
00267           -6480.00
00268           -6320.00
00269           -6400.00
00270           -6320.00
00271           -6320.00
00272           -6320.00
00273           -6240.00
00274           -6320.00
00275           -6240.00
00276           -6240.00
00277           -6240.00
00278           -6240.00
00279           -6160.00
00280           -6240.00
00281           -6160.00
00282           -6160.00
00283           -6080.00
00284           -6160.00
00285           -6000.00
00286           -6000.00
00287           -6000.00
00288           -5920.00
00289           -6000.00
00290           -5920.00
00291           -5920.00
00292           -5920.00
00293           -5920.00
00294           -5920.00
00295           -5840.00
00296           -5840.00
00297           -5840.00
00298           -5840.00
00299           -5680.00
00300           -5600.00
00301           -5680.00
00302           -5600.00
00303           -5600.00
00304           -5600.00
00305           -5600.00
00306           -5600.00
00307           -5520.00
00308           -5440.00
00309           -5520.00
00310           -5520.00
00311           -5360.00
00312           -5360.00
00313           -5360.00
00314           -5360.00
00315           -5360.00
00316           -5280.00
00317           -5360.00
00318           -5200.00
00319           -5280.00
00320           -5200.00
00321           -5200.00
00322           -5200.00
00323           -5040.00
00324           -5040.00
00325           -5040.00
00326           -5040.00
00327           -5040.00
00328           -4960.00
00329           -4960.00
00330           -4960.00
00331           -4880.00
00332           -4880.00
00333           -4880.00
00334           -4800.00
00335           -4720.00
00336           -4720.00
00337           -4640.00
00338           -4720.00
00339           -4640.00
00340           -4640.00
00341           -4560.00
00342           -4560.00
00343           -4480.00
00344           -4400.00
00345           -4400.00
00346           -4320.00
00347           -4320.00
00348           -4320.00
00349           -4240.00
00350           -4320.00
00351           -4240.00
00352           -4160.00
00353           -4080.00
00354           -4080.00
00355           -4080.00
00356           -4080.00
00357           -4000.00
00358           -4000.00
00359           -3920.00
00360           -3920.00
00361           -3920.00
00362           -3760.00
00363           -3760.00
00364           -3760.00
00365           -3680.00
00366           -3680.00
00367           -3600.00
00368           -3600.00
00369           -3520.00
00370           -3600.00
00371           -3440.00
00372           -3440.00
00373           -3440.00
00374           -3360.00
00375           -3440.00
00376           -3280.00
00377           -3280.00
00378           -3280.00
00379           -3120.00
00380           -3120.00
00381           -3040.00
00382           -3120.00
00383           -3040.00
00384           -3040.00
00385           -3040.00
00386           -2960.00
00387           -2960.00
00388           -2800.00
00389           -2800.00
00390           -2800.00
00391           -2800.00
00392           -2800.00
00393           -2720.00
00394           -2640.00
00395           -2560.00
00396           -2560.00
00397           -2560.00
00398           -2480.00
00399           -2480.00
00400           -2400.00
00401           -2400.00
00402           -2400.00
00403           -2320.00
00404           -2240.00
00405           -2160.00
00406           -2160.00
00407           -2080.00
00408           -2080.00
00409           -2080.00
00410           -2000.00
00411           -2000.00
00412           -1920.00
00413           -1840.00
00414           -1840.00
00415           -1840.00
00416           -1760.00
00417           -1760.00
00418           -1680.00
00419           -1680.00
00420           -1520.00
00421           -1520.00
00422           -1520.00
00423           -1440.00
00424           -1440.00
00425           -1440.00
00426           -1360.00
00427           -1360.00
00428           -1200.00
00429           -1200.00
00430           -1200.00
00431           -1120.00
00432           -1120.00
00433           -1040.00
00434            -960.00
00435            -960.00
00436            -880.00
00437            -880.00
00438            -800.00
00439            -800.00
00440            -800.00
00441            -720.00
00442            -720.00
00443            -560.00
00444            -560.00
00445            -480.00
00446            -480.00
00447            -480.00
00448            -480.00
00449            -400.00
00450            -400.00
00451            -240.00
00452            -240.00
00453            -240.00
00454            -240.00
00455            -160.00
00456             -80.00
00457             -80.00
00458              80.00
00459               0.00
00460              80.00
00461             160.00
00462             160.00
00463             160.00
00464             240.00
00465             240.00
00466             240.00
00467             320.00
00468             400.00
00469             480.00
00470             480.00
00471             480.00
00472             560.00
00473             720.00
00474             720.00
00475             720.00
00476             800.00
00477             800.00
00478             800.00
00479             880.00
00480             960.00
00481            1040.00
00482            1040.00
00483            1040.00
00484            1120.00
00485            1120.00
00486            1200.00
00487            1200.00
00488            1280.00
00489            1360.00
00490            1360.00
00491            1360.00
00492            1440.00
00493            1440.00
00494            1520.00
00495            1520.00
00496            1680.00
00497            1680.00
00498            1680.00
00499            1760.00
00500            1840.00
00501            1840.00
00502            1920.00
00503            2000.00
00504            2000.00
00505            2000.00
00506            2080.00
00507            2080.00
00508            2160.00
00509            2240.00
00510            2160.00
00511            2320.00
00512            2320.00
00513            2400.00
00514            2320.00
00515            2400.00
00516            2480.00
00517            2560.00
00518            2640.00
00519            2640.00
00520            2640.00
00521            2640.00
00522            2720.00
00523            2720.00
00524            2720.00
00525            2800.00
00526            2800.00
00527            2800.00
00528            2960.00
00529            2960.00
00530            2960.00
00531            3040.00
00532            3120.00
00533            3120.00
00534            3120.00
00535            3280.00
00536            3280.00
00537            3280.00
00538            3360.00
00539            3360.00
00540            3360.00
00541            3440.00
00542            3440.00
00543            3440.00
00544            3600.00
00545            3600.00
00546            3600.00
00547            3600.00
00548            3680.00
00549            3680.00
00550            3840.00
00551            3840.00
00552            3920.00
00553            3920.00
00554            3920.00
00555            4000.00
00556            4000.00
00557            4000.00
00558            4000.00
00559            4080.00
00560            4080.00
00561            4240.00
00562            4240.00
00563            4240.00
00564            4320.00
00565            4320.00
00566            4320.00
00567            4320.00
00568            4400.00
00569            4400.00
00570            4560.00
00571            4560.00
00572            4560.00
00573            4560.00
00574            4640.00
00575            4640.00
00576            4720.00
00577            4720.00
00578            4720.00
00579            4720.00
00580            4880.00
00581            4880.00
00582            4880.00
00583            4960.00
00584            4880.00
00585            4960.00
00586            4960.00
00587            4960.00
00588            5040.00
00589            4960.00
00590            5040.00
00591            5120.00
00592            5120.00
00593            5200.00
00594            5280.00
00595            5280.00
00596            5280.00
00597            5280.00
00598            5280.00
00599            5360.00
00600            5360.00
00601            5360.00
00602            5520.00
00603            5440.00
00604            5520.00
00605            5520.00
00606            5520.00
00607            5520.00
00608            5600.00
00609            5600.00
00610            5600.00
00611            5680.00
00612            5680.00
00613            5760.00
00614            5840.00
00615            5840.00
00616            5840.00
00617            5840.00
00618            5840.00
00619            5840.00
00620            5920.00
00621            5920.00
00622            5920.00
00623            6000.00
00624            6000.00
00625            6000.00
00626            6000.00
00627            6160.00
00628            6000.00
00629            6160.00
00630            6160.00
00631            6160.00
00632            6160.00
00633            6240.00
00634            6160.00
00635            6240.00
00636            6160.00
00637            6320.00
00638            6240.00
00639            6320.00
00640            6320.00
00641            6320.00
00642            6320.00
00643            6320.00
00644            6400.00
00645            6400.00
00646            6480.00
00647            6480.00
00648            6480.00
00649            6480.00
00650            6480.00
00651            6480.00
00652            6480.00
00653            6560.00
00654            6560.00
00655            6560.00
00656            6560.00
00657            6560.00
00658            6560.00
00659            6560.00
00660            6640.00
00661            6640.00
00662            6560.00
00663            6640.00
00664            6720.00
00665            6640.00
00666            6640.00
00667            6800.00
00668            6800.00
00669            6800.00
00670            6800.00
00671            6800.00
00672            6800.00
00673            6800.00
00674            6800.00
00675            6800.00
00676            6800.00
00677            6800.00
00678            6800.00
00679            6880.00
00680            6880.00
00681            6880.00
00682            6800.00
00683            6880.00
00684            6880.00
00685            6880.00
00686            6800.00
00687            6880.00
00688            6880.00
00689            6880.00
00690            6880.00
00691            6880.00
00692            6960.00
00693            6880.00
00694            6960.00
00695            6960.00
00696            6880.00
00697            6960.00
00698            6960.00
00699            6960.00
00700            6880.00
00701            6960.00
00702            6960.00
00703            6960.00
00704            6880.00
00705            6960.00
00706            6960.00
00707            6960.00
00708            6960.00
00709            6960.00
00710            6960.00
00711            6960.00
00712            6960.00
00713            6960.00
00714            6960.00
00715            6960.00
00716            6960.00
00717            6880.00
00718            6960.00
00719            6880.00
00720            6880.00
00721            6960.00
00722            6960.00
00723            6960.00
00724            6960.00
00725            6880.00
00726            6960.00
00727            6880.00
00728            6880.00
00729            6880.00
00730            6960.00
00731            6880.00
00732            6880.00
00733            6880.00
00734            6800.00
00735            6880.00
00736            6880.00
00737            6880.00
00738            6880.00
00739            6880.00
00740            6880.00
00741            6880.00
00742            6800.00
00743            6880.00
00744            6800.00
00745            6800.00
00746            6800.00
00747            6800.00
00748            6800.00
00749            6800.00
00750            6800.00
00751            6800.00
00752            6800.00
00753            6800.00
00754            6720.00
00755            6720.00
00756            6800.00
00757            6800.00
00758            6720.00
00759            6640.00
00760            6640.00
00761            6640.00
00762            6640.00
00763            6640.00
00764            6640.00
00765            6560.00
00766            6640.00
00767            6560.00
00768            6560.00
00769            6560.00
00770            6560.00
00771            6560.00
00772            6560.00
00773            6480.00
00774            6480.00
00775            6480.00
00776            6480.00
00777            6480.00
00778            6480.00
00779            6480.00
00780            6400.00
00781            6400.00
00782            6320.00
00783            6240.00
00784            6320.00
00785            6240.00
00786            6240.00
00787            6240.00
00788            6160.00
00789            6160.00
00790            6160.00
00791            6160.00
00792            6160.00
00793            6160.00
00794            6000.00
00795            6080.00
00796            6000.00
00797            6000.00
00798            6000.00
00799            6000.00
00800            5920.00
00801            5920.00
00802            5920.00
00803            5920.00
00804            5920.00
00805            5840.00
00806            5840.00
00807            5840.00
00808            5840.00
00809            5840.00
00810            5680.00
00811            5680.00
00812            5680.00
00813            5600.00
00814            5680.00
00815            5600.00
00816            5600.00
00817            5600.00
00818            5520.00
00819            5520.00
00820            5520.00
00821            5520.00
00822            5440.00
00823            5360.00
00824            5360.00
00825            5280.00
00826            5280.00
00827            5280.00
00828            5280.00
00829            5280.00
00830            5200.00
00831            5200.00
00832            5200.00
00833            5040.00
00834            5200.00
00835            5040.00
00836            5040.00
00837            5040.00
00838            4960.00
00839            4960.00
00840            4960.00
00841            4880.00
00842            4880.00
00843            4880.00
00844            4800.00
00845            4720.00
00846            4720.00
00847            4720.00
00848            4720.00
00849            4640.00
00850            4560.00
00851            4560.00
00852            4560.00
00853            4480.00
00854            4560.00
00855            4400.00
00856            4400.00
00857            4320.00
00858            4320.00
00859            4320.00
00860            4240.00
00861            4240.00
00862            4160.00
00863            4160.00
00864            4080.00
00865            4080.00
00866            4000.00
00867            4000.00
00868            4000.00
00869            3920.00
00870            4000.00
00871            3920.00
00872            3920.00
00873            3760.00
00874            3760.00
00875            3680.00
00876            3760.00
00877            3680.00
00878            3680.00
00879            3600.00
00880            3600.00
00881            3600.00
00882            3440.00
00883            3440.00
00884            3440.00
00885            3360.00
00886            3360.00
00887            3360.00
00888            3280.00
00889            3280.00
00890            3280.00
00891            3280.00
00892            3120.00
00893            3040.00
00894            3040.00
00895            3040.00
00896            3040.00
00897            2960.00
00898            2960.00
00899            2800.00
00900            2880.00
00901            2800.00
00902            2720.00
00903            2720.00
00904            2640.00
00905            2640.00
00906            2640.00
00907            2560.00
00908            2480.00
00909            2480.00
00910            2480.00
00911            2400.00
00912            2320.00
00913            2320.00
00914            2160.00
00915            2160.00
00916            2160.00
00917            2160.00
00918            2080.00
00919            2080.00
00920            2000.00
00921            2000.00
00922            1840.00
00923            1840.00
00924            1760.00
00925            1760.00
00926            1680.00
00927            1680.00
00928            1680.00
00929            1680.00
00930            1520.00
00931            1520.00
00932            1520.00
00933            1520.00
00934            1440.00
00935            1360.00
00936            1360.00
00937            1360.00
00938            1200.00
00939            1200.00
00940            1120.00
00941            1120.00
00942            1120.00
00943            1120.00
00944            1040.00
00945            1040.00
00946             960.00
00947             880.00
00948             880.00
00949             800.00
00950             800.00
00951             720.00
00952             720.00
00953             720.00
00954             640.00
00955             560.00
00956             480.00
00957             480.00
00958             480.00
00959             400.00
00960             400.00
00961             240.00
00962             240.00
00963             160.00
00964             160.00
00965             160.00
00966             160.00
00967              80.00
00968               0.00
00969               0.00
00970             -80.00
00971            -160.00
00972            -160.00
00973            -160.00
00974            -240.00
00975            -240.00
00976            -240.00
00977            -400.00
00978            -480.00
00979            -480.00
00980            -480.00
00981            -480.00
00982            -560.00
00983            -720.00
00984            -720.00
00985            -800.00
00986            -800.00
00987            -880.00
00988            -880.00
00989            -880.00
00990           -1040.00
00991           -1040.00
00992           -1040.00
00993           -1120.00
00994           -1120.00
00995           -1200.00
00996           -1120.00
00997           -1200.00
00998           -1360.00
00999           -1440.00
01000           -1360.00
01001           -1440.00
01002           -1520.00
01003           -1520.00
01004           -1520.00
01005           -1600.00
01006           -1680.00
01007           -1680.00
01008           -1680.00
01009           -1760.00
01010           -1760.00
01011           -1760.00
01012           -1840.00
01013           -1920.00
01014           -2000.00
01015           -2000.00
01016           -2080.00
01017           -2080.00
01018           -2080.00
01019           -2160.00
01020           -2240.00
01021           -2240.00
01022           -2320.00
01023           -2320.00
01024           -2400.00
01025           -2400.00
01026           -2400.00
01027           -2480.00
01028           -2480.00
01029           -2560.00
01030           -2640.00
01031           -2640.00
01032           -2720.00
01033           -2720.00
01034           -2720.00
01035           -2800.00
01036           -2800.00
01037           -2800.00
01038           -2960.00
01039           -2960.00
01040           -3040.00
01041           -3040.00
01042           -3040.00
01043           -3120.00
01044           -3120.00
01045           -3280.00
01046           -3280.00
01047           -3280.00
01048           -3360.00
01049           -3360.00
01050           -3440.00
01051           -3440.00
01052           -3520.00
01053           -3440.00
01054           -3520.00
01055           -3600.00
01056           -3600.00
01057           -3680.00
01058           -3680.00
01059           -3760.00
01060           -3760.00
01061           -3760.00
01062           -3760.00
01063           -3920.00
01064           -3920.00
01065           -4000.00
01066           -4000.00
01067           -4000.00
01068           -4080.00
01069           -4080.00
01070           -4080.00
01071           -4080.00
01072           -4080.00
01073           -4240.00
01074           -4240.00
01075           -4240.00
01076           -4320.00
01077           -4320.00
01078           -4320.00
01079           -4400.00
01080           -4400.00
01081           -4400.00
01082           -4480.00
01083           -4560.00
01084           -4560.00
01085           -4560.00
01086           -4640.00
01087           -4640.00
01088           -4720.00
01089           -4720.00
01090           -4720.00
01091           -4800.00
01092           -4800.00
01093           -4880.00
01094           -4960.00
01095           -4960.00
01096           -4960.00
01097           -4960.00
01098           -4960.00
01099           -5040.00
01100           -5040.00
01101           -5040.00
01102           -5120.00
01103           -5200.00
01104           -5200.00
01105           -5280.00
01106           -5280.00
01107           -5280.00
01108           -5280.00
01109           -5360.00
01110           -5360.00
01111           -5360.00
01112           -5360.00
01113           -5360.00
01114           -5520.00
01115           -5440.00
01116           -5600.00
01117           -5520.00
01118           -5600.00
01119           -5600.00
01120           -5680.00
01121           -5680.00
01122           -5600.00
01123           -5680.00
01124           -5840.00
01125           -5840.00
01126           -5840.00
01127           -5840.00
01128           -5840.00
01129           -5920.00
01130           -5840.00
01131           -5920.00
01132           -5920.00
01133           -5920.00
01134           -5920.00
01135           -6000.00
01136           -6000.00
01137           -6000.00
01138           -6000.00
01139           -6000.00
01140           -6080.00
01141           -6160.00
01142           -6160.00
01143           -6240.00
01144           -6160.00
01145           -6160.00
01146           -6160.00
01147           -6240.00
01148           -6240.00
01149           -6240.00
01150           -6240.00
01151           -6320.00
01152           -6320.00
01153           -6320.00
01154           -6320.00
01155           -6320.00
01156           -6320.00
01157           -6320.00
01158           -6480.00
01159           -6400.00
01160           -6480.00
01161           -6480.00
01162           -6480.00
01163           -6480.00
01164           -6480.00
01165           -6480.00
01166           -6560.00
01167           -6560.00
01168           -6640.00
01169           -6560.00
01170           -6640.00
01171           -6640.00
01172           -6560.00
01173           -6640.00
01174           -6640.00
01175           -6640.00
01176           -6640.00
01177           -6800.00
01178           -6640.00
01179           -6800.00
01180           -6800.00
01181           -6640.00
01182           -6800.00
01183           -6800.00
01184           -6800.00
01185           -6800.00
01186           -6880.00
01187           -6800.00
01188           -6880.00
01189           -6800.00
01190           -6880.00
01191           -6880.00
01192           -6880.00
01193           -6880.00
01194           -6880.00
01195           -6880.00
01196           -6880.00
01197           -6880.00
01198           -6880.00
01199           -6880.00
01200           -6880.00
01201           -6880.00
01202           -6880.00
01203           -6880.00
01204           -6880.00
01205           -6880.00
01206           -6960.00
01207           -6880.00
01208           -6880.00
01209           -6880.00
01210           -6960.00
01211           -6880.00
01212           -6880.00
01213           -6880.00
01214           -6880.00
01215           -6880.00
01216           -6960.00
01217           -6960.00
01218           -6880.00
01219           -6880.00
01220           -6960.00
01221           -6880.00
01222           -6960.00
01223           -6880.00
01224           -6960.00
01225           -6880.00
01226           -6880.00
01227           -6960.00
01228           -6880.00
01229           -6880.00
01230           -6880.00
01231           -6880.00
01232           -6880.00
01233           -6880.00
01234           -6880.00
01235           -6880.00
01236           -6880.00
01237           -6880.00
01238           -6960.00
01239           -6880.00
01240           -6880.00
01241           -6880.00
01242           -6880.00
01243           -6880.00
01244           -6880.00
01245           -6880.00
01246           -6880.00
01247           -6880.00
01248           -6880.00
01249           -6880.00
01250           -6880.00
01251           -6880.00
01252           -6880.00
01253           -6800.00
01254           -6880.00
01255           -6800.00
01256           -6800.00
01257           -6800.00
01258           -6800.00
01259           -6720.00
01260           -6800.00
01261           -6800.00
01262           -6640.00
01263           -6720.00
01264           -6640.00
01265           -6640.00
01266           -6640.00
01267           -6640.00
01268           -6640.00
01269           -6640.00
01270           -6640.00
01271           -6640.00
01272           -6640.00
01273           -6560.00
01274           -6560.00
01275           -6560.00
01276           -6560.00
01277           -6480.00
01278           -6480.00
01279           -6560.00
01280           -6480.00
01281           -6480.00
01282           -6480.00
01283           -6400.00
01284           -6400.00
01285           -6320.00
01286           -6480.00
01287           -6320.00
01288           -6320.00
01289           -6320.00
01290           -6240.00
01291           -6320.00
01292           -6240.00
01293           -6240.00
01294           -6240.00
01295           -6240.00
01296           -6160.00
01297           -6160.00
01298           -6160.00
01299           -6160.00
01300           -6160.00
01301           -6160.00
01302           -6160.00
01303           -6000.00
01304           -6160.00
01305           -6160.00
01306           -6000.00
01307           -6000.00
01308           -6000.00
01309           -6000.00
01310           -5920.00
01311           -5920.00
01312           -5920.00
01313           -5840.00
01314           -5840.00
01315           -5840.00
01316           -5840.00
01317           -5840.00
01318           -5680.00
01319           -5680.00
01320           -5680.00
01321           -5680.00
01322           -5680.00
01323           -5600.00
01324           -5600.00
01325           -5600.00
01326           -5600.00
01327           -5520.00
01328           -5520.00
01329           -5440.00
01330           -5440.00
01331           -5360.00
01332           -5360.00
01333           -5360.00
01334           -5360.00
01335           -5280.00
01336           -5360.00
01337           -5280.00
01338           -5280.00
01339           -5200.00
01340           -5200.00
01341           -5040.00
01342           -5120.00
01343           -5040.00
01344           -5040.00
01345           -4960.00
01346           -5040.00
01347           -4960.00
01348           -4960.00
01349           -4960.00
01350           -4880.00
01351           -4880.00
01352           -4720.00
01353           -4720.00
01354           -4720.00
01355           -4720.00
01356           -4640.00
01357           -4640.00
01358           -4640.00
01359           -4560.00
01360           -4560.00
01361           -4560.00
01362           -4400.00
01363           -4400.00
01364           -4400.00
01365           -4320.00
01366           -4320.00
01367           -4320.00
01368           -4320.00
01369           -4320.00
01370           -4240.00
01371           -4240.00
01372           -4160.00
01373           -4080.00
01374           -4080.00
01375           -4080.00
01376           -4080.00
01377           -4000.00
01378           -4000.00
01379           -4000.00
01380           -3920.00
01381           -3840.00
01382           -3920.00
01383           -3840.00
01384           -3680.00
01385           -3760.00
01386           -3680.00
01387           -3680.00
01388           -3680.00
01389           -3600.00
01390           -3440.00
01391           -3440.00
01392           -3440.00
01393           -3440.00
01394           -3440.00
01395           -3360.00
01396           -3360.00
01397           -3280.00
01398           -3200.00
01399           -3120.00
01400           -3120.00
01401           -3120.00
01402           -3120.00
01403           -3040.00
01404           -3040.00
01405           -2960.00
01406           -2960.00
01407           -2960.00
01408           -2800.00
01409           -2800.00
01410           -2720.00
01411           -2720.00
01412           -2720.00
01413           -2640.00
01414           -2640.00
01415           -2560.00
01416           -2480.00
01417           -2480.00
01418           -2400.00
01419           -2400.00
01420           -2400.00
01421           -2400.00
01422           -2320.00
01423           -2240.00
01424           -2160.00
01425           -2160.00
01426           -2160.00
01427           -2080.00
01428           -2080.00
01429           -2000.00
01430           -1920.00
01431           -2000.00
01432           -1840.00
01433           -1840.00
01434           -1840.00
01435           -1760.00
01436           -1760.00
01437           -1760.00
01438           -1680.00
01439           -1600.00
01440           -1680.00
01441           -1520.00
01442           -1520.00
01443           -1440.00
01444           -1440.00
01445           -1360.00
01446           -1360.00
01447           -1360.00
01448           -1200.00
01449           -1200.00
01450           -1120.00
01451           -1120.00
01452           -1120.00
01453           -1040.00
01454            -960.00
01455            -960.00
01456            -880.00
01457            -880.00
01458            -880.00
01459            -800.00
01460            -800.00
01461            -720.00
01462            -720.00
01463            -560.00
01464            -560.00
01465            -480.00
01466            -480.00
01467            -400.00
01468            -400.00
01469            -400.00
01470            -240.00
01471            -240.00
01472            -240.00
01473            -160.00
01474            -160.00
01475             -80.00
01476             -80.00
01477              80.00
01478              80.00
01479              80.00
01480              80.00
01481             160.00
01482             160.00
01483             160.00
01484             240.00
01485             400.00
01486             400.00
01487             400.00
01488             560.00
01489             560.00
01490             480.00
01491             560.00
01492             720.00
01493             800.00
01494             720.00
01495             720.00
01496             800.00
01497             800.00
01498             880.00
01499             880.00
01500            1040.00
01501             960.00
01502            1040.00
01503            1120.00
01504            1120.00
01505            1120.00
01506            1200.00
01507            1200.00
01508            1360.00
01509            1360.00
01510            1360.00
01511            1440.00
01512            1440.00
01513            1520.00
01514            1520.00
01515            1680.00
01516            1680.00
01517            1680.00
01518            1680.00
01519            1760.00
01520            1760.00
01521            1840.00
01522            2000.00
01523            2000.00
01524            2000.00
01525            2080.00
01526            2080.00
01527            2080.00
01528            2160.00
01529            2160.00
01530            2240.00
01531            2320.00
01532            2320.00
01533            2320.00
01534            2400.00
01535            2400.00
01536            2480.00
01537            2480.00
01538            2480.00
01539            2640.00
01540            2640.00
01541            2720.00
01542            2720.00
01543            2720.00
01544            2800.00
01545            2800.00
01546            2960.00
01547            2960.00
01548            2960.00
01549            3040.00
01550            3040.00
01551            3040.00
01552            3120.00
01553            3120.00
01554            3280.00
01555            3280.00
01556            3280.00
01557            3280.00
01558            3360.00
01559            3360.00
01560            3360.00
01561            3440.00
01562            3520.00
01563            3440.00
01564            3600.00
01565            3600.00
01566            3600.00
01567            3680.00
01568            3680.00
01569            3760.00
01570            3760.00
01571            3840.00
01572            3920.00
01573            3920.00
01574            3920.00
01575            4000.00
01576            4000.00
01577            4000.00
01578            4080.00
01579            4080.00
01580            4080.00
01581            4240.00
01582            4240.00
01583            4240.00
01584            4240.00
01585            4320.00
01586            4320.00
01587            4320.00
01588            4400.00
01589            4480.00
01590            4480.00
01591            4560.00
01592            4560.00
01593            4640.00
01594            4640.00
01595            4640.00
01596            4640.00
01597            4720.00
01598            4720.00
01599            4800.00
01600            4880.00
01601            4880.00
01602            4880.00
01603            4880.00
01604            4880.00
01605            4960.00
01606            4960.00
01607            5040.00
01608            5040.00
01609            5200.00
01610            5200.00
01611            5200.00
01612            5200.00
01613            5200.00
01614            5280.00
01615            5280.00
01616            5280.00
01617            5280.00
01618            5360.00
01619            5360.00
01620            5360.00
01621            5360.00
01622            5520.00
01623            5520.00
01624            5520.00
01625            5600.00
01626            5520.00
01627            5600.00
01628            5600.00
01629            5680.00
01630            5680.00
01631            5680.00
01632            5680.00
01633            5680.00
01634            5840.00
01635            5760.00
01636            5840.00
01637            5840.00
01638            5920.00
01639            5840.00
01640            5920.00
01641            5920.00
01642            5920.00
01643            6000.00
01644            6000.00
01645            6000.00
01646            5920.00
01647            6080.00
01648            6080.00
01649            6160.00
01650            6160.00
01651            6160.00
01652            6160.00
01653            6160.00
01654            6240.00
01655            6160.00
01656            6240.00
01657            6320.00
01658            6320.00
01659            6240.00
01660            6320.00
01661            6320.00
01662            6320.00
01663            6320.00
01664            6400.00
01665            6480.00
01666            6480.00
01667            6480.00
01668            6480.00
01669            6560.00
01670            6560.00
01671            6560.00
01672            6480.00
01673            6560.00
01674            6640.00
01675            6560.00
01676            6560.00
01677            6560.00
01678            6640.00
01679            6640.00
01680            6640.00
01681            6640.00
01682            6720.00
01683            6800.00
01684            6720.00
01685            6720.00
01686            6800.00
01687            6800.00
01688            6800.00
01689            6800.00
01690            6800.00
01691            6800.00
01692            6800.00
01693            6800.00
01694            6800.00
01695            6800.00
01696            6800.00
01697            6800.00
01698            6800.00
01699            6880.00
01700            6880.00
01701            6880.00
01702            6800.00
01703            6880.00
01704            6800.00
01705            6880.00
01706            6880.00
01707            6880.00
01708            6880.00
01709            6880.00
01710            6880.00
01711            6880.00
01712            6800.00
01713            6880.00
01714            6880.00
01715            6960.00
01716            6880.00
01717            6960.00
01718            6960.00
01719            6960.00
01720            6960.00
01721            6960.00
01722            6880.00
01723            6960.00
01724            6880.00
01725            6960.00
01726            6960.00
01727            6960.00
01728            6960.00
01729            6960.00
01730            6960.00
01731            6960.00
01732            6960.00
01733            6960.00
01734            6960.00
01735            6960.00
01736            6960.00
01737            6960.00
01738            6960.00
01739            6960.00
01740            6960.00
01741            6960.00
01742            6960.00
01743            6960.00
01744            6880.00
01745            6960.00
01746            6880.00
01747            6960.00
01748            6880.00
01749            6960.00
01750            6880.00
01751            6880.00
01752            6880.00
01753            6880.00
01754            6880.00
01755            6880.00
01756            6880.00
01757            6800.00
01758            6880.00
01759            6880.00
01760            6800.00
01761            6880.00
01762            6800.00
01763            6800.00
01764            6800.00
01765            6800.00
01766            6800.00
01767            6800.00
01768            6800.00
01769            6800.00
01770            6800.00
01771            6800.00
01772            6800.00
01773            6800.00
01774            6640.00
01775            6800.00
01776            6640.00
01777            6640.00
01778            6640.00
01779            6560.00
01780            6640.00
01781            6640.00
01782            6560.00
01783            6560.00
01784            6560.00
01785            6560.00
01786            6560.00
01787            6560.00
01788            6560.00
01789            6560.00
01790            6480.00
01791            6480.00
01792            6480.00
01793            6480.00
01794            6480.00
01795            6480.00
01796            6480.00
01797            6400.00
01798            6480.00
01799            6320.00
01800            6320.00
01801            6320.00
01802            6320.00
01803            6320.00
01804            6320.00
01805            6320.00
01806            6240.00
01807            6240.00
01808            6240.00
01809            6160.00
01810            6160.00
01811            6160.00
01812            6160.00
01813            6160.00
01814            6160.00
01815            6160.00
01816            6080.00
01817            6000.00
01818            6080.00
01819            6000.00
01820            6000.00
01821            5920.00
01822            5920.00
01823            5920.00
01824            5920.00
01825            5840.00
01826            5840.00
01827            5840.00
01828            5760.00
01829            5840.00
01830            5680.00
01831            5680.00
01832            5680.00
01833            5600.00
01834            5600.00
01835            5600.00
01836            5520.00
01837            5520.00
01838            5520.00
01839            5520.00
01840            5520.00
01841            5360.00
01842            5440.00
01843            5360.00
01844            5360.00
01845            5280.00
01846            5280.00
01847            5280.00
01848            5280.00
01849            5280.00
01850            5200.00
01851            5200.00
01852            5040.00
01853            5120.00
01854            5040.00
01855            5040.00
01856            4960.00
01857            4960.00
01858            4960.00
01859            4960.00
01860            4880.00
01861            4880.00
01862            4880.00
01863            4880.00
01864            4800.00
01865            4720.00
01866            4800.00
01867            4640.00
01868            4640.00
01869            4640.00
01870            4640.00
01871            4640.00
01872            4560.00
01873            4560.00
01874            4400.00
01875            4400.00
01876            4320.00
01877            4320.00
01878            4320.00
01879            4320.00
01880            4240.00
01881            4240.00
01882            4160.00
01883            4080.00
01884            4080.00
01885            4080.00
01886            4000.00
01887            4000.00
01888            3920.00
01889            3920.00
01890            3920.00
01891            3760.00
01892            3760.00
01893            3760.00
01894            3680.00
01895            3680.00
01896            3680.00
01897            3600.00
01898            3600.00
01899            3600.00
01900            3440.00
01901            3440.00
01902            3440.00
01903            3440.00
01904            3360.00
01905            3360.00
01906            3360.00
01907            3280.00
01908            3280.00
01909            3200.00
01910            3200.00
01911            3120.00
01912            3040.00
01913            3040.00
01914            3040.00
01915            2960.00
01916            2960.00
01917            2960.00
01918            2800.00
01919            2800.00
01920            2800.00
01921            2720.00
01922            2640.00
01923            2640.00
01924            2640.00
01925            2640.00
01926            2560.00
01927            2480.00
01928            2400.00
01929            2480.00
01930            2400.00
01931            2400.00
01932            2320.00
01933            2320.00
01934            2320.00
01935            2160.00
01936            2080.00
01937            2080.00
01938            2080.00
01939            2080.00
01940            2000.00
01941            2080.00
01942            1840.00
01943            1840.00
01944            1840.00
01945            1760.00
01946            1760.00
01947            1680.00
01948            1680.00
01949            1600.00
01950            1520.00
01951            1520.00
01952            1520.00
01953            1440.00
01954            1440.00
01955            1440.00
01956            1360.00
01957            1200.00
01958            1200.00
01959            1200.00
01960            1120.00
01961            1120.00
01962            1040.00
01963            1040.00
01964             960.00
01965             880.00
01966             960.00
01967             800.00
01968             800.00
01969             800.00
01970             720.00
01971             720.00
01972             640.00
01973             560.00
01974             560.00
01975             480.00
01976             480.00
01977             480.00
01978             400.00
01979             320.00
01980             240.00
01981             160.00
01982             240.00
01983             160.00
01984             160.00
01985              80.00
01986              80.00
01987              80.00
01988               0.00
01989             -80.00
01990             -80.00
01991            -160.00
01992            -240.00
01993            -240.00
01994            -240.00
01995            -240.00
01996            -400.00
01997            -400.00
01998            -480.00
01999            -480.00
02000            -480.00
02001            -560.00
02002            -480.00
02003            -720.00
02004            -720.00
02005            -720.00
02006            -800.00
02007            -800.00
02008            -880.00
02009            -880.00
02010            -880.00
02011            -880.00
02012           -1040.00
02013           -1120.00
02014           -1120.00
02015           -1200.00
02016           -1200.00
02017           -1200.00
02018           -1360.00
02019           -1440.00
02020           -1440.00
02021           -1440.00
02022           -1520.00
02023           -1520.00
02024           -1520.00
02025           -1680.00
02026           -1680.00
02027           -1680.00
02028           -1760.00
02029           -1760.00
02030           -1840.00
02031           -1840.00
02032           -1840.00
02033           -2000.00
02034           -2000.00
02035           -2080.00
02036           -2080.00
02037           -2160.00
02038           -2160.00
02039           -2160.00
02040           -2320.00
02041           -2320.00
02042           -2320.00
02043           -2400.00
02044           -2400.00
02045           -2480.00
02046           -2480.00
02047           -2480.00
02048           -2560.00
02049           -2640.00
02050           -2640.00
02051           -2720.00
02052           -2720.00
02053           -2800.00
02054           -2800.00
02055           -2800.00
02056           -2880.00
02057           -2960.00
02058           -2960.00
02059           -2960.00
02060           -3040.00
02061           -3040.00
02062           -3040.00
02063           -3120.00
02064           -3200.00
02065           -3280.00
02066           -3280.00
02067           -3360.00
02068           -3360.00
02069           -3360.00
02070           -3440.00
02071           -3440.00
02072           -3440.00
02073           -3440.00
02074           -3600.00
02075           -3600.00
02076           -3680.00
02077           -3680.00
02078           -3680.00
02079           -3680.00
02080           -3760.00
02081           -3760.00
02082           -3760.00
02083           -3920.00
02084           -4000.00
02085           -4000.00
02086           -4000.00
02087           -4080.00
02088           -4080.00
02089           -4080.00
02090           -4080.00
02091           -4160.00
02092           -4080.00
02093           -4320.00
02094           -4320.00
02095           -4320.00
02096           -4320.00
02097           -4400.00
02098           -4400.00
02099           -4560.00
02100           -4480.00
02101           -4560.00
02102           -4560.00
02103           -4560.00
02104           -4640.00
02105           -4640.00
02106           -4640.00
02107           -4720.00
02108           -4720.00
02109           -4800.00
02110           -4720.00
02111           -4880.00
02112           -4880.00
02113           -4960.00
02114           -4960.00
02115           -4960.00
02116           -4960.00
02117           -4960.00
02118           -5040.00
02119           -5040.00
02120           -5040.00
02121           -5120.00
02122           -5120.00
02123           -5120.00
02124           -5200.00
02125           -5280.00
02126           -5280.00
02127           -5200.00
02128           -5360.00
02129           -5360.00
02130           -5360.00
02131           -5360.00
02132           -5440.00
02133           -5440.00
02134           -5520.00
02135           -5520.00
02136           -5520.00
02137           -5600.00
02138           -5600.00
02139           -5600.00
02140           -5600.00
02141           -5680.00
02142           -5680.00
02143           -5680.00
02144           -5680.00
02145           -5840.00
02146           -5840.00
02147           -5760.00
02148           -5920.00
02149           -5920.00
02150           -5920.00
02151           -5920.00
02152           -5920.00
02153           -6000.00
02154           -6000.00
02155           -6000.00
02156           -6000.00
02157           -6000.00
02158           -6080.00
02159           -6080.00
02160           -6160.00
02161           -6160.00
02162           -6160.00
02163           -6240.00
02164           -6240.00
02165           -6240.00
02166           -6240.00
02167           -6240.00
02168           -6240.00
02169           -6240.00
02170           -6240.00
02171           -6320.00
02172           -6320.00
02173           -6320.00
02174           -6320.00
02175           -6320.00
02176           -6320.00
02177           -6320.00
02178           -6480.00
02179           -6400.00
02180           -6480.00
02181           -6480.00
02182           -6480.00
02183           -6560.00
02184           -6560.00
02185           -6560.00
02186           -6560.00
02187           -6560.00
02188           -6560.00
02189           -6560.00
02190           -6640.00
02191           -6640.00
02192           -6640.00
02193           -6640.00
02194           -6640.00
02195           -6640.00
02196           -6640.00
02197           -6640.00
02198           -6720.00
02199           -6800.00
02200           -6640.00
02201           -6800.00
02202           -6640.00
02203           -6720.00
02204           -6800.00
02205           -6800.00
02206           -6800.00
02207           -6800.00
02208           -6800.00
02209           -6800.00
02210           -6880.00
02211           -6800.00
02212           -6800.00
02213           -6880.00
02214           -6880.00
02215           -6880.00
02216           -6880.00
02217           -6880.00
02218           -6880.00
02219           -6960.00
02220           -6880.00
02221           -6880.00
02222           -6880.00
02223           -6880.00
02224           -6960.00
02225           -6960.00
02226           -6880.00
02227           -6880.00
02228           -6960.00
02229           -6960.00
02230           -6960.00
02231           -6880.00
02232           -6960.00
02233           -6880.00
02234           -6960.00
02235           -6960.00
02236           -6960.00
02237           -6960.00
02238           -6960.00
02239           -6960.00
02240           -6960.00
02241           -6960.00
02242           -6960.00
02243           -6960.00
02244           -6960.00
02245           -6960.00
02246           -6960.00
02247           -6880.00
02248           -6880.00
02249           -6960.00
02250           -6880.00
02251           -6960.00
02252           -6880.00
02253           -6880.00
02254           -6880.00
02255           -6960.00
02256           -6880.00
02257           -6880.00
02258           -6880.00
02259           -6880.00
02260           -6880.00
02261           -6880.00
02262           -6880.00
02263           -6880.00
02264           -6880.00
02265           -6880.00
02266           -6880.00
02267           -6880.00
02268           -6880.00
02269           -6880.00
02270           -6800.00
02271           -6880.00
02272           -6880.00
02273           -6880.00
02274           -6800.00
02275           -6800.00
02276           -6720.00
02277           -6800.00
02278           -6800.00
02279           -6720.00
02280           -6800.00
02281           -6800.00
02282           -6640.00
02283           -6800.00
02284           -6720.00
02285           -6720.00
02286           -6640.00
02287           -6640.00
02288           -6640.00
02289           -6800.00
02290           -6640.00
02291           -6640.00
02292           -6560.00
02293           -6640.00
02294           -6640.00
02295           -6560.00
02296           -6560.00
02297           -6560.00
02298           -6560.00
02299           -6560.00
02300           -6560.00
02301           -6480.00
02302           -6560.00
02303           -6480.00
02304           -6480.00
02305           -6400.00
02306           -6320.00
02307           -6320.00
02308           -6320.00
02309           -6320.00
02310           -6320.00
02311           -6240.00
02312           -6240.00
02313           -6240.00
02314           -6240.00
02315           -6240.00
02316           -6240.00
02317           -6240.00
02318           -6160.00
02319           -6160.00
02320           -6160.00
02321           -6000.00
02322           -6080.00
02323           -6000.00
02324           -6000.00
02325           -6000.00
02326           -6000.00
02327           -5920.00
02328           -5920.00
02329           -5920.00
02330           -5920.00
02331           -5920.00
02332           -5840.00
02333           -5840.00
02334           -5840.00
02335           -5760.00
02336           -5760.00
02337           -5680.00
02338           -5680.00
02339           -5680.00
02340           -5600.00
02341           -5680.00
02342           -5600.00
02343           -5600.00
02344           -5600.00
02345           -5600.00
02346           -5520.00
02347           -5520.00
02348           -5520.00
02349           -5520.00
02350           -5520.00
02351           -5360.00
02352           -5520.00
02353           -5360.00
02354           -5360.00
02355           -5360.00
02356           -5280.00
02357           -5200.00
02358           -5280.00
02359           -5200.00
02360           -5200.00
02361           -5120.00
02362           -5200.00
02363           -5040.00
02364           -5040.00
02365           -5040.00
02366           -4960.00
02367           -4960.00
02368           -4960.00
02369           -4960.00
02370           -4880.00
02371           -4880.00
02372           -4800.00
02373           -4720.00
02374           -4720.00
02375           -4640.00
02376           -4640.00
02377           -4560.00
02378           -4640.00
02379           -4560.00
02380           -4560.00
02381           -4560.00
02382           -4480.00
02383           -4400.00
02384           -4400.00
02385           -4400.00
02386           -4320.00
02387           -4320.00
02388           -4240.00
02389           -4240.00
02390           -4080.00
02391           -4240.00
02392           -4080.00
02393           -4080.00
02394           -4080.00
02395           -4080.00
02396           -4000.00
02397           -4000.00
02398           -3920.00
02399           -3760.00
02400           -3840.00
02401           -3760.00
02402           -3760.00
02403           -3760.00
02404           -3680.00
02405           -3680.00
02406           -3680.00
02407           -3680.00
02408           -3600.00
02409           -3600.00
02410           -3440.00
02411           -3440.00
02412           -3440.00
02413           -3440.00
02414           -3440.00
02415           -3360.00
02416           -3280.00
02417           -3360.00
02418           -3200.00
02419           -3120.00
02420           -3120.00
02421           -3040.00
02422           -3120.00
02423           -3040.00
02424           -3040.00
02425           -2960.00
02426           -2960.00
02427           -2800.00
02428           -2800.00
02429           -2800.00
02430           -2800.00
02431           -2720.00
02432           -2640.00
02433           -2640.00
02434           -2640.00
02435           -2480.00
02436           -2480.00
02437           -2480.00
02438           -2480.00
02439           -2400.00
02440           -2400.00
02441           -2320.00
02442           -2320.00
02443           -2320.00
02444           -2160.00
02445           -2160.00
02446           -2160.00
02447           -2080.00
02448           -2160.00
02449           -1920.00
02450           -1920.00
02451           -1840.00
02452           -1840.00
02453           -1840.00
02454           -1760.00
02455           -1760.00
02456           -1760.00
02457           -1680.00
02458           -1600.00
02459           -1520.00
02460           -1520.00
02461           -1520.00
02462           -1440.00
02463           -1440.00
02464           -1360.00
02465           -1360.00
02466           -1360.00
02467           -1200.00
02468           -1200.00
02469           -1200.00
02470           -1120.00
02471           -1120.00
02472           -1040.00
02473           -1040.00
02474            -960.00
02475            -880.00
02476            -880.00
02477            -800.00
02478            -880.00
02479            -800.00
02480            -720.00
02481            -720.00
02482            -640.00
02483            -560.00
02484            -560.00
02485            -480.00
02486            -480.00
02487            -480.00
02488            -400.00
02489            -240.00
02490            -240.00
02491            -240.00
02492            -240.00
02493            -160.00
02494            -160.00
02495             -80.00
02496             -80.00
02497             -80.00
02498              80.00
02499              80.00
02500              80.00
02501             160.00
02502             240.00
02503             240.00
02504             240.00
02505             400.00
02506             400.00
02507             480.00
02508             480.00
02509             560.00
02510             560.00
02511             640.00
02512             720.00
02513             720.00
02514             720.00
02515             800.00
02516             880.00
02517             880.00
02518             880.00
02519             960.00
02520            1040.00
02521            1040.00
02522            1120.00
02523            1120.00
02524            1120.00
02525            1200.00
02526            1360.00
02527            1360.00
02528            1360.00
02529            1440.00
02530            1440.00
02531            1440.00
02532            1440.00
02533            1520.00
02534            1680.00
02535            1680.00
02536            1680.00
02537            1760.00
02538            1760.00
02539            1760.00
02540            1840.00
02541            1920.00
02542            1840.00
02543            2000.00
02544            2000.00
02545            2080.00
02546            2080.00
02547            2160.00
02548            2160.00
02549            2160.00
02550            2320.00
02551            2320.00
02552            2320.00
02553            2320.00
02554            2400.00
02555            2400.00
02556            2480.00
02557            2480.00
02558            2640.00
02559            2640.00
02560            2640.00
02561            2720.00
02562            2720.00
02563            2720.00
02564            2800.00
02565            2800.00
02566            2800.00
02567            2960.00
02568            3040.00
02569            3040.00
02570            3040.00
02571            3120.00
02572            3120.00
02573            3120.00
02574            3200.00
02575            3280.00
02576            3360.00
02577            3360.00
02578            3360.00
02579            3360.00
02580            3440.00
02581            3600.00
02582            3520.00
02583            3600.00
02584            3600.00
02585            3600.00
02586            3680.00
02587            3680.00
02588            3760.00
02589            3760.00
02590            3920.00
02591            3920.00
02592            3920.00
02593            3920.00
02594            4000.00
02595            4000.00
02596            4000.00
02597            4000.00
02598            4080.00
02599            4240.00
02600            4240.00
02601            4240.00
02602            4240.00
02603            4240.00
02604            4320.00
02605            4400.00
02606            4320.00
02607            4400.00
02608            4400.00
02609            4480.00
02610            4400.00
02611            4560.00
02612            4560.00
02613            4640.00
02614            4640.00
02615            4640.00
02616            4720.00
02617            4640.00
02618            4720.00
02619            4800.00
02620            4880.00
02621            4880.00
02622            4880.00
02623            4880.00
02624            4960.00
02625            4960.00
02626            4960.00
02627            5040.00
02628            5040.00
02629            5040.00
02630            5200.00
02631            5200.00
02632            5200.00
02633            5200.00
02634            5280.00
02635            5280.00
02636            5280.00
02637            5360.00
02638            5280.00
02639            5360.00
02640            5360.00
02641            5520.00
02642            5520.00
02643            5520.00
02644            5600.00
02645            5600.00
02646            5600.00
02647            5600.00
02648            5600.00
02649            5600.00
02650            5680.00
02651            5680.00
02652            5840.00
02653            5840.00
02654            5840.00
02655            5840.00
02656            5840.00
02657            5840.00
02658            5840.00
02659            5920.00
02660            5920.00
02661            6000.00
02662            5920.00
02663            6000.00
02664            6000.00
02665            6000.00
02666            6080.00
02667            6160.00
02668            6160.00
02669            6160.00
02670            6160.00
02671            6160.00
02672            6160.00
02673            6160.00
02674            6240.00
02675            6240.00
02676            6240.00
02677            6240.00
02678            6240.00
02679            6320.00
02680            6320.00
02681            6320.00
02682            6320.00
02683            6400.00
02684            6400.00
02685            6480.00
02686            6480.00
02687            6480.00
02688            6560.00
02689            6480.00
02690            6480.00
02691            6480.00
02692            6560.00
02693            6480.00
02694            6560.00
02695            6560.00
02696            6560.00
02697            6560.00
02698            6560.00
02699            6640.00
02700            6640.00
02701            6640.00
02702            6640.00
02703            6640.00
02704            6640.00
02705            6720.00
02706            6640.00
02707            6720.00
02708            6800.00
02709            6800.00
02710            6800.00
02711            6880.00
02712            6800.00
02713            6800.00
02714            6800.00
02715            6800.00
02716            6800.00
02717            6880.00
02718            6800.00
02719            6880.00
02720            6800.00
02721            6880.00
02722            6880.00
02723            6880.00
02724            6880.00
02725            6880.00
02726            6880.00
02727            6880.00
02728            6880.00
02729            6960.00
02730            6880.00
02731            6880.00
02732            6880.00
02733            6880.00
02734            6880.00
02735            6880.00
02736            6880.00
02737            6880.00
02738            6880.00
02739            6960.00
02740            6960.00
02741            6960.00
02742            6960.00
02743            6960.00
02744            6960.00
02745            6880.00
02746            6960.00
02747            6960.00
02748            6960.00
02749            6960.00
02750            6960.00
02751            6960.00
02752            6960.00
02753            6960.00
02754            6960.00
02755            6960.00
02756            6960.00
02757            6960.00
02758            6960.00
02759            6880.00
02760            6880.00
02761            6960.00
02762            6960.00
02763            6960.00
02764            6960.00
02765            6880.00
02766            6880.00
02767            6960.00
02768            6880.00
02769            6880.00
02770            6960.00
02771            6880.00
02772            6880.00
02773            6880.00
02774            6960.00
02775            6880.00
02776            6880.00
02777            6960.00
02778            6880.00
02779            6800.00
02780            6880.00
02781            6800.00
02782            6800.00
02783            6800.00
02784            6800.00
02785            6880.00
02786            6800.00
02787            6880.00
02788            6800.00
02789            6800.00
02790            6800.00
02791            6800.00
02792            6800.00
02793            6800.00
02794            6640.00
02795            6800.00
02796            6720.00
02797            6720.00
02798            6640.00
02799            6640.00
02800            6560.00
02801            6560.00
02802            6560.00
02803            6560.00
02804            6560.00
02805            6560.00
02806            6640.00
02807            6560.00
02808            6560.00
02809            6560.00
02810            6480.00
02811            6480.00
02812            6480.00
02813            6480.00
02814            6480.00
02815            6400.00
02816            6480.00
02817            6400.00
02818            6320.00
02819            6320.00
02820            6240.00
02821            6320.00
02822            6320.00
02823            6240.00
02824            6240.00
02825            6240.00
02826            6240.00
02827            6160.00
02828            6160.00
02829            6160.00
02830            6160.00
02831            6160.00
02832            6160.00
02833            6080.00
02834            6000.00
02835            6080.00
02836            6000.00
02837            5920.00
02838            5920.00
02839            5920.00
02840            6000.00
02841            5920.00
02842            5920.00
02843            5920.00
02844            5920.00
02845            5840.00
02846            5840.00
02847            5840.00
02848            5840.00
02849            5760.00
02850            5680.00
02851            5680.00
02852            5600.00
02853            5600.00
02854            5600.00
02855            5520.00
02856            5600.00
02857            5520.00
02858            5520.00
02859            5520.00
02860            5440.00
02861            5520.00
02862            5360.00
02863            5360.00
02864            5360.00
02865            5280.00
02866            5280.00
02867            5280.00
02868            5200.00
02869            5200.00
02870            5200.00
02871            5120.00
02872            5040.00
02873            5120.00
02874            4960.00
02875            5040.00
02876            4960.00
02877            4960.00
02878            4880.00
02879            4880.00
02880            4880.00
02881            4800.00
02882            4800.00
02883            4720.00
02884            4720.00
02885            4720.00
02886            4640.00
02887            4640.00
02888            4640.00
02889            4560.00
02890            4560.00
02891            4400.00
02892            4560.00
02893            4400.00
02894            4400.00
02895            4320.00
02896            4320.00
02897            4320.00
02898            4240.00
02899            4240.00
02900            4240.00
02901            4240.00
02902            4080.00
02903            4080.00
02904            4080.00
02905            4080.00
02906            4000.00
02907            4000.00
02908            3920.00
02909            3920.00
02910            3920.00
02911            3840.00
02912            3760.00
02913            3760.00
02914            3680.00
02915            3680.00
02916            3600.00
02917            3600.00
02918            3600.00
02919            3600.00
02920            3440.00
02921            3440.00
02922            3440.00
02923            3440.00
02924            3360.00
02925            3360.00
02926            3280.00
02927            3280.00
02928            3280.00
02929            3200.00
02930            3120.00
02931            3040.00
02932            3040.00
02933            2960.00
02934            2960.00
02935            2960.00
02936            2880.00
02937            2800.00
02938            2800.00
02939            2720.00
02940            2720.00
02941            2720.00
02942            2720.00
02943            2640.00
02944            2560.00
02945            2480.00
02946            2480.00
02947            2480.00
02948            2400.00
02949            2320.00
02950            2320.00
02951            2320.00
02952            2320.00
02953            2160.00
02954            2160.00
02955            2160.00
02956            2080.00
02957            2080.00
02958            2080.00
02959            2000.00
02960            2000.00
02961            1920.00
02962            1920.00
02963            1840.00
02964            1840.00
02965            1760.00
02966            1680.00
02967            1680.00
02968            1680.00
02969            1520.00
02970            1520.00
02971            1440.00
02972            1440.00
02973            1440.00
02974            1360.00
02975            1360.00
02976            1360.00
02977            1200.00
02978            1200.00
02979            1120.00
02980            1120.00
02981            1120.00
02982            1040.00
02983            1040.00
02984            1040.00
02985             880.00
02986             800.00
02987             800.00
02988             800.00
02989             720.00
02990             800.00
02991             720.00
02992             640.00
02993             560.00
02994             560.00
02995             480.00
02996             480.00
02997             400.00
02998             400.00
02999             240.00
03000             240.00
03001             160.00
03002             160.00
03003             160.00
03004              80.00
03005              80.00
03006              80.00
03007             -80.00
03008             -80.00
03009            -160.00
03010            -160.00
03011            -240.00
03012            -240.00
03013            -240.00
03014            -240.00
03015            -400.00
03016            -400.00
03017            -560.00
03018            -560.00
03019            -560.00
03020            -560.00
03021            -560.00
03022            -720.00
03023            -720.00
03024            -800.00
03025            -880.00
03026            -800.00
03027            -880.00
03028            -880.00
03029           -1040.00
03030           -1040.00
03031           -1040.00
03032           -1040.00
03033           -1120.00
03034           -1200.00
03035           -1200.00
03036           -1200.00
03037           -1200.00
03038           -1360.00
03039           -1360.00
03040           -1360.00
03041           -1520.00
03042           -1520.00
03043           -1520.00
03044           -1680.00
03045           -1600.00
03046           -1760.00
03047           -1760.00
03048           -1760.00
03049           -1840.00
03050           -1760.00
03051           -1840.00
03052           -1840.00
03053           -2000.00
03054           -2000.00
03055           -2080.00
03056           -2080.00
03057           -2080.00
03058           -2160.00
03059           -2160.00
03060           -2240.00
03061           -2320.00
03062           -2400.00
03063           -2480.00
03064           -2480.00
03065           -2480.00
03066           -2560.00
03067           -2560.00
03068           -2640.00
03069           -2640.00
03070           -2720.00
03071           -2720.00
03072           -2800.00
03073           -2800.00
03074           -2880.00
03075           -2960.00
03076           -2800.00
03077           -3040.00
03078           -3040.00
03079           -3040.00
03080           -3040.00
03081           -3120.00
03082           -3120.00
03083           -3280.00
03084           -3200.00
03085           -3280.00
03086           -3280.00
03087           -3360.00
03088           -3440.00
03089           -3360.00
03090           -3440.00
03091           -3440.00
03092           -3520.00
03093           -3520.00
03094           -3600.00
03095           -3680.00
03096           -3680.00
03097           -3680.00
03098           -3680.00
03099           -3760.00
03100           -3760.00
03101           -3760.00
03102           -3760.00
03103           -3920.00
03104           -3920.00
03105           -4000.00
03106           -4000.00
03107           -4000.00
03108           -4080.00
03109           -4080.00
03110           -4160.00
03111           -4080.00
03112           -4080.00
03113           -4240.00
03114           -4240.00
03115           -4320.00
03116           -4320.00
03117           -4400.00
03118           -4400.00
03119           -4400.00
03120           -4400.00
03121           -4560.00
03122           -4560.00
03123           -4560.00
03124           -4640.00
03125           -4640.00
03126           -4640.00
03127           -4640.00
03128           -4720.00
03129           -4720.00
03130           -4880.00
03131           -4880.00
03132           -4960.00
03133           -4960.00
03134           -4960.00
03135           -4960.00
03136           -5040.00
03137           -5040.00
03138           -5040.00
03139           -5040.00
03140           -5120.00
03141           -5200.00
03142           -5200.00
03143           -5200.00
03144           -5280.00
03145           -5280.00
03146           -5280.00
03147           -5360.00
03148           -5360.00
03149           -5360.00
03150           -5360.00
03151           -5520.00
03152           -5520.00
03153           -5520.00
03154           -5520.00
03155           -5600.00
03156           -5520.00
03157           -5600.00
03158           -5600.00
03159           -5680.00
03160           -5600.00
03161           -5680.00
03162           -5680.00
03163           -5680.00
03164           -5760.00
03165           -5840.00
03166           -5840.00
03167           -5760.00
03168           -5920.00
03169           -5920.00
03170           -5920.00
03171           -5920.00
03172           -5920.00
03173           -6000.00
03174           -6000.00
03175           -6000.00
03176           -6000.00
03177           -6000.00
03178           -6000.00
03179           -6000.00
03180           -6080.00
03181           -6160.00
03182           -6160.00
03183           -6160.00
03184           -6240.00
03185           -6160.00
03186           -6240.00
03187           -6240.00
03188           -6320.00
03189           -6240.00
03190           -6320.00
03191           -6320.00
03192           -6320.00
03193           -6480.00
03194           -6400.00
03195           -6480.00
03196           -6400.00
03197           -6480.00
03198           -6480.00
03199           -6480.00
03200           -6560.00
03201           -6480.00
03202           -6560.00
03203           -6560.00
03204           -6560.00
03205           -6560.00
03206           -6560.00
03207           -6640.00
03208           -6640.00
03209           -6640.00
03210           -6640.00
03211           -6640.00
03212           -6640.00
03213           -6640.00
03214           -6640.00
03215           -6720.00
03216           -6800.00
03217           -6640.00
03218           -6800.00
03219           -6800.00
03220           -6640.00
03221           -6640.00
03222           -6800.00
03223           -6800.00
03224           -6880.00
03225           -6800.00
03226           -6800.00
03227           -6800.00
03228           -6880.00
03229           -6800.00
03230           -6880.00
03231           -6800.00
03232           -6880.00
03233           -6800.00
03234           -6880.00
03235           -6800.00
03236           -6880.00
03237           -6880.00
03238           -6880.00
03239           -6880.00
03240           -6880.00
03241           -6880.00
03242           -6880.00
03243           -6960.00
03244           -6880.00
03245           -6960.00
03246           -6880.00
03247           -6880.00
03248           -6960.00
03249           -6960.00
03250           -6880.00
03251           -6880.00
03252           -6960.00
03253           -6880.00
03254           -6960.00
03255           -6880.00
03256           -6960.00
03257           -6880.00
03258           -6880.00
03259           -6960.00
03260           -6960.00
03261           -6960.00
03262           -6880.00
03263           -6960.00
03264           -6960.00
03265           -6960.00
03266           -6960.00
03267           -6960.00
03268           -6880.00
03269           -6960.00
03270           -6960.00
03271           -6960.00
03272           -6880.00
03273           -6960.00
03274           -6880.00
03275           -6960.00
03276           -6960.00
03277           -6880.00
03278           -6960.00
03279           -6880.00
03280           -6880.00
03281           -6880.00
03282           -6880.00
03283           -6880.00
03284           -6880.00
03285           -6880.00
03286           -6880.00
03287           -6880.00
03288           -6880.00
03289           -6880.00
03290           -6800.00
03291           -6800.00
03292           -6880.00
03293           -6800.00
03294           -6800.00
03295           -6800.00
03296           -6720.00
03297           -6800.00
03298           -6800.00
03299           -6800.00
03300           -6720.00
03301           -6640.00
03302           -6640.00
03303           -6640.00
03304           -6640.00
03305           -6640.00
03306           -6640.00
03307           -6640.00
03308           -6640.00
03309           -6560.00
03310           -6640.00
03311           -6560.00
03312           -6560.00
03313           -6640.00
03314           -6560.00
03315           -6480.00
03316           -6560.00
03317           -6560.00
03318           -6560.00
03319           -6480.00
03320           -6480.00
03321           -6480.00
03322           -6480.00
03323           -6480.00
03324           -6320.00
03325           -6480.00
03326           -6320.00
03327           -6320.00
03328           -6320.00
03329           -6320.00
03330           -6320.00
03331           -6240.00
03332           -6240.00
03333           -6240.00
03334           -6240.00
03335           -6160.00
03336           -6240.00
03337           -6240.00
03338           -6160.00
03339           -6240.00
03340           -6160.00
03341           -6160.00
03342           -6160.00
03343           -6000.00
03344           -6000.00
03345           -6000.00
03346           -6000.00
03347           -6000.00
03348           -6000.00
03349           -5920.00
03350           -5920.00
03351           -5840.00
03352           -5840.00
03353           -5920.00
03354           -5840.00
03355           -5760.00
03356           -5760.00
03357           -5840.00
03358           -5680.00
03359           -5680.00
03360           -5680.00
03361           -5680.00
03362           -5600.00
03363           -5600.00
03364           -5600.00
03365           -5520.00
03366           -5440.00
03367           -5520.00
03368           -5440.00
03369           -5360.00
03370           -5360.00
03371           -5360.00
03372           -5360.00
03373           -5360.00
03374           -5360.00
03375           -5280.00
03376           -5280.00
03377           -5200.00
03378           -5200.00
03379           -5120.00
03380           -5120.00
03381           -5200.00
03382           -5040.00
03383           -5040.00
03384           -4960.00
03385           -4960.00
03386           -4960.00
03387           -4880.00
03388           -4960.00
03389           -4960.00
03390           -4880.00
03391           -4800.00
03392           -4720.00
03393           -4720.00
03394           -4720.00
03395           -4720.00
03396           -4640.00
03397           -4640.00
03398           -4640.00
03399           -4640.00
03400           -4560.00
03401           -4560.00
03402           -4560.00
03403           -4400.00
03404           -4400.00
03405           -4320.00
03406           -4320.00
03407           -4320.00
03408           -4240.00
03409           -4240.00
03410           -4240.00
03411           -4160.00
03412           -4080.00
03413           -4080.00
03414           -4080.00
03415           -4000.00
03416           -4080.00
03417           -3920.00
03418           -3920.00
03419           -3760.00
03420           -3840.00
03421           -3760.00
03422           -3760.00
03423           -3760.00
03424           -3680.00
03425           -3680.00
03426           -3680.00
03427           -3600.00
03428           -3440.00
03429           -3440.00
03430           -3440.00
03431           -3440.00
03432           -3360.00
03433           -3360.00
03434           -3360.00
03435           -3360.00
03436           -3280.00
03437           -3280.00
03438           -3200.00
03439           -3040.00
03440           -3120.00
03441           -3040.00
03442           -3040.00
03443           -3040.00
03444           -2960.00
03445           -2960.00
03446           -2880.00
03447           -2800.00
03448           -2800.00
03449           -2800.00
03450           -2720.00
03451           -2640.00
03452           -2640.00
03453           -2560.00
03454           -2640.00
03455           -2480.00
03456           -2480.00
03457           -2480.00
03458           -2400.00
03459           -2400.00
03460           -2320.00
03461           -2320.00
03462           -2320.00
03463           -2240.00
03464           -2160.00
03465           -2160.00
03466           -2080.00
03467           -2080.00
03468           -2000.00
03469           -2000.00
03470           -1920.00
03471           -1920.00
03472           -1840.00
03473           -1840.00
03474           -1760.00
03475           -1760.00
03476           -1760.00
03477           -1680.00
03478           -1680.00
03479           -1520.00
03480           -1520.00
03481           -1440.00
03482           -1440.00
03483           -1360.00
03484           -1360.00
03485           -1360.00
03486           -1200.00
03487           -1200.00
03488           -1200.00
03489           -1200.00
03490           -1120.00
03491           -1040.00
03492           -1040.00
03493           -1040.00
03494            -880.00
03495            -880.00
03496            -800.00
03497            -800.00
03498            -800.00
03499            -720.00
03500            -720.00
03501            -560.00
03502            -560.00
03503            -560.00
03504            -480.00
03505            -480.00
03506            -400.00
03507            -400.00
03508            -240.00
03509            -240.00
03510            -240.00
03511            -240.00
03512            -160.00
03513             -80.00
03514             -80.00
03515               0.00
03516              80.00
03517              80.00
03518              80.00
03519              80.00
03520             160.00
03521             160.00
03522             240.00
03523             320.00
03524             320.00
03525             400.00
03526             400.00
03527             480.00
03528             480.00
03529             480.00
03530             560.00
03531             720.00
03532             720.00
03533             720.00
03534             720.00
03535             800.00
03536             800.00
03537             880.00
03538             880.00
03539             960.00
03540            1040.00
03541            1040.00
03542            1040.00
03543            1120.00
03544            1120.00
03545            1200.00
03546            1200.00
03547            1360.00
03548            1360.00
03549            1440.00
03550            1440.00
03551            1520.00
03552            1520.00
03553            1600.00
03554            1680.00
03555            1680.00
03556            1680.00
03557            1760.00
03558            1760.00
03559            1760.00
03560            1840.00
03561            2000.00
03562            2000.00
03563            2080.00
03564            2080.00
03565            2080.00
03566            2080.00
03567            2160.00
03568            2240.00
03569            2320.00
03570            2320.00
03571            2400.00
03572            2320.00
03573            2400.00
03574            2480.00
03575            2480.00
03576            2640.00
03577            2640.00
03578            2640.00
03579            2720.00
03580            2720.00
03581            2720.00
03582            2720.00
03583            2800.00
03584            2800.00
03585            2960.00
03586            2960.00
03587            2960.00
03588            3040.00
03589            3040.00
03590            3120.00
03591            3120.00
03592            3120.00
03593            3200.00
03594            3280.00
03595            3280.00
03596            3360.00
03597            3360.00
03598            3360.00
03599            3360.00
03600            3440.00
03601            3440.00
03602            3600.00
03603            3600.00
03604            3600.00
03605            3600.00
03606            3680.00
03607            3680.00
03608            3760.00
03609            3760.00
03610            3920.00
03611            3920.00
03612            3920.00
03613            3920.00
03614            4000.00
03615            4000.00
03616            4000.00
03617            4000.00
03618            4080.00
03619            4240.00
03620            4240.00
03621            4240.00
03622            4320.00
03623            4240.00
03624            4320.00
03625            4320.00
03626            4320.00
03627            4480.00
03628            4400.00
03629            4560.00
03630            4560.00
03631            4560.00
03632            4640.00
03633            4640.00
03634            4720.00
03635            4720.00
03636            4720.00
03637            4800.00
03638            4800.00
03639            4880.00
03640            4880.00
03641            4880.00
03642            4960.00
03643            4960.00
03644            4960.00
03645            5040.00
03646            5040.00
03647            5040.00
03648            5120.00
03649            5120.00
03650            5200.00
03651            5280.00
03652            5280.00
03653            5200.00
03654            5280.00
03655            5280.00
03656            5280.00
03657            5280.00
03658            5360.00
03659            5360.00
03660            5360.00
03661            5520.00
03662            5360.00
03663            5520.00
03664            5520.00
03665            5600.00
03666            5600.00
03667            5600.00
03668            5600.00
03669            5680.00
03670            5680.00
03671            5680.00
03672            5680.00
03673            5680.00
03674            5840.00
03675            5840.00
03676            5840.00
03677            5920.00
03678            5840.00
03679            5920.00
03680            5920.00
03681            5920.00
03682            6000.00
03683            6000.00
03684            6000.00
03685            6000.00
03686            6000.00
03687            6160.00
03688            6160.00
03689            6160.00
03690            6160.00
03691            6160.00
03692            6160.00
03693            6240.00
03694            6240.00
03695            6240.00
03696            6240.00
03697            6320.00
03698            6320.00
03699            6320.00
03700            6320.00
03701            6480.00
03702            6400.00
03703            6320.00
03704            6480.00
03705            6480.00
03706            6480.00
03707            6480.00
03708            6480.00
03709            6560.00
03710            6560.00
03711            6560.00
03712            6560.00
03713            6560.00
03714            6560.00
03715            6560.00
03716            6560.00
03717            6560.00
03718            6560.00
03719            6640.00
03720            6640.00
03721            6640.00
03722            6640.00
03723            6640.00
03724            6640.00
03725            6640.00
03726            6720.00
03727            6800.00
03728            6720.00
03729            6800.00
03730            6720.00
03731            6720.00
03732            6800.00
03733            6800.00
03734            6800.00
03735            6800.00
03736            6800.00
03737            6800.00
03738            6800.00
03739            6800.00
03740            6800.00
03741            6800.00
03742            6880.00
03743            6880.00
03744            6880.00
03745            6880.00
03746            6880.00
03747            6880.00
03748            6880.00
03749            6880.00
03750            6880.00
03751            6960.00
03752            6960.00
03753            6880.00
03754            6960.00
03755            6960.00
03756            6960.00
03757            6880.00
03758            6960.00
03759            6880.00
03760            6960.00
03761            6960.00
03762            6960.00
03763            6960.00
03764            6960.00
03765            6960.00
03766            6960.00
03767            6960.00
03768            6960.00
03769            6960.00
03770            6960.00
03771            6960.00
03772            6960.00
03773            6960.00
03774            6960.00
03775            6960.00
03776            6880.00
03777            6960.00
03778            6960.00
03779            6960.00
03780            6960.00
03781            6960.00
03782            6960.00
03783            6880.00
03784            6880.00
03785            6880.00
03786            6880.00
03787            6960.00
03788            6880.00
03789            6960.00
03790            6880.00
03791            6880.00
03792            6800.00
03793            6880.00
03794            6880.00
03795            6880.00
03796            6880.00
03797            6880.00
03798            6880.00
03799            6880.00
03800            6800.00
03801            6800.00
03802            6800.00
03803            6800.00
03804            6800.00
03805            6800.00
03806            6800.00
03807            6800.00
03808            6800.00
03809            6800.00
03810            6800.00
03811            6800.00
03812            6720.00
03813            6800.00
03814            6720.00
03815            6800.00
03816            6720.00
03817            6640.00
03818            6720.00
03819            6640.00
03820            6640.00
03821            6560.00
03822            6560.00
03823            6640.00
03824            6560.00
03825            6560.00
03826            6560.00
03827            6560.00
03828            6560.00
03829            6560.00
03830            6560.00
03831            6480.00
03832            6560.00
03833            6480.00
03834            6480.00
03835            6480.00
03836            6480.00
03837            6480.00
03838            6400.00
03839            6320.00
03840            6320.00
03841            6320.00
03842            6320.00
03843            6240.00
03844            6240.00
03845            6240.00
03846            6160.00
03847            6240.00
03848            6160.00
03849            6160.00
03850            6160.00
03851            6160.00
03852            6000.00
03853            6000.00
03854            6080.00
03855            6000.00
03856            6000.00
03857            6000.00
03858            5920.00
03859            5920.00
03860            5920.00
03861            5920.00
03862            5920.00
03863            5840.00
03864            5840.00
03865            5840.00
03866            5760.00
03867            5680.00
03868            5680.00
03869            5840.00
03870            5600.00
03871            5680.00
03872            5600.00
03873            5600.00
03874            5600.00
03875            5520.00
03876            5520.00
03877            5520.00
03878            5520.00
03879            5440.00
03880            5360.00
03881            5360.00
03882            5360.00
03883            5360.00
03884            5280.00
03885            5280.00
03886            5280.00
03887            5280.00
03888            5280.00
03889            5200.00
03890            5200.00
03891            5040.00
03892            5200.00
03893            5040.00
03894            5040.00
03895            4960.00
03896            5040.00
03897            4960.00
03898            4880.00
03899            4880.00
03900            4880.00
03901            4880.00
03902            4880.00
03903            4800.00
03904            4720.00
03905            4640.00
03906            4640.00
03907            4640.00
03908            4640.00
03909            4560.00
03910            4560.00
03911            4480.00
03912            4400.00
03913            4400.00
03914            4320.00
03915            4400.00
03916            4320.00
03917            4320.00
03918            4240.00
03919            4240.00
03920            4240.00
03921            4160.00
03922            4080.00
03923            4000.00
03924            4000.00
03925            4000.00
03926            4000.00
03927            3920.00
03928            3920.00
03929            3920.00
03930            3840.00
03931            3760.00
03932            3760.00
03933            3760.00
03934            3680.00
03935            3600.00
03936            3680.00
03937            3600.00
03938            3600.00
03939            3600.00
03940            3440.00
03941            3440.00
03942            3440.00
03943            3360.00
03944            3360.00
03945            3280.00
03946            3280.00
03947            3280.00
03948            3280.00
03949            3120.00
03950            3040.00
03951            3120.00
03952            3040.00
03953            3040.00
03954            3040.00
03955            2960.00
03956            2960.00
03957            2800.00
03958            2800.00
03959            2720.00
03960            2720.00
03961            2640.00
03962            2640.00
03963            2640.00
03964            2640.00
03965            2480.00
03966            2560.00
03967            2480.00
03968            2400.00
03969            2400.00
03970            2320.00
03971            2320.00
03972            2320.00
03973            2160.00
03974            2160.00
03975            2080.00
03976            2160.00
03977            2080.00
03978            2000.00
03979            1920.00
03980            2000.00
03981            1840.00
03982            1840.00
03983            1760.00
03984            1680.00
03985            1680.00
03986            1680.00
03987            1680.00
03988            1600.00
03989            1520.00
03990            1520.00
03991            1440.00
03992            1440.00
03993            1360.00
03994            1440.00
03995            1360.00
03996            1280.00
03997            1200.00
03998            1200.00
03999            1120.00
04000            1040.00
04001            1040.00
04002            1040.00
04003            1040.00
04004             960.00
04005             880.00
04006             880.00
04007             800.00
04008             800.00
04009             720.00
04010             720.00
04011             720.00
04012             560.00
04013             560.00
04014             480.00
04015             480.00
04016             400.00
04017             400.00
04018             400.00
04019             240.00
04020             240.00
04021             240.00
04022             160.00
04023             160.00
04024              80.00
04025              80.00
04026              80.00
04027               0.00
04028             -80.00
04029             -80.00
04030            -160.00
04031            -160.00
04032            -240.00
04033            -240.00
04034            -240.00
04035            -400.00
04036            -480.00
04037            -480.00
04038            -480.00
04039            -560.00
04040            -560.00
04041            -640.00
04042            -720.00
04043            -720.00
04044            -800.00
04045            -880.00
04046            -880.00
04047            -880.00
04048            -960.00
04049           -1040.00
04050           -1040.00
04051           -1120.00
04052           -1120.00
04053           -1120.00
04054           -1200.00
04055           -1200.00
04056           -1280.00
04057           -1440.00
04058           -1440.00
04059           -1440.00
04060           -1440.00
04061           -1520.00
04062           -1520.00
04063           -1600.00
04064           -1680.00
04065           -1680.00
04066           -1680.00
04067           -1760.00
04068           -1760.00
04069           -1840.00
04070           -1840.00
04071           -1840.00
04072           -2000.00
04073           -2000.00
04074           -2080.00
04075           -2080.00
04076           -2080.00
04077           -2160.00
04078           -2160.00
04079           -2320.00
04080           -2240.00
04081           -2320.00
04082           -2400.00
04083           -2400.00
04084           -2400.00
04085           -2480.00
04086           -2480.00
04087           -2560.00
04088           -2560.00
04089           -2640.00
04090           -2720.00
04091           -2720.00
04092           -2720.00
04093           -2800.00
04094           -2800.00
04095           -2960.00
04096           -2960.00
04097           -2960.00
04098           -3040.00
04099           -3040.00
04100           -3040.00
04101           -3120.00
04102           -3120.00
04103           -3280.00
04104           -3280.00
04105           -3360.00
04106           -3360.00
04107           -3360.00
04108           -3440.00
04109           -3440.00
04110           -3600.00
04111           -3520.00
04112           -3600.00
04113           -3600.00
04114           -3600.00
04115           -3680.00
04116           -3680.00
04117           -3680.00
04118           -3760.00
04119           -3760.00
04120           -3760.00
04121           -3920.00
04122           -3920.00
04123           -4000.00
04124           -4000.00
04125           -4000.00
04126           -4080.00
04127           -4080.00
04128           -4080.00
04129           -4080.00
04130           -4240.00
04131           -4240.00
04132           -4240.00
04133           -4240.00
04134           -4320.00
04135           -4320.00
04136           -4320.00
04137           -4400.00
04138           -4480.00
04139           -4400.00
04140           -4560.00
04141           -4560.00
04142           -4560.00
04143           -4640.00
04144           -4640.00
04145           -4640.00
04146           -4720.00
04147           -4720.00
04148           -4720.00
04149           -4880.00
04150           -4880.00
04151           -4880.00
04152           -4880.00
04153           -4960.00
04154           -4880.00
04155           -4960.00
04156           -4960.00
04157           -5040.00
04158           -5040.00
04159           -5040.00
04160           -5200.00
04161           -5120.00
04162           -5200.00
04163           -5200.00
04164           -5200.00
04165           -5280.00
04166           -5280.00
04167           -5280.00
04168           -5360.00
04169           -5360.00
04170           -5360.00
04171           -5360.00
04172           -5520.00
04173           -5520.00
04174           -5520.00
04175           -5520.00
04176           -5600.00
04177           -5600.00
04178           -5600.00
04179           -5680.00
04180           -5680.00
04181           -5680.00
04182           -5840.00
04183           -5760.00
04184           -5840.00
04185           -5840.00
04186           -5920.00
04187           -5840.00
04188           -5920.00
04189           -5920.00
04190           -5920.00
04191           -5920.00
04192           -5920.00
04193           -6000.00
04194           -6000.00
04195           -6000.00
04196           -6080.00
04197           -6000.00
04198           -6080.00
04199           -6160.00
04200           -6160.00
04201           -6160.00
04202           -6160.00
04203           -6160.00
04204           -6240.00
04205           -6240.00
04206           -6240.00
04207           -6240.00
04208           -6240.00
04209           -6240.00
04210           -6320.00
04211           -6320.00
04212           -6320.00
04213           -6240.00
04214           -6320.00
04215           -6320.00
04216           -6320.00
04217           -6320.00
04218           -6480.00
04219           -6480.00
04220           -6480.00
04221           -6480.00
04222           -6560.00
04223           -6480.00
04224           -6560.00
04225           -6560.00
04226           -6640.00
04227           -6560.00
04228           -6560.00
04229           -6560.00
04230           -6640.00
04231           -6640.00
04232           -6640.00
04233           -6640.00
04234           -6640.00
04235           -6640.00
04236           -6800.00
04237           -6640.00
04238           -6800.00
04239           -6800.00
04240           -6800.00
04241           -6800.00
04242           -6800.00
04243           -6800.00
04244           -6880.00
04245           -6800.00
04246           -6800.00
04247           -6880.00
04248           -6800.00
04249           -6880.00
04250           -6880.00
04251           -6880.00
04252           -6880.00
04253           -6880.00
04254           -6880.00
04255           -6880.00
04256           -6880.00
04257           -6880.00
04258           -6880.00
04259           -6880.00
04260           -6960.00
04261           -6880.00
04262           -6880.00
04263           -6880.00
04264           -6880.00
04265           -6880.00
04266           -6880.00
04267           -6960.00
04268           -6960.00
04269           -6960.00
04270           -6960.00
04271           -6960.00
04272           -6960.00
04273           -6960.00
04274           -6960.00
04275           -6880.00
04276           -6960.00
04277           -6960.00
04278           -6880.00
04279           -6960.00
04280           -6880.00
04281           -6960.00
04282           -6880.00
04283           -6960.00
04284           -6960.00
04285           -6880.00
04286           -6880.00
04287           -6960.00
04288           -6880.00
04289           -6880.00
04290           -6880.00
04291           -6960.00
04292           -6960.00
04293           -6880.00
04294           -6880.00
04295           -6880.00
04296           -6880.00
04297           -6880.00
04298           -6880.00
04299           -6880.00
04300           -6880.00
04301           -6960.00
04302           -6880.00
04303           -6880.00
04304           -6880.00
04305           -6880.00
04306           -6880.00
04307           -6880.00
04308           -6800.00
04309           -6880.00
04310           -6880.00
04311           -6880.00
04312           -6800.00
04313           -6800.00
04314           -6880.00
04315           -6800.00
04316           -6800.00
04317           -6720.00
04318           -6800.00
04319           -6800.00
04320           -6800.00
04321           -6800.00
04322           -6720.00
04323           -6640.00
04324           -6640.00
04325           -6720.00
04326           -6640.00
04327           -6640.00
04328           -6640.00
04329           -6640.00
04330           -6560.00
04331           -6560.00
04332           -6560.00
04333           -6560.00
04334           -6560.00
04335           -6560.00
04336           -6560.00
04337           -6480.00
04338           -6480.00
04339           -6480.00
04340           -6480.00
04341           -6480.00
04342           -6480.00
04343           -6320.00
04344           -6400.00
04345           -6320.00
04346           -6320.00
04347           -6320.00
04348           -6320.00
04349           -6240.00
04350           -6240.00
04351           -6240.00
04352           -6240.00
04353           -6240.00
04354           -6160.00
04355           -6240.00
04356           -6160.00
04357           -6160.00
04358           -6160.00
04359           -6160.00
04360           -6160.00
04361           -6160.00
04362           -6000.00
04363           -6000.00
04364           -6000.00
04365           -6000.00
04366           -6000.00
04367           -6000.00
04368           -5920.00
04369           -5920.00
04370           -5920.00
04371           -5920.00
04372           -5840.00
04373           -5840.00
04374           -5840.00
04375           -5840.00
04376           -5760.00
04377           -5680.00
04378           -5680.00
04379           -5600.00
04380           -5680.00
04381           -5600.00
04382           -5600.00
04383           -5600.00
04384           -5600.00
04385           -5520.00
04386           -5520.00
04387           -5440.00
04388           -5520.00
04389           -5360.00
04390           -5360.00
04391           -5360.00
04392           -5360.00
04393           -5360.00
04394           -5280.00
04395           -5280.00
04396           -5200.00
04397           -5200.00
04398           -5200.00
04399           -5120.00
04400           -5200.00
04401           -5040.00
04402           -5040.00
04403           -5040.00
04404           -4960.00
04405           -4960.00
04406           -4960.00
04407           -4960.00
04408           -4880.00
04409           -4800.00
04410           -4720.00
04411           -4720.00
04412           -4720.00
04413           -4720.00
04414           -4640.00
04415           -4720.00
04416           -4640.00
04417           -4560.00
04418           -4560.00
04419           -4400.00
04420           -4400.00
04421           -4480.00
04422           -4400.00
04423           -4400.00
04424           -4320.00
04425           -4320.00
04426           -4320.00
04427           -4240.00
04428           -4240.00
04429           -4240.00
04430           -4080.00
04431           -4080.00
04432           -4080.00
04433           -4080.00
04434           -4080.00
04435           -4000.00
04436           -4000.00
04437           -3920.00
04438           -3920.00
04439           -3840.00
04440           -3760.00
04441           -3760.00
04442           -3760.00
04443           -3760.00
04444           -3680.00
04445           -3680.00
04446           -3600.00
04447           -3600.00
04448           -3440.00
04449           -3440.00
04450           -3440.00
04451           -3440.00
04452           -3440.00
04453           -3440.00
04454           -3360.00
04455           -3360.00
04456           -3280.00
04457           -3200.00
04458           -3120.00
04459           -3120.00
04460           -3120.00
04461           -3040.00
04462           -2960.00
04463           -3040.00
04464           -2960.00
04465           -2800.00
04466           -2800.00
04467           -2800.00
04468           -2800.00
04469           -2720.00
04470           -2720.00
04471           -2720.00
04472           -2640.00
04473           -2640.00
04474           -2480.00
04475           -2480.00
04476           -2480.00
04477           -2400.00
04478           -2320.00
04479           -2320.00
04480           -2320.00
04481           -2160.00
04482           -2160.00
04483           -2160.00
04484           -2160.00
04485           -2080.00
04486           -2000.00
04487           -2000.00
04488           -2000.00
04489           -1840.00
04490           -1840.00
04491           -1840.00
04492           -1760.00
04493           -1760.00
04494           -1760.00
04495           -1760.00
04496           -1680.00
04497           -1600.00
04498           -1520.00
04499           -1520.00
04500           -1520.00
04501           -1440.00
04502           -1440.00
04503           -1440.00
04504           -1360.00
04505           -1360.00
04506           -1200.00
04507           -1200.00
04508           -1200.00
04509           -1040.00
04510           -1120.00
04511           -1040.00
04512           -1040.00
04513            -880.00
04514            -880.00
04515            -880.00
04516            -880.00
04517            -800.00
04518            -720.00
04519            -720.00
04520            -560.00
04521            -560.00
04522            -560.00
04523            -480.00
04524            -480.00
04525            -480.00
04526            -320.00
04527            -400.00
04528            -240.00
04529            -240.00
04530            -240.00
04531            -240.00
04532            -160.00
04533            -160.00
04534             -80.00
04535               0.00
04536              80.00
04537              80.00
04538             160.00
04539             160.00
04540             160.00
04541             320.00
04542             240.00
04543             400.00
04544             400.00
04545             400.00
04546             480.00
04547             560.00
04548             480.00
04549             560.00
04550             720.00
04551             720.00
04552             720.00
04553             800.00
04554             880.00
04555             880.00
04556             880.00
04557             880.00
04558            1040.00
04559            1040.00
04560            1040.00
04561            1120.00
04562            1120.00
04563            1120.00
04564            1200.00
04565            1200.00
04566            1360.00
04567            1360.00
04568            1360.00
04569            1440.00
04570            1440.00
04571            1520.00
04572            1440.00
04573            1520.00
04574            1680.00
04575            1680.00
04576            1760.00
04577            1680.00
04578            1840.00
04579            1840.00
04580            1920.00
04581            2000.00
04582            2000.00
04583            2080.00
04584            2080.00
04585            2080.00
04586            2160.00
04587            2160.00
04588            2240.00
04589            2240.00
04590            2320.00
04591            2400.00
04592            2400.00
04593            2400.00
04594            2400.00
04595            2480.00
04596            2560.00
04597            2640.00
04598            2640.00
04599            2640.00
04600            2720.00
04601            2720.00
04602            2800.00
04603            2960.00
04604            2960.00
04605            2960.00
04606            2960.00
04607            3040.00
04608            3040.00
04609            3120.00
04610            3120.00
04611            3120.00
04612            3120.00
04613            3280.00
04614            3280.00
04615            3360.00
04616            3360.00
04617            3360.00
04618            3440.00
04619            3440.00
04620            3600.00
04621            3600.00
04622            3600.00
04623            3600.00
04624            3680.00
04625            3680.00
04626            3680.00
04627            3680.00
04628            3760.00
04629            3760.00
04630            3840.00
04631            3920.00
04632            3920.00
04633            3920.00
04634            4000.00
04635            4000.00
04636            4080.00
04637            4080.00
04638            4160.00
04639            4240.00
04640            4240.00
04641            4240.00
04642            4240.00
04643            4320.00
04644            4400.00
04645            4320.00
04646            4400.00
04647            4400.00
04648            4400.00
04649            4560.00
04650            4560.00
04651            4560.00
04652            4640.00
04653            4640.00
04654            4640.00
04655            4720.00
04656            4720.00
04657            4720.00
04658            4880.00
04659            4880.00
04660            4880.00
04661            4880.00
04662            4960.00
04663            4960.00
04664            5040.00
04665            4960.00
04666            5040.00
04667            5200.00
04668            5120.00
04669            5200.00
04670            5200.00
04671            5200.00
04672            5280.00
04673            5280.00
04674            5280.00
04675            5280.00
04676            5360.00
04677            5360.00
04678            5440.00
04679            5440.00
04680            5520.00
04681            5520.00
04682            5520.00
04683            5600.00
04684            5520.00
04685            5680.00
04686            5680.00
04687            5680.00
04688            5680.00
04689            5680.00
04690            5760.00
04691            5840.00
04692            5760.00
04693            5840.00
04694            5840.00
04695            5840.00
04696            5840.00
04697            5840.00
04698            5920.00
04699            5920.00
04700            5920.00
04701            6000.00
04702            5920.00
04703            6000.00
04704            6000.00
04705            6000.00
04706            6160.00
04707            6160.00
04708            6160.00
04709            6160.00
04710            6160.00
04711            6160.00
04712            6160.00
04713            6160.00
04714            6240.00
04715            6240.00
04716            6320.00
04717            6240.00
04718            6240.00
04719            6320.00
04720            6320.00
04721            6400.00
04722            6480.00
04723            6480.00
04724            6480.00
04725            6480.00
04726            6480.00
04727            6560.00
04728            6560.00
04729            6560.00
04730            6480.00
04731            6560.00
04732            6560.00
04733            6560.00
04734            6560.00
04735            6640.00
04736            6640.00
04737            6560.00
04738            6640.00
04739            6640.00
04740            6640.00
04741            6720.00
04742            6640.00
04743            6720.00
04744            6800.00
04745            6800.00
04746            6720.00
04747            6800.00
04748            6800.00
04749            6800.00
04750            6800.00
04751            6800.00
04752            6800.00
04753            6800.00
04754            6800.00
04755            6800.00
04756            6880.00
04757            6800.00
04758            6800.00
04759            6800.00
04760            6880.00
04761            6800.00
04762            6880.00
04763            6800.00
04764            6880.00
04765            6880.00
04766            6880.00
04767            6880.00
04768            6880.00
04769            6880.00
04770            6880.00
04771            6880.00
04772            6880.00
04773            6960.00
04774            6880.00
04775            6880.00
04776            6880.00
04777            6960.00
04778            6960.00
04779            6880.00
04780            6960.00
04781            6960.00
04782            6880.00
04783            6880.00
04784            6960.00
04785            6960.00
04786            6960.00
04787            6960.00
04788            7040.00
04789            6960.00
04790            6960.00
04791            6960.00
04792            6960.00
04793            6960.00
04794            6960.00
04795            6960.00
04796            6880.00
04797            6960.00
04798            6960.00
04799            6960.00
04800            6960.00
04801            6960.00
04802            6880.00
04803            6960.00
04804            6880.00
04805            6960.00
04806            6960.00
04807            6880.00
04808            6880.00
04809            6960.00
04810            6880.00
04811            6880.00
04812            6880.00
04813            6880.00
04814            6880.00
04815            6880.00
04816            6880.00
04817            6800.00
04818            6880.00
04819            6800.00
04820            6800.00
04821            6800.00
04822            6800.00
04823            6800.00
04824            6800.00
04825            6800.00
04826            6800.00
04827            6800.00
04828            6800.00
04829            6800.00
04830            6720.00
04831            6720.00
04832            6800.00
04833            6720.00
04834            6640.00
04835            6640.00
04836            6640.00
04837            6640.00
04838            6640.00
04839            6560.00
04840            6560.00
04841            6640.00
04842            6560.00
04843            6560.00
04844            6560.00
04845            6560.00
04846            6560.00
04847            6560.00
04848            6480.00
04849            6480.00
04850            6480.00
04851            6480.00
04852            6480.00
04853            6480.00
04854            6480.00
04855            6400.00
04856            6400.00
04857            6480.00
04858            6320.00
04859            6320.00
04860            6320.00
04861            6240.00
04862            6320.00
04863            6240.00
04864            6240.00
04865            6240.00
04866            6240.00
04867            6160.00
04868            6160.00
04869            6160.00
04870            6160.00
04871            6160.00
04872            6160.00
04873            6160.00
04874            6000.00
04875            6000.00
04876            6000.00
04877            5920.00
04878            6000.00
04879            5920.00
04880            5920.00
04881            5920.00
04882            5840.00
04883            5840.00
04884            5840.00
04885            5840.00
04886            5680.00
04887            5680.00
04888            5760.00
04889            5680.00
04890            5680.00
04891            5600.00
04892            5600.00
04893            5520.00
04894            5600.00
04895            5520.00
04896            5520.00
04897            5520.00
04898            5440.00
04899            5440.00
04900            5360.00
04901            5360.00
04902            5280.00
04903            5280.00
04904            5280.00
04905            5280.00
04906            5280.00
04907            5200.00
04908            5200.00
04909            5200.00
04910            5120.00
04911            5120.00
04912            5040.00
04913            5040.00
04914            4960.00
04915            4960.00
04916            4960.00
04917            4880.00
04918            4880.00
04919            4880.00
04920            4880.00
04921            4800.00
04922            4720.00
04923            4720.00
04924            4640.00
04925            4640.00
04926            4640.00
04927            4640.00
04928            4560.00
04929            4560.00
04930            4560.00
04931            4480.00
04932            4400.00
04933            4320.00
04934            4320.00
04935            4320.00
04936            4320.00
04937            4320.00
04938            4240.00
04939            4240.00
04940            4240.00
04941            4160.00
04942            4080.00
04943            4000.00
04944            4080.00
04945            4000.00
04946            4000.00
04947            3920.00
04948            3840.00
04949            3920.00
04950            3840.00
04951            3920.00
04952            3760.00
04953            3680.00
04954            3680.00
04955            3680.00
04956            3600.00
04957            3600.00
04958            3600.00
04959            3440.00
04960            3440.00
04961            3360.00
04962            3360.00
04963            3360.00
04964            3280.00
04965            3280.00
04966            3280.00
04967            3280.00
04968            3120.00
04969            3040.00
04970            3040.00
04971            3040.00
04972            3040.00
04973            2960.00
04974            2960.00
04975            2800.00
04976            2880.00
04977            2800.00
04978            2720.00
04979            2720.00
04980            2720.00
04981            2720.00
04982            2640.00
04983            2640.00
04984            2560.00
04985            2480.00
04986            2480.00
04987            2400.00
04988            2400.00
04989            2320.00
04990            2320.00
04991            2320.00
04992            2320.00
04993            2160.00
04994            2160.00
04995            2080.00
04996            2080.00
04997            2080.00
04998            2000.00
04999            2000.00
05000            1840.00
