Unit:(mV)
                     CH1
Frequency     98.129 kHz
00001           -2720.00
00002           -2720.00
00003           -2800.00
00004           -2800.00
00005           -2800.00
00006           -2960.00
00007           -3040.00
00008           -3040.00
00009           -3120.00
00010           -3120.00
00011           -3200.00
00012           -3280.00
00013           -3280.00
00014           -3360.00
00015           -3360.00
00016           -3440.00
00017           -3440.00
00018           -3600.00
00019           -3600.00
00020           -3680.00
00021           -3680.00
00022           -3760.00
00023           -3840.00
00024           -3920.00
00025           -3920.00
00026           -3920.00
00027           -4080.00
00028           -4000.00
00029           -4080.00
00030           -4160.00
00031           -4240.00
00032           -4240.00
00033           -4320.00
00034           -4320.00
00035           -4320.00
00036           -4400.00
00037           -4400.00
00038           -4560.00
00039           -4560.00
00040           -4640.00
00041           -4640.00
00042           -4720.00
00043           -4720.00
00044           -4880.00
00045           -4880.00
00046           -4960.00
00047           -4880.00
00048           -4960.00
00049           -4960.00
00050           -5040.00
00051           -5040.00
00052           -5120.00
00053           -5200.00
00054           -5200.00
00055           -5280.00
00056           -5360.00
00057           -5360.00
00058           -5440.00
00059           -5360.00
00060           -5360.00
00061           -5520.00
00062           -5520.00
00063           -5600.00
00064           -5680.00
00065           -5600.00
00066           -5760.00
00067           -5760.00
00068           -5840.00
00069           -5840.00
00070           -5920.00
00071           -5920.00
00072           -6000.00
00073           -6000.00
00074           -6000.00
00075           -6080.00
00076           -6160.00
00077           -6240.00
00078           -6240.00
00079           -6240.00
00080           -6240.00
00081           -6240.00
00082           -6320.00
00083           -6320.00
00084           -6480.00
00085           -6480.00
00086           -6560.00
00087           -6560.00
00088           -6640.00
00089           -6640.00
00090           -6640.00
00091           -6640.00
00092           -6800.00
00093           -6800.00
00094           -6800.00
00095           -6880.00
00096           -6880.00
00097           -6880.00
00098           -6960.00
00099           -6960.00
00100           -6960.00
00101           -7040.00
00102           -7120.00
00103           -7120.00
00104           -7120.00
00105           -7200.00
00106           -7200.00
00107           -7200.00
00108           -7280.00
00109           -7280.00
00110           -7280.00
00111           -7360.00
00112           -7440.00
00113           -7520.00
00114           -7440.00
00115           -7440.00
00116           -7520.00
00117           -7520.00
00118           -7520.00
00119           -7520.00
00120           -7600.00
00121           -7600.00
00122           -7600.00
00123           -7600.00
00124           -7680.00
00125           -7760.00
00126           -7760.00
00127           -7760.00
00128           -7840.00
00129           -7840.00
00130           -7760.00
00131           -7920.00
00132           -7840.00
00133           -7920.00
00134           -7920.00
00135           -7920.00
00136           -8000.00
00137           -7920.00
00138           -7920.00
00139           -8000.00
00140           -8080.00
00141           -8080.00
00142           -8080.00
00143           -8160.00
00144           -8160.00
00145           -8160.00
00146           -8160.00
00147           -8240.00
00148           -8240.00
00149           -8240.00
00150           -8240.00
00151           -8320.00
00152           -8400.00
00153           -8240.00
00154           -8400.00
00155           -8400.00
00156           -8400.00
00157           -8480.00
00158           -8400.00
00159           -8480.00
00160           -8480.00
00161           -8400.00
00162           -8480.00
00163           -8480.00
00164           -8480.00
00165           -8480.00
00166           -8480.00
00167           -8560.00
00168           -8560.00
00169           -8560.00
00170           -8480.00
00171           -8560.00
00172           -8560.00
00173           -8560.00
00174           -8560.00
00175           -8560.00
00176           -8640.00
00177           -8640.00
00178           -8560.00
00179           -8640.00
00180           -8720.00
00181           -8720.00
00182           -8640.00
00183           -8560.00
00184           -8640.00
00185           -8560.00
00186           -8720.00
00187           -8720.00
00188           -8560.00
00189           -8720.00
00190           -8640.00
00191           -8720.00
00192           -8560.00
00193           -8720.00
00194           -8720.00
00195           -8720.00
00196           -8800.00
00197           -8720.00
00198           -8720.00
00199           -8720.00
00200           -8800.00
00201           -8720.00
00202           -8720.00
00203           -8720.00
00204           -8800.00
00205           -8720.00
00206           -8720.00
00207           -8720.00
00208           -8720.00
00209           -8800.00
00210           -8720.00
00211           -8720.00
00212           -8720.00
00213           -8800.00
00214           -8720.00
00215           -8720.00
00216           -8720.00
00217           -8720.00
00218           -8720.00
00219           -8720.00
00220           -8560.00
00221           -8720.00
00222           -8640.00
00223           -8720.00
00224           -8720.00
00225           -8720.00
00226           -8720.00
00227           -8720.00
00228           -8560.00
00229           -8640.00
00230           -8560.00
00231           -8560.00
00232           -8560.00
00233           -8560.00
00234           -8560.00
00235           -8560.00
00236           -8560.00
00237           -8560.00
00238           -8560.00
00239           -8560.00
00240           -8480.00
00241           -8560.00
00242           -8560.00
00243           -8560.00
00244           -8480.00
00245           -8480.00
00246           -8480.00
00247           -8480.00
00248           -8480.00
00249           -8400.00
00250           -8400.00
00251           -8400.00
00252           -8400.00
00253           -8240.00
00254           -8240.00
00255           -8160.00
00256           -8240.00
00257           -8240.00
00258           -8160.00
00259           -8240.00
00260           -8160.00
00261           -8160.00
00262           -8160.00
00263           -8160.00
00264           -8160.00
00265           -8160.00
00266           -8080.00
00267           -8080.00
00268           -8080.00
00269           -8080.00
00270           -7920.00
00271           -7920.00
00272           -7920.00
00273           -7920.00
00274           -7920.00
00275           -7840.00
00276           -7840.00
00277           -7840.00
00278           -7760.00
00279           -7840.00
00280           -7760.00
00281           -7760.00
00282           -7760.00
00283           -7680.00
00284           -7680.00
00285           -7600.00
00286           -7600.00
00287           -7600.00
00288           -7600.00
00289           -7520.00
00290           -7520.00
00291           -7520.00
00292           -7520.00
00293           -7520.00
00294           -7440.00
00295           -7440.00
00296           -7280.00
00297           -7280.00
00298           -7280.00
00299           -7280.00
00300           -7280.00
00301           -7200.00
00302           -7200.00
00303           -7200.00
00304           -7120.00
00305           -7120.00
00306           -7040.00
00307           -6960.00
00308           -6960.00
00309           -6960.00
00310           -6960.00
00311           -6880.00
00312           -6880.00
00313           -6880.00
00314           -6800.00
00315           -6800.00
00316           -6640.00
00317           -6720.00
00318           -6560.00
00319           -6640.00
00320           -6560.00
00321           -6560.00
00322           -6480.00
00323           -6480.00
00324           -6480.00
00325           -6400.00
00326           -6320.00
00327           -6320.00
00328           -6240.00
00329           -6240.00
00330           -6160.00
00331           -6160.00
00332           -6000.00
00333           -6080.00
00334           -6000.00
00335           -6000.00
00336           -5920.00
00337           -6000.00
00338           -5920.00
00339           -5840.00
00340           -5840.00
00341           -5840.00
00342           -5680.00
00343           -5760.00
00344           -5680.00
00345           -5680.00
00346           -5600.00
00347           -5600.00
00348           -5440.00
00349           -5520.00
00350           -5520.00
00351           -5360.00
00352           -5360.00
00353           -5280.00
00354           -5280.00
00355           -5280.00
00356           -5200.00
00357           -5040.00
00358           -5040.00
00359           -5040.00
00360           -4960.00
00361           -4960.00
00362           -4960.00
00363           -4960.00
00364           -4880.00
00365           -4720.00
00366           -4720.00
00367           -4640.00
00368           -4640.00
00369           -4640.00
00370           -4560.00
00371           -4480.00
00372           -4400.00
00373           -4400.00
00374           -4320.00
00375           -4320.00
00376           -4240.00
00377           -4240.00
00378           -4160.00
00379           -4080.00
00380           -4080.00
00381           -4080.00
00382           -4000.00
00383           -3920.00
00384           -3840.00
00385           -3760.00
00386           -3760.00
00387           -3760.00
00388           -3680.00
00389           -3600.00
00390           -3600.00
00391           -3520.00
00392           -3440.00
00393           -3440.00
00394           -3440.00
00395           -3360.00
00396           -3360.00
00397           -3280.00
00398           -3200.00
00399           -3200.00
00400           -3040.00
00401           -3040.00
00402           -3040.00
00403           -2960.00
00404           -2880.00
00405           -2800.00
00406           -2800.00
00407           -2720.00
00408           -2720.00
00409           -2640.00
00410           -2560.00
00411           -2480.00
00412           -2480.00
00413           -2400.00
00414           -2400.00
00415           -2400.00
00416           -2400.00
00417           -2240.00
00418           -2160.00
00419           -2160.00
00420           -2080.00
00421           -2080.00
00422           -2000.00
00423           -1920.00
00424           -1840.00
00425           -1840.00
00426           -1760.00
00427           -1760.00
00428           -1680.00
00429           -1600.00
00430           -1520.00
00431           -1520.00
00432           -1520.00
00433           -1440.00
00434           -1360.00
00435           -1360.00
00436           -1280.00
00437           -1200.00
00438           -1120.00
00439           -1120.00
00440           -1040.00
00441           -1040.00
00442            -880.00
00443            -800.00
00444            -800.00
00445            -800.00
00446            -720.00
00447            -640.00
00448            -560.00
00449            -560.00
00450            -480.00
00451            -480.00
00452            -400.00
00453            -320.00
00454            -240.00
00455            -240.00
00456            -240.00
00457             -80.00
00458             -80.00
00459             -80.00
00460              80.00
00461              80.00
00462             160.00
00463             160.00
00464             240.00
00465             240.00
00466             400.00
00467             400.00
00468             480.00
00469             480.00
00470             560.00
00471             560.00
00472             800.00
00473             720.00
00474             720.00
00475             800.00
00476             960.00
00477            1040.00
00478             880.00
00479            1040.00
00480            1040.00
00481            1120.00
00482            1120.00
00483            1200.00
00484            1200.00
00485            1360.00
00486            1440.00
00487            1440.00
00488            1440.00
00489            1520.00
00490            1680.00
00491            1680.00
00492            1680.00
00493            1760.00
00494            1760.00
00495            2000.00
00496            1920.00
00497            2000.00
00498            2080.00
00499            2160.00
00500            2160.00
00501            2320.00
00502            2320.00
00503            2320.00
00504            2320.00
00505            2480.00
00506            2480.00
00507            2640.00
00508            2640.00
00509            2640.00
00510            2720.00
00511            2720.00
00512            2800.00
00513            2800.00
00514            2880.00
00515            2960.00
00516            3040.00
00517            3040.00
00518            3120.00
00519            3200.00
00520            3280.00
00521            3280.00
00522            3360.00
00523            3360.00
00524            3360.00
00525            3520.00
00526            3440.00
00527            3600.00
00528            3600.00
00529            3680.00
00530            3760.00
00531            3760.00
00532            3760.00
00533            3920.00
00534            4000.00
00535            4000.00
00536            4000.00
00537            4080.00
00538            4080.00
00539            4240.00
00540            4240.00
00541            4240.00
00542            4320.00
00543            4320.00
00544            4320.00
00545            4320.00
00546            4560.00
00547            4480.00
00548            4560.00
00549            4560.00
00550            4720.00
00551            4640.00
00552            4720.00
00553            4800.00
00554            4880.00
00555            4880.00
00556            4880.00
00557            4960.00
00558            4960.00
00559            5040.00
00560            5040.00
00561            5200.00
00562            5200.00
00563            5280.00
00564            5280.00
00565            5280.00
00566            5280.00
00567            5360.00
00568            5360.00
00569            5520.00
00570            5520.00
00571            5600.00
00572            5600.00
00573            5680.00
00574            5760.00
00575            5760.00
00576            5840.00
00577            5920.00
00578            5920.00
00579            5920.00
00580            5920.00
00581            6000.00
00582            6000.00
00583            6160.00
00584            6160.00
00585            6160.00
00586            6160.00
00587            6160.00
00588            6320.00
00589            6320.00
00590            6480.00
00591            6320.00
00592            6480.00
00593            6480.00
00594            6560.00
00595            6560.00
00596            6560.00
00597            6640.00
00598            6640.00
00599            6640.00
00600            6720.00
00601            6800.00
00602            6800.00
00603            6800.00
00604            6880.00
00605            6880.00
00606            6880.00
00607            6960.00
00608            6960.00
00609            6960.00
00610            7120.00
00611            7040.00
00612            7120.00
00613            7120.00
00614            7200.00
00615            7200.00
00616            7280.00
00617            7280.00
00618            7280.00
00619            7360.00
00620            7280.00
00621            7440.00
00622            7440.00
00623            7440.00
00624            7440.00
00625            7520.00
00626            7520.00
00627            7520.00
00628            7520.00
00629            7600.00
00630            7680.00
00631            7680.00
00632            7760.00
00633            7760.00
00634            7840.00
00635            7760.00
00636            7840.00
00637            7840.00
00638            7840.00
00639            7840.00
00640            7840.00
00641            7920.00
00642            7920.00
00643            7920.00
00644            8000.00
00645            8080.00
00646            8080.00
00647            8080.00
00648            8080.00
00649            8080.00
00650            8160.00
00651            8160.00
00652            8160.00
00653            8160.00
00654            8160.00
00655            8160.00
00656            8240.00
00657            8240.00
00658            8240.00
00659            8320.00
00660            8320.00
00661            8400.00
00662            8400.00
00663            8400.00
00664            8480.00
00665            8400.00
00666            8400.00
00667            8480.00
00668            8400.00
00669            8480.00
00670            8480.00
00671            8480.00
00672            8480.00
00673            8480.00
00674            8480.00
00675            8480.00
00676            8480.00
00677            8480.00
00678            8560.00
00679            8560.00
00680            8480.00
00681            8560.00
00682            8560.00
00683            8560.00
00684            8560.00
00685            8560.00
00686            8560.00
00687            8720.00
00688            8720.00
00689            8560.00
00690            8640.00
00691            8720.00
00692            8720.00
00693            8720.00
00694            8720.00
00695            8720.00
00696            8720.00
00697            8720.00
00698            8720.00
00699            8720.00
00700            8720.00
00701            8720.00
00702            8720.00
00703            8720.00
00704            8720.00
00705            8720.00
00706            8720.00
00707            8720.00
00708            8800.00
00709            8800.00
00710            8800.00
00711            8720.00
00712            8800.00
00713            8800.00
00714            8800.00
00715            8720.00
00716            8800.00
00717            8800.00
00718            8800.00
00719            8720.00
00720            8720.00
00721            8800.00
00722            8720.00
00723            8720.00
00724            8720.00
00725            8720.00
00726            8720.00
00727            8720.00
00728            8720.00
00729            8800.00
00730            8720.00
00731            8720.00
00732            8720.00
00733            8720.00
00734            8720.00
00735            8720.00
00736            8720.00
00737            8640.00
00738            8720.00
00739            8560.00
00740            8640.00
00741            8560.00
00742            8560.00
00743            8560.00
00744            8560.00
00745            8560.00
00746            8560.00
00747            8560.00
00748            8560.00
00749            8560.00
00750            8560.00
00751            8480.00
00752            8480.00
00753            8480.00
00754            8480.00
00755            8480.00
00756            8480.00
00757            8480.00
00758            8400.00
00759            8400.00
00760            8480.00
00761            8400.00
00762            8400.00
00763            8400.00
00764            8400.00
00765            8320.00
00766            8320.00
00767            8320.00
00768            8240.00
00769            8240.00
00770            8160.00
00771            8240.00
00772            8160.00
00773            8240.00
00774            8160.00
00775            8160.00
00776            8160.00
00777            8080.00
00778            8160.00
00779            8080.00
00780            8080.00
00781            8080.00
00782            7920.00
00783            8080.00
00784            7920.00
00785            7920.00
00786            7920.00
00787            7840.00
00788            7840.00
00789            7840.00
00790            7840.00
00791            7840.00
00792            7840.00
00793            7760.00
00794            7760.00
00795            7760.00
00796            7680.00
00797            7600.00
00798            7600.00
00799            7600.00
00800            7600.00
00801            7520.00
00802            7520.00
00803            7440.00
00804            7440.00
00805            7440.00
00806            7360.00
00807            7360.00
00808            7280.00
00809            7200.00
00810            7200.00
00811            7280.00
00812            7200.00
00813            7200.00
00814            7120.00
00815            7040.00
00816            7120.00
00817            6960.00
00818            6960.00
00819            6960.00
00820            6880.00
00821            6880.00
00822            6800.00
00823            6800.00
00824            6800.00
00825            6800.00
00826            6800.00
00827            6800.00
00828            6640.00
00829            6640.00
00830            6560.00
00831            6560.00
00832            6560.00
00833            6560.00
00834            6480.00
00835            6480.00
00836            6480.00
00837            6320.00
00838            6240.00
00839            6320.00
00840            6240.00
00841            6240.00
00842            6160.00
00843            6160.00
00844            6080.00
00845            6160.00
00846            6080.00
00847            6000.00
00848            5920.00
00849            5920.00
00850            5840.00
00851            5840.00
00852            5840.00
00853            5680.00
00854            5680.00
00855            5680.00
00856            5600.00
00857            5600.00
00858            5520.00
00859            5520.00
00860            5520.00
00861            5360.00
00862            5280.00
00863            5280.00
00864            5280.00
00865            5280.00
00866            5200.00
00867            5040.00
00868            5200.00
00869            5040.00
00870            4960.00
00871            4960.00
00872            4880.00
00873            4880.00
00874            4800.00
00875            4800.00
00876            4720.00
00877            4640.00
00878            4640.00
00879            4640.00
00880            4560.00
00881            4560.00
00882            4400.00
00883            4400.00
00884            4320.00
00885            4320.00
00886            4240.00
00887            4240.00
00888            4080.00
00889            4080.00
00890            4000.00
00891            4080.00
00892            4000.00
00893            4000.00
00894            3920.00
00895            3920.00
00896            3760.00
00897            3760.00
00898            3680.00
00899            3680.00
00900            3600.00
00901            3600.00
00902            3520.00
00903            3440.00
00904            3440.00
00905            3360.00
00906            3360.00
00907            3280.00
00908            3280.00
00909            3120.00
00910            3040.00
00911            3120.00
00912            2960.00
00913            3040.00
00914            2960.00
00915            2960.00
00916            2880.00
00917            2720.00
00918            2720.00
00919            2640.00
00920            2640.00
00921            2640.00
00922            2480.00
00923            2400.00
00924            2400.00
00925            2320.00
00926            2320.00
00927            2240.00
00928            2160.00
00929            2160.00
00930            2080.00
00931            2080.00
00932            2000.00
00933            1840.00
00934            1840.00
00935            1840.00
00936            1760.00
00937            1680.00
00938            1680.00
00939            1680.00
00940            1520.00
00941            1520.00
00942            1440.00
00943            1440.00
00944            1360.00
00945            1280.00
00946            1200.00
00947            1200.00
00948            1120.00
00949            1120.00
00950            1040.00
00951            1040.00
00952             880.00
00953             880.00
00954             800.00
00955             720.00
00956             720.00
00957             640.00
00958             560.00
00959             560.00
00960             480.00
00961             480.00
00962             400.00
00963             320.00
00964             400.00
00965             240.00
00966             160.00
00967             160.00
00968              80.00
00969              80.00
00970               0.00
00971             -80.00
00972            -160.00
00973            -160.00
00974            -240.00
00975            -240.00
00976            -240.00
00977            -400.00
00978            -400.00
00979            -480.00
00980            -560.00
00981            -720.00
00982            -720.00
00983            -720.00
00984            -720.00
00985            -800.00
00986            -880.00
00987            -880.00
00988            -960.00
00989           -1040.00
00990           -1040.00
00991           -1120.00
00992           -1200.00
00993           -1200.00
00994           -1280.00
00995           -1360.00
00996           -1440.00
00997           -1520.00
00998           -1520.00
00999           -1600.00
01000           -1680.00
01001           -1760.00
01002           -1760.00
01003           -1760.00
01004           -1840.00
01005           -2000.00
01006           -2000.00
01007           -2080.00
01008           -2160.00
01009           -2080.00
01010           -2160.00
01011           -2160.00
01012           -2320.00
01013           -2400.00
01014           -2400.00
01015           -2480.00
01016           -2400.00
01017           -2560.00
01018           -2640.00
01019           -2720.00
01020           -2720.00
01021           -2800.00
01022           -2800.00
01023           -2800.00
01024           -2800.00
01025           -2960.00
01026           -3040.00
01027           -3040.00
01028           -3120.00
01029           -3120.00
01030           -3280.00
01031           -3280.00
01032           -3360.00
01033           -3360.00
01034           -3440.00
01035           -3440.00
01036           -3440.00
01037           -3520.00
01038           -3600.00
01039           -3600.00
01040           -3680.00
01041           -3760.00
01042           -3760.00
01043           -3760.00
01044           -3920.00
01045           -3920.00
01046           -4000.00
01047           -4080.00
01048           -4080.00
01049           -4080.00
01050           -4240.00
01051           -4240.00
01052           -4240.00
01053           -4320.00
01054           -4320.00
01055           -4400.00
01056           -4400.00
01057           -4400.00
01058           -4560.00
01059           -4640.00
01060           -4640.00
01061           -4720.00
01062           -4720.00
01063           -4800.00
01064           -4880.00
01065           -4880.00
01066           -4960.00
01067           -4960.00
01068           -5040.00
01069           -5040.00
01070           -5040.00
01071           -5200.00
01072           -5200.00
01073           -5280.00
01074           -5280.00
01075           -5360.00
01076           -5360.00
01077           -5360.00
01078           -5520.00
01079           -5520.00
01080           -5520.00
01081           -5600.00
01082           -5600.00
01083           -5600.00
01084           -5680.00
01085           -5760.00
01086           -5840.00
01087           -5920.00
01088           -5920.00
01089           -5920.00
01090           -6000.00
01091           -6000.00
01092           -6000.00
01093           -6000.00
01094           -6080.00
01095           -6160.00
01096           -6240.00
01097           -6240.00
01098           -6240.00
01099           -6240.00
01100           -6320.00
01101           -6320.00
01102           -6320.00
01103           -6400.00
01104           -6480.00
01105           -6480.00
01106           -6480.00
01107           -6560.00
01108           -6640.00
01109           -6640.00
01110           -6640.00
01111           -6800.00
01112           -6800.00
01113           -6800.00
01114           -6800.00
01115           -6800.00
01116           -6880.00
01117           -6880.00
01118           -6960.00
01119           -6960.00
01120           -6960.00
01121           -7040.00
01122           -7120.00
01123           -7120.00
01124           -7200.00
01125           -7200.00
01126           -7200.00
01127           -7200.00
01128           -7280.00
01129           -7280.00
01130           -7360.00
01131           -7440.00
01132           -7440.00
01133           -7520.00
01134           -7440.00
01135           -7520.00
01136           -7520.00
01137           -7520.00
01138           -7520.00
01139           -7600.00
01140           -7600.00
01141           -7600.00
01142           -7680.00
01143           -7760.00
01144           -7760.00
01145           -7760.00
01146           -7760.00
01147           -7840.00
01148           -7840.00
01149           -7840.00
01150           -7840.00
01151           -7920.00
01152           -7920.00
01153           -7920.00
01154           -7920.00
01155           -7920.00
01156           -7920.00
01157           -8000.00
01158           -8080.00
01159           -8080.00
01160           -8080.00
01161           -8160.00
01162           -8160.00
01163           -8160.00
01164           -8160.00
01165           -8160.00
01166           -8160.00
01167           -8240.00
01168           -8240.00
01169           -8240.00
01170           -8240.00
01171           -8240.00
01172           -8240.00
01173           -8400.00
01174           -8320.00
01175           -8240.00
01176           -8400.00
01177           -8400.00
01178           -8400.00
01179           -8480.00
01180           -8480.00
01181           -8480.00
01182           -8480.00
01183           -8400.00
01184           -8480.00
01185           -8560.00
01186           -8560.00
01187           -8560.00
01188           -8560.00
01189           -8560.00
01190           -8560.00
01191           -8560.00
01192           -8560.00
01193           -8560.00
01194           -8560.00
01195           -8720.00
01196           -8560.00
01197           -8720.00
01198           -8640.00
01199           -8640.00
01200           -8720.00
01201           -8720.00
01202           -8720.00
01203           -8720.00
01204           -8720.00
01205           -8720.00
01206           -8720.00
01207           -8720.00
01208           -8720.00
01209           -8720.00
01210           -8720.00
01211           -8800.00
01212           -8800.00
01213           -8720.00
01214           -8800.00
01215           -8800.00
01216           -8800.00
01217           -8720.00
01218           -8800.00
01219           -8800.00
01220           -8720.00
01221           -8800.00
01222           -8720.00
01223           -8800.00
01224           -8720.00
01225           -8800.00
01226           -8720.00
01227           -8720.00
01228           -8720.00
01229           -8720.00
01230           -8720.00
01231           -8720.00
01232           -8800.00
01233           -8720.00
01234           -8800.00
01235           -8640.00
01236           -8640.00
01237           -8720.00
01238           -8560.00
01239           -8720.00
01240           -8640.00
01241           -8640.00
01242           -8640.00
01243           -8560.00
01244           -8640.00
01245           -8560.00
01246           -8560.00
01247           -8560.00
01248           -8640.00
01249           -8560.00
01250           -8560.00
01251           -8560.00
01252           -8560.00
01253           -8560.00
01254           -8560.00
01255           -8560.00
01256           -8480.00
01257           -8560.00
01258           -8560.00
01259           -8480.00
01260           -8480.00
01261           -8560.00
01262           -8480.00
01263           -8480.00
01264           -8480.00
01265           -8480.00
01266           -8480.00
01267           -8480.00
01268           -8400.00
01269           -8400.00
01270           -8400.00
01271           -8400.00
01272           -8320.00
01273           -8240.00
01274           -8320.00
01275           -8240.00
01276           -8240.00
01277           -8240.00
01278           -8240.00
01279           -8160.00
01280           -8160.00
01281           -8160.00
01282           -8160.00
01283           -8160.00
01284           -8160.00
01285           -8160.00
01286           -8080.00
01287           -8080.00
01288           -8000.00
01289           -7920.00
01290           -8000.00
01291           -7920.00
01292           -7920.00
01293           -7840.00
01294           -7920.00
01295           -7920.00
01296           -7920.00
01297           -7840.00
01298           -7760.00
01299           -7760.00
01300           -7760.00
01301           -7760.00
01302           -7760.00
01303           -7600.00
01304           -7600.00
01305           -7600.00
01306           -7600.00
01307           -7600.00
01308           -7520.00
01309           -7520.00
01310           -7520.00
01311           -7520.00
01312           -7440.00
01313           -7440.00
01314           -7440.00
01315           -7280.00
01316           -7280.00
01317           -7280.00
01318           -7280.00
01319           -7200.00
01320           -7200.00
01321           -7120.00
01322           -7200.00
01323           -7120.00
01324           -7120.00
01325           -7120.00
01326           -7040.00
01327           -6960.00
01328           -6960.00
01329           -6880.00
01330           -6880.00
01331           -6880.00
01332           -6800.00
01333           -6800.00
01334           -6800.00
01335           -6800.00
01336           -6640.00
01337           -6640.00
01338           -6640.00
01339           -6640.00
01340           -6560.00
01341           -6480.00
01342           -6480.00
01343           -6480.00
01344           -6320.00
01345           -6320.00
01346           -6320.00
01347           -6320.00
01348           -6240.00
01349           -6240.00
01350           -6240.00
01351           -6160.00
01352           -6080.00
01353           -6160.00
01354           -6000.00
01355           -5920.00
01356           -5920.00
01357           -5920.00
01358           -5920.00
01359           -5840.00
01360           -5840.00
01361           -5680.00
01362           -5680.00
01363           -5600.00
01364           -5680.00
01365           -5600.00
01366           -5520.00
01367           -5520.00
01368           -5360.00
01369           -5360.00
01370           -5360.00
01371           -5280.00
01372           -5280.00
01373           -5200.00
01374           -5200.00
01375           -5200.00
01376           -5040.00
01377           -5040.00
01378           -5040.00
01379           -4960.00
01380           -4960.00
01381           -4960.00
01382           -4880.00
01383           -4720.00
01384           -4720.00
01385           -4640.00
01386           -4720.00
01387           -4640.00
01388           -4560.00
01389           -4560.00
01390           -4560.00
01391           -4400.00
01392           -4400.00
01393           -4320.00
01394           -4320.00
01395           -4240.00
01396           -4240.00
01397           -4160.00
01398           -4080.00
01399           -4080.00
01400           -4080.00
01401           -4000.00
01402           -4000.00
01403           -3920.00
01404           -3840.00
01405           -3760.00
01406           -3680.00
01407           -3760.00
01408           -3680.00
01409           -3600.00
01410           -3600.00
01411           -3440.00
01412           -3440.00
01413           -3440.00
01414           -3360.00
01415           -3360.00
01416           -3280.00
01417           -3120.00
01418           -3120.00
01419           -3120.00
01420           -3040.00
01421           -3040.00
01422           -2960.00
01423           -2960.00
01424           -2800.00
01425           -2800.00
01426           -2800.00
01427           -2640.00
01428           -2720.00
01429           -2480.00
01430           -2640.00
01431           -2480.00
01432           -2400.00
01433           -2400.00
01434           -2400.00
01435           -2320.00
01436           -2160.00
01437           -2160.00
01438           -2160.00
01439           -2080.00
01440           -2080.00
01441           -2000.00
01442           -1840.00
01443           -1840.00
01444           -1840.00
01445           -1760.00
01446           -1760.00
01447           -1680.00
01448           -1680.00
01449           -1520.00
01450           -1520.00
01451           -1440.00
01452           -1360.00
01453           -1280.00
01454           -1360.00
01455           -1200.00
01456           -1200.00
01457           -1120.00
01458           -1120.00
01459           -1040.00
01460            -960.00
01461           -1040.00
01462            -880.00
01463            -880.00
01464            -800.00
01465            -720.00
01466            -720.00
01467            -560.00
01468            -560.00
01469            -480.00
01470            -480.00
01471            -400.00
01472            -400.00
01473            -240.00
01474            -240.00
01475            -240.00
01476            -160.00
01477             -80.00
01478             -80.00
01479              80.00
01480               0.00
01481             160.00
01482             160.00
01483             160.00
01484             240.00
01485             320.00
01486             400.00
01487             480.00
01488             480.00
01489             560.00
01490             720.00
01491             720.00
01492             720.00
01493             800.00
01494             800.00
01495            1040.00
01496            1040.00
01497             880.00
01498            1040.00
01499            1120.00
01500            1120.00
01501            1200.00
01502            1280.00
01503            1360.00
01504            1360.00
01505            1520.00
01506            1440.00
01507            1440.00
01508            1600.00
01509            1680.00
01510            1680.00
01511            1760.00
01512            1760.00
01513            1840.00
01514            2000.00
01515            2080.00
01516            2000.00
01517            2080.00
01518            2080.00
01519            2160.00
01520            2320.00
01521            2320.00
01522            2320.00
01523            2400.00
01524            2400.00
01525            2480.00
01526            2480.00
01527            2640.00
01528            2640.00
01529            2720.00
01530            2720.00
01531            2720.00
01532            2800.00
01533            2880.00
01534            2960.00
01535            2960.00
01536            3040.00
01537            3040.00
01538            3120.00
01539            3200.00
01540            3280.00
01541            3280.00
01542            3360.00
01543            3360.00
01544            3440.00
01545            3600.00
01546            3600.00
01547            3600.00
01548            3680.00
01549            3680.00
01550            3760.00
01551            3920.00
01552            3840.00
01553            3920.00
01554            4000.00
01555            4000.00
01556            4080.00
01557            4080.00
01558            4240.00
01559            4240.00
01560            4320.00
01561            4240.00
01562            4320.00
01563            4400.00
01564            4560.00
01565            4400.00
01566            4560.00
01567            4640.00
01568            4640.00
01569            4640.00
01570            4720.00
01571            4800.00
01572            4880.00
01573            4880.00
01574            4880.00
01575            4960.00
01576            5040.00
01577            5040.00
01578            5200.00
01579            5120.00
01580            5200.00
01581            5280.00
01582            5280.00
01583            5280.00
01584            5360.00
01585            5360.00
01586            5440.00
01587            5360.00
01588            5520.00
01589            5520.00
01590            5600.00
01591            5600.00
01592            5680.00
01593            5680.00
01594            5840.00
01595            5840.00
01596            5840.00
01597            5920.00
01598            5920.00
01599            6000.00
01600            6000.00
01601            6000.00
01602            6160.00
01603            6160.00
01604            6160.00
01605            6160.00
01606            6240.00
01607            6240.00
01608            6320.00
01609            6400.00
01610            6320.00
01611            6480.00
01612            6480.00
01613            6480.00
01614            6560.00
01615            6560.00
01616            6560.00
01617            6640.00
01618            6640.00
01619            6800.00
01620            6640.00
01621            6800.00
01622            6800.00
01623            6800.00
01624            6880.00
01625            6960.00
01626            6960.00
01627            6960.00
01628            6960.00
01629            7120.00
01630            7120.00
01631            7120.00
01632            7200.00
01633            7200.00
01634            7280.00
01635            7200.00
01636            7280.00
01637            7280.00
01638            7440.00
01639            7440.00
01640            7440.00
01641            7440.00
01642            7440.00
01643            7520.00
01644            7520.00
01645            7520.00
01646            7520.00
01647            7600.00
01648            7600.00
01649            7600.00
01650            7680.00
01651            7680.00
01652            7760.00
01653            7760.00
01654            7840.00
01655            7840.00
01656            7840.00
01657            7840.00
01658            7840.00
01659            7840.00
01660            7920.00
01661            7920.00
01662            7920.00
01663            8000.00
01664            8080.00
01665            8080.00
01666            7920.00
01667            8080.00
01668            8080.00
01669            8080.00
01670            8160.00
01671            8160.00
01672            8160.00
01673            8160.00
01674            8240.00
01675            8240.00
01676            8240.00
01677            8240.00
01678            8400.00
01679            8400.00
01680            8320.00
01681            8400.00
01682            8400.00
01683            8400.00
01684            8400.00
01685            8400.00
01686            8480.00
01687            8480.00
01688            8480.00
01689            8480.00
01690            8480.00
01691            8480.00
01692            8480.00
01693            8480.00
01694            8560.00
01695            8560.00
01696            8560.00
01697            8560.00
01698            8560.00
01699            8640.00
01700            8560.00
01701            8720.00
01702            8560.00
01703            8560.00
01704            8720.00
01705            8720.00
01706            8720.00
01707            8720.00
01708            8720.00
01709            8720.00
01710            8720.00
01711            8720.00
01712            8720.00
01713            8720.00
01714            8720.00
01715            8720.00
01716            8720.00
01717            8720.00
01718            8720.00
01719            8720.00
01720            8720.00
01721            8720.00
01722            8800.00
01723            8720.00
01724            8800.00
01725            8720.00
01726            8800.00
01727            8720.00
01728            8720.00
01729            8800.00
01730            8800.00
01731            8800.00
01732            8720.00
01733            8800.00
01734            8800.00
01735            8720.00
01736            8720.00
01737            8720.00
01738            8800.00
01739            8720.00
01740            8720.00
01741            8720.00
01742            8720.00
01743            8720.00
01744            8720.00
01745            8720.00
01746            8720.00
01747            8720.00
01748            8720.00
01749            8720.00
01750            8720.00
01751            8720.00
01752            8720.00
01753            8720.00
01754            8720.00
01755            8640.00
01756            8720.00
01757            8720.00
01758            8720.00
01759            8720.00
01760            8720.00
01761            8560.00
01762            8720.00
01763            8640.00
01764            8640.00
01765            8560.00
01766            8560.00
01767            8560.00
01768            8480.00
01769            8560.00
01770            8560.00
01771            8560.00
01772            8480.00
01773            8480.00
01774            8480.00
01775            8480.00
01776            8480.00
01777            8480.00
01778            8400.00
01779            8400.00
01780            8400.00
01781            8400.00
01782            8400.00
01783            8400.00
01784            8320.00
01785            8240.00
01786            8320.00
01787            8240.00
01788            8240.00
01789            8240.00
01790            8160.00
01791            8160.00
01792            8160.00
01793            8160.00
01794            8160.00
01795            8080.00
01796            8080.00
01797            8080.00
01798            8080.00
01799            8080.00
01800            8080.00
01801            8000.00
01802            7920.00
01803            7920.00
01804            7920.00
01805            7920.00
01806            7840.00
01807            7840.00
01808            7840.00
01809            7840.00
01810            7840.00
01811            7760.00
01812            7760.00
01813            7680.00
01814            7680.00
01815            7600.00
01816            7600.00
01817            7600.00
01818            7600.00
01819            7520.00
01820            7520.00
01821            7520.00
01822            7520.00
01823            7520.00
01824            7440.00
01825            7440.00
01826            7440.00
01827            7280.00
01828            7280.00
01829            7280.00
01830            7200.00
01831            7200.00
01832            7200.00
01833            7120.00
01834            7120.00
01835            7120.00
01836            7040.00
01837            7120.00
01838            6960.00
01839            6880.00
01840            6880.00
01841            6880.00
01842            6880.00
01843            6800.00
01844            6800.00
01845            6800.00
01846            6640.00
01847            6640.00
01848            6560.00
01849            6560.00
01850            6560.00
01851            6560.00
01852            6480.00
01853            6480.00
01854            6400.00
01855            6400.00
01856            6320.00
01857            6320.00
01858            6240.00
01859            6240.00
01860            6160.00
01861            6160.00
01862            6160.00
01863            6160.00
01864            6000.00
01865            6000.00
01866            5920.00
01867            5920.00
01868            5920.00
01869            5920.00
01870            5840.00
01871            5760.00
01872            5680.00
01873            5680.00
01874            5680.00
01875            5600.00
01876            5520.00
01877            5520.00
01878            5520.00
01879            5440.00
01880            5440.00
01881            5360.00
01882            5280.00
01883            5280.00
01884            5200.00
01885            5200.00
01886            5200.00
01887            5120.00
01888            5040.00
01889            5040.00
01890            4960.00
01891            4960.00
01892            4880.00
01893            4880.00
01894            4720.00
01895            4720.00
01896            4720.00
01897            4640.00
01898            4640.00
01899            4640.00
01900            4560.00
01901            4400.00
01902            4400.00
01903            4320.00
01904            4400.00
01905            4240.00
01906            4240.00
01907            4240.00
01908            4080.00
01909            4080.00
01910            4000.00
01911            4000.00
01912            3920.00
01913            3920.00
01914            3840.00
01915            3760.00
01916            3760.00
01917            3680.00
01918            3680.00
01919            3600.00
01920            3600.00
01921            3440.00
01922            3360.00
01923            3440.00
01924            3360.00
01925            3360.00
01926            3280.00
01927            3280.00
01928            3120.00
01929            3120.00
01930            3040.00
01931            3040.00
01932            2960.00
01933            2960.00
01934            2800.00
01935            2800.00
01936            2720.00
01937            2720.00
01938            2720.00
01939            2640.00
01940            2640.00
01941            2480.00
01942            2400.00
01943            2400.00
01944            2320.00
01945            2320.00
01946            2160.00
01947            2160.00
01948            2160.00
01949            2080.00
01950            2080.00
01951            2080.00
01952            2000.00
01953            1920.00
01954            1840.00
01955            1760.00
01956            1760.00
01957            1680.00
01958            1680.00
01959            1680.00
01960            1520.00
01961            1440.00
01962            1440.00
01963            1440.00
01964            1360.00
01965            1280.00
01966            1200.00
01967            1120.00
01968            1040.00
01969            1040.00
01970            1040.00
01971             960.00
01972             880.00
01973             880.00
01974             800.00
01975             720.00
01976             720.00
01977             560.00
01978             560.00
01979             480.00
01980             480.00
01981             400.00
01982             400.00
01983             240.00
01984             160.00
01985             160.00
01986             160.00
01987              80.00
01988              80.00
01989              80.00
01990            -160.00
01991            -160.00
01992            -240.00
01993            -240.00
01994            -240.00
01995            -320.00
01996            -400.00
01997            -400.00
01998            -560.00
01999            -560.00
02000            -720.00
02001            -800.00
02002            -720.00
02003            -800.00
02004            -800.00
02005            -880.00
02006           -1040.00
02007            -960.00
02008           -1040.00
02009           -1120.00
02010           -1120.00
02011           -1200.00
02012           -1200.00
02013           -1280.00
02014           -1360.00
02015           -1360.00
02016           -1520.00
02017           -1520.00
02018           -1520.00
02019           -1680.00
02020           -1760.00
02021           -1680.00
02022           -1760.00
02023           -1760.00
02024           -1920.00
02025           -2000.00
02026           -2080.00
02027           -2080.00
02028           -2080.00
02029           -2160.00
02030           -2240.00
02031           -2320.00
02032           -2320.00
02033           -2320.00
02034           -2400.00
02035           -2480.00
02036           -2480.00
02037           -2560.00
02038           -2640.00
02039           -2720.00
02040           -2800.00
02041           -2800.00
02042           -2880.00
02043           -2960.00
02044           -2960.00
02045           -3040.00
02046           -2960.00
02047           -3120.00
02048           -3120.00
02049           -3280.00
02050           -3280.00
02051           -3360.00
02052           -3360.00
02053           -3440.00
02054           -3440.00
02055           -3520.00
02056           -3600.00
02057           -3680.00
02058           -3680.00
02059           -3680.00
02060           -3760.00
02061           -3760.00
02062           -3840.00
02063           -3920.00
02064           -4000.00
02065           -4000.00
02066           -4080.00
02067           -4080.00
02068           -4080.00
02069           -4160.00
02070           -4240.00
02071           -4240.00
02072           -4320.00
02073           -4400.00
02074           -4400.00
02075           -4480.00
02076           -4560.00
02077           -4560.00
02078           -4640.00
02079           -4640.00
02080           -4720.00
02081           -4640.00
02082           -4800.00
02083           -4880.00
02084           -4880.00
02085           -4960.00
02086           -4960.00
02087           -4960.00
02088           -5040.00
02089           -5120.00
02090           -5040.00
02091           -5200.00
02092           -5280.00
02093           -5280.00
02094           -5280.00
02095           -5360.00
02096           -5360.00
02097           -5440.00
02098           -5520.00
02099           -5520.00
02100           -5600.00
02101           -5600.00
02102           -5680.00
02103           -5600.00
02104           -5680.00
02105           -5840.00
02106           -5840.00
02107           -5920.00
02108           -5920.00
02109           -6000.00
02110           -6000.00
02111           -6000.00
02112           -6080.00
02113           -6160.00
02114           -6160.00
02115           -6240.00
02116           -6240.00
02117           -6240.00
02118           -6320.00
02119           -6320.00
02120           -6400.00
02121           -6480.00
02122           -6400.00
02123           -6560.00
02124           -6560.00
02125           -6640.00
02126           -6640.00
02127           -6640.00
02128           -6720.00
02129           -6640.00
02130           -6720.00
02131           -6800.00
02132           -6800.00
02133           -6880.00
02134           -6880.00
02135           -6880.00
02136           -6960.00
02137           -6960.00
02138           -6960.00
02139           -7120.00
02140           -7040.00
02141           -7120.00
02142           -7120.00
02143           -7200.00
02144           -7200.00
02145           -7200.00
02146           -7280.00
02147           -7280.00
02148           -7280.00
02149           -7280.00
02150           -7360.00
02151           -7280.00
02152           -7440.00
02153           -7520.00
02154           -7440.00
02155           -7520.00
02156           -7520.00
02157           -7520.00
02158           -7600.00
02159           -7600.00
02160           -7680.00
02161           -7600.00
02162           -7760.00
02163           -7600.00
02164           -7760.00
02165           -7840.00
02166           -7760.00
02167           -7840.00
02168           -7840.00
02169           -7920.00
02170           -7920.00
02171           -7920.00
02172           -8080.00
02173           -7920.00
02174           -8000.00
02175           -8080.00
02176           -8080.00
02177           -8080.00
02178           -8160.00
02179           -8160.00
02180           -8160.00
02181           -8160.00
02182           -8160.00
02183           -8240.00
02184           -8160.00
02185           -8240.00
02186           -8240.00
02187           -8240.00
02188           -8240.00
02189           -8320.00
02190           -8400.00
02191           -8320.00
02192           -8400.00
02193           -8400.00
02194           -8400.00
02195           -8480.00
02196           -8480.00
02197           -8400.00
02198           -8480.00
02199           -8480.00
02200           -8480.00
02201           -8400.00
02202           -8560.00
02203           -8480.00
02204           -8560.00
02205           -8560.00
02206           -8560.00
02207           -8560.00
02208           -8560.00
02209           -8560.00
02210           -8560.00
02211           -8560.00
02212           -8560.00
02213           -8560.00
02214           -8560.00
02215           -8560.00
02216           -8560.00
02217           -8560.00
02218           -8640.00
02219           -8560.00
02220           -8640.00
02221           -8640.00
02222           -8720.00
02223           -8640.00
02224           -8800.00
02225           -8560.00
02226           -8720.00
02227           -8720.00
02228           -8720.00
02229           -8720.00
02230           -8720.00
02231           -8640.00
02232           -8720.00
02233           -8720.00
02234           -8720.00
02235           -8720.00
02236           -8800.00
02237           -8720.00
02238           -8800.00
02239           -8720.00
02240           -8800.00
02241           -8800.00
02242           -8800.00
02243           -8720.00
02244           -8800.00
02245           -8720.00
02246           -8800.00
02247           -8800.00
02248           -8800.00
02249           -8720.00
02250           -8800.00
02251           -8800.00
02252           -8720.00
02253           -8800.00
02254           -8800.00
02255           -8720.00
02256           -8720.00
02257           -8800.00
02258           -8720.00
02259           -8720.00
02260           -8720.00
02261           -8720.00
02262           -8640.00
02263           -8720.00
02264           -8560.00
02265           -8560.00
02266           -8720.00
02267           -8560.00
02268           -8560.00
02269           -8560.00
02270           -8560.00
02271           -8560.00
02272           -8560.00
02273           -8560.00
02274           -8560.00
02275           -8560.00
02276           -8560.00
02277           -8560.00
02278           -8560.00
02279           -8560.00
02280           -8480.00
02281           -8480.00
02282           -8480.00
02283           -8480.00
02284           -8480.00
02285           -8480.00
02286           -8400.00
02287           -8480.00
02288           -8320.00
02289           -8400.00
02290           -8400.00
02291           -8400.00
02292           -8400.00
02293           -8240.00
02294           -8240.00
02295           -8240.00
02296           -8160.00
02297           -8240.00
02298           -8160.00
02299           -8240.00
02300           -8160.00
02301           -8160.00
02302           -8160.00
02303           -8160.00
02304           -8160.00
02305           -8160.00
02306           -8080.00
02307           -8080.00
02308           -8080.00
02309           -8000.00
02310           -8000.00
02311           -7920.00
02312           -7920.00
02313           -7920.00
02314           -7920.00
02315           -7920.00
02316           -7840.00
02317           -7840.00
02318           -7760.00
02319           -7840.00
02320           -7760.00
02321           -7760.00
02322           -7760.00
02323           -7600.00
02324           -7600.00
02325           -7600.00
02326           -7600.00
02327           -7600.00
02328           -7520.00
02329           -7520.00
02330           -7520.00
02331           -7440.00
02332           -7440.00
02333           -7360.00
02334           -7360.00
02335           -7280.00
02336           -7280.00
02337           -7280.00
02338           -7280.00
02339           -7200.00
02340           -7200.00
02341           -7200.00
02342           -7120.00
02343           -7120.00
02344           -6960.00
02345           -7120.00
02346           -6960.00
02347           -6960.00
02348           -6880.00
02349           -6880.00
02350           -6880.00
02351           -6880.00
02352           -6800.00
02353           -6800.00
02354           -6640.00
02355           -6640.00
02356           -6640.00
02357           -6560.00
02358           -6640.00
02359           -6480.00
02360           -6560.00
02361           -6480.00
02362           -6480.00
02363           -6320.00
02364           -6320.00
02365           -6320.00
02366           -6240.00
02367           -6240.00
02368           -6240.00
02369           -6160.00
02370           -6160.00
02371           -6160.00
02372           -6000.00
02373           -6000.00
02374           -6000.00
02375           -5920.00
02376           -5920.00
02377           -5920.00
02378           -5840.00
02379           -5840.00
02380           -5680.00
02381           -5680.00
02382           -5680.00
02383           -5680.00
02384           -5600.00
02385           -5600.00
02386           -5600.00
02387           -5520.00
02388           -5360.00
02389           -5360.00
02390           -5360.00
02391           -5360.00
02392           -5280.00
02393           -5200.00
02394           -5200.00
02395           -5040.00
02396           -5040.00
02397           -5040.00
02398           -4960.00
02399           -4960.00
02400           -4960.00
02401           -4880.00
02402           -4720.00
02403           -4720.00
02404           -4720.00
02405           -4640.00
02406           -4640.00
02407           -4560.00
02408           -4560.00
02409           -4480.00
02410           -4400.00
02411           -4320.00
02412           -4320.00
02413           -4320.00
02414           -4320.00
02415           -4240.00
02416           -4160.00
02417           -4080.00
02418           -4080.00
02419           -4080.00
02420           -3920.00
02421           -3920.00
02422           -3840.00
02423           -3760.00
02424           -3760.00
02425           -3680.00
02426           -3680.00
02427           -3680.00
02428           -3600.00
02429           -3440.00
02430           -3440.00
02431           -3440.00
02432           -3440.00
02433           -3360.00
02434           -3280.00
02435           -3280.00
02436           -3200.00
02437           -3280.00
02438           -3120.00
02439           -3040.00
02440           -3040.00
02441           -2960.00
02442           -2960.00
02443           -2960.00
02444           -2800.00
02445           -2800.00
02446           -2720.00
02447           -2640.00
02448           -2640.00
02449           -2480.00
02450           -2480.00
02451           -2480.00
02452           -2400.00
02453           -2400.00
02454           -2320.00
02455           -2240.00
02456           -2160.00
02457           -2160.00
02458           -2080.00
02459           -2000.00
02460           -2000.00
02461           -2000.00
02462           -1840.00
02463           -1840.00
02464           -1840.00
02465           -1760.00
02466           -1680.00
02467           -1680.00
02468           -1680.00
02469           -1520.00
02470           -1440.00
02471           -1360.00
02472           -1360.00
02473           -1280.00
02474           -1200.00
02475           -1200.00
02476           -1120.00
02477           -1120.00
02478           -1040.00
02479           -1040.00
02480            -880.00
02481            -880.00
02482            -880.00
02483            -800.00
02484            -720.00
02485            -720.00
02486            -560.00
02487            -560.00
02488            -480.00
02489            -480.00
02490            -320.00
02491            -320.00
02492            -240.00
02493            -240.00
02494            -160.00
02495            -160.00
02496             -80.00
02497             -80.00
02498               0.00
02499              80.00
02500             160.00
02501             160.00
02502             240.00
02503             240.00
02504             240.00
02505             400.00
02506             400.00
02507             480.00
02508             480.00
02509             640.00
02510             720.00
02511             720.00
02512             720.00
02513             800.00
02514             800.00
02515             880.00
02516             880.00
02517            1040.00
02518            1120.00
02519            1120.00
02520            1120.00
02521            1200.00
02522            1280.00
02523            1360.00
02524            1440.00
02525            1440.00
02526            1440.00
02527            1520.00
02528            1680.00
02529            1680.00
02530            1680.00
02531            1680.00
02532            1840.00
02533            2000.00
02534            2000.00
02535            2000.00
02536            2080.00
02537            2160.00
02538            2160.00
02539            2160.00
02540            2320.00
02541            2320.00
02542            2320.00
02543            2480.00
02544            2480.00
02545            2560.00
02546            2640.00
02547            2720.00
02548            2720.00
02549            2720.00
02550            2720.00
02551            2960.00
02552            2960.00
02553            2960.00
02554            3040.00
02555            3040.00
02556            3120.00
02557            3120.00
02558            3280.00
02559            3280.00
02560            3280.00
02561            3360.00
02562            3360.00
02563            3440.00
02564            3520.00
02565            3600.00
02566            3600.00
02567            3600.00
02568            3680.00
02569            3760.00
02570            3760.00
02571            3760.00
02572            3920.00
02573            4000.00
02574            4000.00
02575            4080.00
02576            4080.00
02577            4240.00
02578            4240.00
02579            4240.00
02580            4240.00
02581            4320.00
02582            4320.00
02583            4400.00
02584            4400.00
02585            4560.00
02586            4640.00
02587            4640.00
02588            4640.00
02589            4720.00
02590            4720.00
02591            4880.00
02592            4880.00
02593            4880.00
02594            4960.00
02595            4960.00
02596            5040.00
02597            5040.00
02598            5040.00
02599            5200.00
02600            5280.00
02601            5280.00
02602            5280.00
02603            5360.00
02604            5520.00
02605            5520.00
02606            5520.00
02607            5520.00
02608            5520.00
02609            5600.00
02610            5680.00
02611            5680.00
02612            5760.00
02613            5840.00
02614            5840.00
02615            5920.00
02616            5920.00
02617            5920.00
02618            6000.00
02619            5920.00
02620            6080.00
02621            6160.00
02622            6160.00
02623            6160.00
02624            6240.00
02625            6240.00
02626            6240.00
02627            6320.00
02628            6320.00
02629            6400.00
02630            6480.00
02631            6480.00
02632            6480.00
02633            6560.00
02634            6560.00
02635            6560.00
02636            6640.00
02637            6640.00
02638            6640.00
02639            6800.00
02640            6800.00
02641            6800.00
02642            6800.00
02643            6880.00
02644            6880.00
02645            6880.00
02646            6880.00
02647            6960.00
02648            6960.00
02649            7040.00
02650            7120.00
02651            7200.00
02652            7200.00
02653            7200.00
02654            7200.00
02655            7280.00
02656            7280.00
02657            7280.00
02658            7440.00
02659            7440.00
02660            7440.00
02661            7440.00
02662            7440.00
02663            7520.00
02664            7600.00
02665            7520.00
02666            7600.00
02667            7600.00
02668            7680.00
02669            7760.00
02670            7760.00
02671            7760.00
02672            7760.00
02673            7760.00
02674            7840.00
02675            7840.00
02676            7840.00
02677            7840.00
02678            7920.00
02679            7920.00
02680            7920.00
02681            7920.00
02682            8000.00
02683            8080.00
02684            8080.00
02685            8080.00
02686            8080.00
02687            8080.00
02688            8160.00
02689            8160.00
02690            8160.00
02691            8160.00
02692            8160.00
02693            8240.00
02694            8160.00
02695            8240.00
02696            8240.00
02697            8320.00
02698            8240.00
02699            8400.00
02700            8400.00
02701            8400.00
02702            8400.00
02703            8400.00
02704            8480.00
02705            8400.00
02706            8480.00
02707            8480.00
02708            8480.00
02709            8480.00
02710            8480.00
02711            8480.00
02712            8560.00
02713            8480.00
02714            8480.00
02715            8560.00
02716            8480.00
02717            8560.00
02718            8560.00
02719            8560.00
02720            8560.00
02721            8720.00
02722            8720.00
02723            8640.00
02724            8720.00
02725            8720.00
02726            8640.00
02727            8720.00
02728            8720.00
02729            8720.00
02730            8720.00
02731            8720.00
02732            8720.00
02733            8720.00
02734            8720.00
02735            8720.00
02736            8800.00
02737            8720.00
02738            8800.00
02739            8720.00
02740            8720.00
02741            8800.00
02742            8800.00
02743            8800.00
02744            8800.00
02745            8800.00
02746            8720.00
02747            8720.00
02748            8800.00
02749            8800.00
02750            8800.00
02751            8720.00
02752            8800.00
02753            8800.00
02754            8720.00
02755            8720.00
02756            8800.00
02757            8720.00
02758            8720.00
02759            8720.00
02760            8720.00
02761            8800.00
02762            8720.00
02763            8720.00
02764            8720.00
02765            8720.00
02766            8720.00
02767            8720.00
02768            8720.00
02769            8720.00
02770            8720.00
02771            8720.00
02772            8720.00
02773            8640.00
02774            8720.00
02775            8720.00
02776            8720.00
02777            8640.00
02778            8720.00
02779            8720.00
02780            8560.00
02781            8720.00
02782            8560.00
02783            8560.00
02784            8560.00
02785            8560.00
02786            8560.00
02787            8560.00
02788            8560.00
02789            8560.00
02790            8480.00
02791            8480.00
02792            8560.00
02793            8480.00
02794            8480.00
02795            8480.00
02796            8480.00
02797            8480.00
02798            8480.00
02799            8400.00
02800            8480.00
02801            8400.00
02802            8400.00
02803            8400.00
02804            8320.00
02805            8320.00
02806            8240.00
02807            8240.00
02808            8240.00
02809            8240.00
02810            8240.00
02811            8240.00
02812            8160.00
02813            8160.00
02814            8160.00
02815            8160.00
02816            8080.00
02817            8080.00
02818            8080.00
02819            8080.00
02820            8000.00
02821            7920.00
02822            7920.00
02823            7840.00
02824            7920.00
02825            7840.00
02826            7840.00
02827            7840.00
02828            7840.00
02829            7840.00
02830            7760.00
02831            7760.00
02832            7760.00
02833            7760.00
02834            7680.00
02835            7600.00
02836            7600.00
02837            7520.00
02838            7520.00
02839            7520.00
02840            7440.00
02841            7440.00
02842            7440.00
02843            7440.00
02844            7360.00
02845            7360.00
02846            7360.00
02847            7280.00
02848            7280.00
02849            7200.00
02850            7200.00
02851            7200.00
02852            7200.00
02853            7120.00
02854            7120.00
02855            7040.00
02856            6960.00
02857            6960.00
02858            6880.00
02859            6880.00
02860            6880.00
02861            6800.00
02862            6880.00
02863            6800.00
02864            6800.00
02865            6720.00
02866            6800.00
02867            6640.00
02868            6640.00
02869            6560.00
02870            6560.00
02871            6480.00
02872            6480.00
02873            6480.00
02874            6400.00
02875            6400.00
02876            6240.00
02877            6320.00
02878            6240.00
02879            6240.00
02880            6160.00
02881            6160.00
02882            6160.00
02883            6000.00
02884            6000.00
02885            6000.00
02886            5920.00
02887            5920.00
02888            5920.00
02889            5840.00
02890            5760.00
02891            5680.00
02892            5680.00
02893            5600.00
02894            5600.00
02895            5600.00
02896            5520.00
02897            5520.00
02898            5520.00
02899            5360.00
02900            5280.00
02901            5280.00
02902            5280.00
02903            5200.00
02904            5200.00
02905            5040.00
02906            5040.00
02907            5040.00
02908            4960.00
02909            4960.00
02910            4880.00
02911            4880.00
02912            4880.00
02913            4720.00
02914            4720.00
02915            4720.00
02916            4640.00
02917            4640.00
02918            4560.00
02919            4560.00
02920            4400.00
02921            4320.00
02922            4400.00
02923            4320.00
02924            4240.00
02925            4320.00
02926            4240.00
02927            4240.00
02928            4080.00
02929            4080.00
02930            4000.00
02931            4000.00
02932            3920.00
02933            3920.00
02934            3760.00
02935            3760.00
02936            3760.00
02937            3680.00
02938            3600.00
02939            3600.00
02940            3520.00
02941            3440.00
02942            3440.00
02943            3360.00
02944            3360.00
02945            3280.00
02946            3280.00
02947            3120.00
02948            3120.00
02949            3120.00
02950            3040.00
02951            2960.00
02952            2960.00
02953            2800.00
02954            2800.00
02955            2720.00
02956            2720.00
02957            2640.00
02958            2560.00
02959            2560.00
02960            2480.00
02961            2400.00
02962            2400.00
02963            2320.00
02964            2320.00
02965            2160.00
02966            2320.00
02967            2160.00
02968            2160.00
02969            2000.00
02970            2000.00
02971            2000.00
02972            1760.00
02973            1760.00
02974            1760.00
02975            1680.00
02976            1680.00
02977            1680.00
02978            1520.00
02979            1520.00
02980            1440.00
02981            1440.00
02982            1360.00
02983            1360.00
02984            1360.00
02985            1120.00
02986            1200.00
02987            1040.00
02988            1040.00
02989            1040.00
02990             960.00
02991             880.00
02992             800.00
02993             800.00
02994             800.00
02995             720.00
02996             720.00
02997             560.00
02998             560.00
02999             480.00
03000             400.00
03001             400.00
03002             320.00
03003             240.00
03004             240.00
03005             160.00
03006             160.00
03007              80.00
03008              80.00
03009             -80.00
03010            -160.00
03011            -160.00
03012            -240.00
03013            -240.00
03014            -240.00
03015            -320.00
03016            -400.00
03017            -480.00
03018            -560.00
03019            -720.00
03020            -800.00
03021            -800.00
03022            -720.00
03023            -880.00
03024            -880.00
03025           -1040.00
03026            -960.00
03027           -1120.00
03028           -1040.00
03029           -1120.00
03030           -1200.00
03031           -1200.00
03032           -1360.00
03033           -1360.00
03034           -1440.00
03035           -1520.00
03036           -1520.00
03037           -1520.00
03038           -1520.00
03039           -1760.00
03040           -1760.00
03041           -1760.00
03042           -1840.00
03043           -1920.00
03044           -2000.00
03045           -2080.00
03046           -2080.00
03047           -2080.00
03048           -2160.00
03049           -2320.00
03050           -2240.00
03051           -2320.00
03052           -2400.00
03053           -2400.00
03054           -2480.00
03055           -2480.00
03056           -2480.00
03057           -2640.00
03058           -2640.00
03059           -2720.00
03060           -2800.00
03061           -2800.00
03062           -2800.00
03063           -2960.00
03064           -3040.00
03065           -3040.00
03066           -3040.00
03067           -3120.00
03068           -3280.00
03069           -3280.00
03070           -3360.00
03071           -3360.00
03072           -3360.00
03073           -3440.00
03074           -3440.00
03075           -3600.00
03076           -3600.00
03077           -3600.00
03078           -3680.00
03079           -3760.00
03080           -3760.00
03081           -3840.00
03082           -4000.00
03083           -4000.00
03084           -4000.00
03085           -4080.00
03086           -4080.00
03087           -4160.00
03088           -4240.00
03089           -4320.00
03090           -4320.00
03091           -4320.00
03092           -4400.00
03093           -4400.00
03094           -4480.00
03095           -4560.00
03096           -4560.00
03097           -4640.00
03098           -4720.00
03099           -4720.00
03100           -4720.00
03101           -4880.00
03102           -4880.00
03103           -4960.00
03104           -4960.00
03105           -4960.00
03106           -5040.00
03107           -5040.00
03108           -5120.00
03109           -5200.00
03110           -5280.00
03111           -5280.00
03112           -5280.00
03113           -5360.00
03114           -5360.00
03115           -5360.00
03116           -5440.00
03117           -5520.00
03118           -5600.00
03119           -5600.00
03120           -5600.00
03121           -5680.00
03122           -5680.00
03123           -5680.00
03124           -5840.00
03125           -5840.00
03126           -5920.00
03127           -5840.00
03128           -5920.00
03129           -6000.00
03130           -6000.00
03131           -6000.00
03132           -6080.00
03133           -6160.00
03134           -6240.00
03135           -6240.00
03136           -6240.00
03137           -6240.00
03138           -6320.00
03139           -6320.00
03140           -6320.00
03141           -6480.00
03142           -6560.00
03143           -6480.00
03144           -6480.00
03145           -6560.00
03146           -6560.00
03147           -6640.00
03148           -6640.00
03149           -6720.00
03150           -6800.00
03151           -6880.00
03152           -6800.00
03153           -6880.00
03154           -6880.00
03155           -6960.00
03156           -6960.00
03157           -6960.00
03158           -7120.00
03159           -7120.00
03160           -7120.00
03161           -7200.00
03162           -7200.00
03163           -7200.00
03164           -7280.00
03165           -7280.00
03166           -7280.00
03167           -7280.00
03168           -7280.00
03169           -7440.00
03170           -7520.00
03171           -7440.00
03172           -7520.00
03173           -7520.00
03174           -7520.00
03175           -7520.00
03176           -7520.00
03177           -7600.00
03178           -7600.00
03179           -7600.00
03180           -7600.00
03181           -7760.00
03182           -7760.00
03183           -7760.00
03184           -7760.00
03185           -7840.00
03186           -7840.00
03187           -7840.00
03188           -7840.00
03189           -7920.00
03190           -7840.00
03191           -7920.00
03192           -7920.00
03193           -7920.00
03194           -7920.00
03195           -8080.00
03196           -8080.00
03197           -8080.00
03198           -8080.00
03199           -8080.00
03200           -8080.00
03201           -8160.00
03202           -8160.00
03203           -8160.00
03204           -8240.00
03205           -8160.00
03206           -8240.00
03207           -8160.00
03208           -8240.00
03209           -8240.00
03210           -8320.00
03211           -8240.00
03212           -8400.00
03213           -8400.00
03214           -8400.00
03215           -8480.00
03216           -8400.00
03217           -8400.00
03218           -8560.00
03219           -8480.00
03220           -8560.00
03221           -8480.00
03222           -8560.00
03223           -8560.00
03224           -8560.00
03225           -8560.00
03226           -8560.00
03227           -8560.00
03228           -8560.00
03229           -8560.00
03230           -8560.00
03231           -8560.00
03232           -8560.00
03233           -8640.00
03234           -8560.00
03235           -8720.00
03236           -8640.00
03237           -8640.00
03238           -8720.00
03239           -8640.00
03240           -8720.00
03241           -8720.00
03242           -8640.00
03243           -8640.00
03244           -8720.00
03245           -8720.00
03246           -8720.00
03247           -8720.00
03248           -8800.00
03249           -8720.00
03250           -8720.00
03251           -8720.00
03252           -8720.00
03253           -8720.00
03254           -8720.00
03255           -8800.00
03256           -8800.00
03257           -8720.00
03258           -8720.00
03259           -8720.00
03260           -8800.00
03261           -8720.00
03262           -8800.00
03263           -8800.00
03264           -8720.00
03265           -8800.00
03266           -8720.00
03267           -8800.00
03268           -8720.00
03269           -8720.00
03270           -8720.00
03271           -8720.00
03272           -8720.00
03273           -8720.00
03274           -8720.00
03275           -8720.00
03276           -8720.00
03277           -8720.00
03278           -8720.00
03279           -8720.00
03280           -8720.00
03281           -8720.00
03282           -8640.00
03283           -8640.00
03284           -8720.00
03285           -8720.00
03286           -8640.00
03287           -8720.00
03288           -8560.00
03289           -8560.00
03290           -8560.00
03291           -8560.00
03292           -8560.00
03293           -8560.00
03294           -8560.00
03295           -8560.00
03296           -8560.00
03297           -8560.00
03298           -8560.00
03299           -8480.00
03300           -8480.00
03301           -8480.00
03302           -8560.00
03303           -8480.00
03304           -8480.00
03305           -8400.00
03306           -8400.00
03307           -8400.00
03308           -8400.00
03309           -8400.00
03310           -8400.00
03311           -8320.00
03312           -8320.00
03313           -8240.00
03314           -8240.00
03315           -8240.00
03316           -8240.00
03317           -8160.00
03318           -8160.00
03319           -8160.00
03320           -8160.00
03321           -8160.00
03322           -8160.00
03323           -8080.00
03324           -8080.00
03325           -8080.00
03326           -8000.00
03327           -8000.00
03328           -8000.00
03329           -7920.00
03330           -7920.00
03331           -7920.00
03332           -7920.00
03333           -7920.00
03334           -7920.00
03335           -7840.00
03336           -7840.00
03337           -7840.00
03338           -7760.00
03339           -7760.00
03340           -7760.00
03341           -7600.00
03342           -7600.00
03343           -7680.00
03344           -7600.00
03345           -7600.00
03346           -7600.00
03347           -7600.00
03348           -7520.00
03349           -7520.00
03350           -7520.00
03351           -7440.00
03352           -7440.00
03353           -7360.00
03354           -7440.00
03355           -7280.00
03356           -7280.00
03357           -7200.00
03358           -7200.00
03359           -7200.00
03360           -7200.00
03361           -7200.00
03362           -7120.00
03363           -7120.00
03364           -7040.00
03365           -6960.00
03366           -6960.00
03367           -6880.00
03368           -6960.00
03369           -6880.00
03370           -6880.00
03371           -6800.00
03372           -6800.00
03373           -6640.00
03374           -6640.00
03375           -6640.00
03376           -6640.00
03377           -6560.00
03378           -6560.00
03379           -6480.00
03380           -6480.00
03381           -6480.00
03382           -6320.00
03383           -6320.00
03384           -6320.00
03385           -6240.00
03386           -6240.00
03387           -6240.00
03388           -6160.00
03389           -6160.00
03390           -6160.00
03391           -6000.00
03392           -6000.00
03393           -5920.00
03394           -5920.00
03395           -5920.00
03396           -5920.00
03397           -5840.00
03398           -5840.00
03399           -5680.00
03400           -5680.00
03401           -5680.00
03402           -5600.00
03403           -5600.00
03404           -5600.00
03405           -5520.00
03406           -5360.00
03407           -5520.00
03408           -5360.00
03409           -5360.00
03410           -5280.00
03411           -5280.00
03412           -5280.00
03413           -5200.00
03414           -5200.00
03415           -5040.00
03416           -5040.00
03417           -4960.00
03418           -4960.00
03419           -4960.00
03420           -4880.00
03421           -4880.00
03422           -4720.00
03423           -4720.00
03424           -4720.00
03425           -4720.00
03426           -4640.00
03427           -4560.00
03428           -4480.00
03429           -4400.00
03430           -4480.00
03431           -4320.00
03432           -4320.00
03433           -4320.00
03434           -4240.00
03435           -4240.00
03436           -4080.00
03437           -4080.00
03438           -4080.00
03439           -4000.00
03440           -4000.00
03441           -3760.00
03442           -3920.00
03443           -3760.00
03444           -3760.00
03445           -3680.00
03446           -3680.00
03447           -3600.00
03448           -3600.00
03449           -3440.00
03450           -3440.00
03451           -3360.00
03452           -3360.00
03453           -3360.00
03454           -3280.00
03455           -3200.00
03456           -3120.00
03457           -3040.00
03458           -3040.00
03459           -3040.00
03460           -2960.00
03461           -2880.00
03462           -2800.00
03463           -2800.00
03464           -2720.00
03465           -2720.00
03466           -2640.00
03467           -2640.00
03468           -2480.00
03469           -2480.00
03470           -2400.00
03471           -2400.00
03472           -2400.00
03473           -2320.00
03474           -2240.00
03475           -2160.00
03476           -2160.00
03477           -2080.00
03478           -2080.00
03479           -2000.00
03480           -2000.00
03481           -1840.00
03482           -1840.00
03483           -1760.00
03484           -1760.00
03485           -1680.00
03486           -1680.00
03487           -1520.00
03488           -1520.00
03489           -1520.00
03490           -1440.00
03491           -1360.00
03492           -1360.00
03493           -1360.00
03494           -1200.00
03495           -1120.00
03496           -1120.00
03497           -1040.00
03498            -960.00
03499            -960.00
03500            -880.00
03501            -800.00
03502            -800.00
03503            -720.00
03504            -720.00
03505            -720.00
03506            -560.00
03507            -480.00
03508            -480.00
03509            -480.00
03510            -400.00
03511            -320.00
03512            -240.00
03513            -160.00
03514            -160.00
03515             -80.00
03516               0.00
03517               0.00
03518              80.00
03519             160.00
03520             160.00
03521             240.00
03522             320.00
03523             400.00
03524             400.00
03525             480.00
03526             480.00
03527             560.00
03528             560.00
03529             800.00
03530             720.00
03531             720.00
03532             880.00
03533             880.00
03534             960.00
03535             880.00
03536            1040.00
03537            1120.00
03538            1120.00
03539            1200.00
03540            1200.00
03541            1360.00
03542            1360.00
03543            1440.00
03544            1440.00
03545            1440.00
03546            1520.00
03547            1680.00
03548            1680.00
03549            1680.00
03550            1760.00
03551            1760.00
03552            1840.00
03553            2000.00
03554            2000.00
03555            2080.00
03556            2080.00
03557            2160.00
03558            2240.00
03559            2320.00
03560            2320.00
03561            2320.00
03562            2400.00
03563            2400.00
03564            2640.00
03565            2640.00
03566            2640.00
03567            2720.00
03568            2720.00
03569            2720.00
03570            2800.00
03571            2960.00
03572            2960.00
03573            3040.00
03574            3120.00
03575            3120.00
03576            3120.00
03577            3200.00
03578            3280.00
03579            3360.00
03580            3360.00
03581            3360.00
03582            3520.00
03583            3440.00
03584            3600.00
03585            3600.00
03586            3680.00
03587            3760.00
03588            3760.00
03589            3920.00
03590            3840.00
03591            4000.00
03592            4000.00
03593            4000.00
03594            4000.00
03595            4080.00
03596            4240.00
03597            4240.00
03598            4240.00
03599            4320.00
03600            4320.00
03601            4320.00
03602            4480.00
03603            4400.00
03604            4480.00
03605            4560.00
03606            4640.00
03607            4640.00
03608            4720.00
03609            4720.00
03610            4880.00
03611            4880.00
03612            4880.00
03613            4960.00
03614            4960.00
03615            4960.00
03616            5040.00
03617            5200.00
03618            5200.00
03619            5200.00
03620            5280.00
03621            5280.00
03622            5280.00
03623            5360.00
03624            5360.00
03625            5360.00
03626            5520.00
03627            5520.00
03628            5600.00
03629            5600.00
03630            5680.00
03631            5680.00
03632            5680.00
03633            5840.00
03634            5840.00
03635            5920.00
03636            5920.00
03637            5920.00
03638            6000.00
03639            6000.00
03640            6000.00
03641            6160.00
03642            6160.00
03643            6240.00
03644            6240.00
03645            6240.00
03646            6320.00
03647            6320.00
03648            6400.00
03649            6480.00
03650            6480.00
03651            6560.00
03652            6560.00
03653            6560.00
03654            6560.00
03655            6640.00
03656            6720.00
03657            6800.00
03658            6800.00
03659            6800.00
03660            6800.00
03661            6800.00
03662            6880.00
03663            6960.00
03664            6960.00
03665            6960.00
03666            6960.00
03667            7120.00
03668            7120.00
03669            7200.00
03670            7200.00
03671            7200.00
03672            7200.00
03673            7200.00
03674            7280.00
03675            7280.00
03676            7440.00
03677            7280.00
03678            7440.00
03679            7440.00
03680            7440.00
03681            7440.00
03682            7520.00
03683            7520.00
03684            7520.00
03685            7600.00
03686            7520.00
03687            7600.00
03688            7760.00
03689            7760.00
03690            7760.00
03691            7760.00
03692            7840.00
03693            7760.00
03694            7760.00
03695            7840.00
03696            7840.00
03697            7840.00
03698            7920.00
03699            7920.00
03700            8000.00
03701            8080.00
03702            8080.00
03703            8080.00
03704            8080.00
03705            8080.00
03706            8080.00
03707            8160.00
03708            8160.00
03709            8160.00
03710            8160.00
03711            8240.00
03712            8240.00
03713            8240.00
03714            8240.00
03715            8320.00
03716            8400.00
03717            8400.00
03718            8400.00
03719            8400.00
03720            8400.00
03721            8400.00
03722            8480.00
03723            8400.00
03724            8480.00
03725            8480.00
03726            8480.00
03727            8480.00
03728            8480.00
03729            8480.00
03730            8560.00
03731            8480.00
03732            8560.00
03733            8480.00
03734            8480.00
03735            8560.00
03736            8480.00
03737            8560.00
03738            8560.00
03739            8560.00
03740            8640.00
03741            8640.00
03742            8720.00
03743            8560.00
03744            8720.00
03745            8640.00
03746            8560.00
03747            8720.00
03748            8720.00
03749            8720.00
03750            8720.00
03751            8720.00
03752            8720.00
03753            8720.00
03754            8720.00
03755            8720.00
03756            8720.00
03757            8720.00
03758            8720.00
03759            8720.00
03760            8720.00
03761            8720.00
03762            8720.00
03763            8800.00
03764            8800.00
03765            8720.00
03766            8720.00
03767            8800.00
03768            8800.00
03769            8720.00
03770            8720.00
03771            8800.00
03772            8800.00
03773            8800.00
03774            8800.00
03775            8800.00
03776            8800.00
03777            8800.00
03778            8800.00
03779            8800.00
03780            8720.00
03781            8800.00
03782            8800.00
03783            8720.00
03784            8720.00
03785            8720.00
03786            8720.00
03787            8800.00
03788            8720.00
03789            8720.00
03790            8720.00
03791            8720.00
03792            8720.00
03793            8720.00
03794            8640.00
03795            8720.00
03796            8720.00
03797            8720.00
03798            8720.00
03799            8560.00
03800            8720.00
03801            8560.00
03802            8640.00
03803            8560.00
03804            8560.00
03805            8560.00
03806            8480.00
03807            8560.00
03808            8480.00
03809            8480.00
03810            8480.00
03811            8480.00
03812            8480.00
03813            8480.00
03814            8480.00
03815            8480.00
03816            8400.00
03817            8400.00
03818            8400.00
03819            8400.00
03820            8400.00
03821            8400.00
03822            8400.00
03823            8240.00
03824            8320.00
03825            8240.00
03826            8160.00
03827            8160.00
03828            8240.00
03829            8160.00
03830            8240.00
03831            8160.00
03832            8160.00
03833            8160.00
03834            8160.00
03835            8080.00
03836            8080.00
03837            8080.00
03838            8080.00
03839            8000.00
03840            8080.00
03841            7920.00
03842            7920.00
03843            7920.00
03844            7840.00
03845            7840.00
03846            7840.00
03847            7840.00
03848            7840.00
03849            7840.00
03850            7760.00
03851            7760.00
03852            7760.00
03853            7680.00
03854            7600.00
03855            7600.00
03856            7600.00
03857            7520.00
03858            7520.00
03859            7520.00
03860            7440.00
03861            7440.00
03862            7440.00
03863            7360.00
03864            7440.00
03865            7280.00
03866            7280.00
03867            7200.00
03868            7200.00
03869            7200.00
03870            7200.00
03871            7200.00
03872            7120.00
03873            7120.00
03874            7040.00
03875            7040.00
03876            6960.00
03877            6960.00
03878            6880.00
03879            6880.00
03880            6880.00
03881            6800.00
03882            6800.00
03883            6720.00
03884            6640.00
03885            6640.00
03886            6640.00
03887            6560.00
03888            6560.00
03889            6560.00
03890            6480.00
03891            6480.00
03892            6480.00
03893            6320.00
03894            6400.00
03895            6320.00
03896            6320.00
03897            6160.00
03898            6160.00
03899            6160.00
03900            6160.00
03901            6160.00
03902            6080.00
03903            6000.00
03904            5920.00
03905            5920.00
03906            5920.00
03907            5840.00
03908            5840.00
03909            5840.00
03910            5680.00
03911            5680.00
03912            5680.00
03913            5600.00
03914            5600.00
03915            5520.00
03916            5520.00
03917            5520.00
03918            5360.00
03919            5360.00
03920            5280.00
03921            5280.00
03922            5280.00
03923            5200.00
03924            5200.00
03925            5120.00
03926            5040.00
03927            5040.00
03928            5040.00
03929            4960.00
03930            4880.00
03931            4800.00
03932            4880.00
03933            4720.00
03934            4640.00
03935            4640.00
03936            4640.00
03937            4560.00
03938            4560.00
03939            4400.00
03940            4400.00
03941            4320.00
03942            4320.00
03943            4320.00
03944            4240.00
03945            4240.00
03946            4080.00
03947            4080.00
03948            4000.00
03949            4000.00
03950            4000.00
03951            3920.00
03952            3840.00
03953            3840.00
03954            3760.00
03955            3680.00
03956            3680.00
03957            3600.00
03958            3600.00
03959            3520.00
03960            3440.00
03961            3440.00
03962            3360.00
03963            3360.00
03964            3280.00
03965            3120.00
03966            3120.00
03967            3040.00
03968            3120.00
03969            3040.00
03970            2960.00
03971            3040.00
03972            2800.00
03973            2800.00
03974            2720.00
03975            2720.00
03976            2640.00
03977            2640.00
03978            2480.00
03979            2560.00
03980            2480.00
03981            2400.00
03982            2400.00
03983            2320.00
03984            2320.00
03985            2320.00
03986            2080.00
03987            2080.00
03988            2160.00
03989            2080.00
03990            2000.00
03991            2000.00
03992            1760.00
03993            1760.00
03994            1680.00
03995            1600.00
03996            1680.00
03997            1520.00
03998            1440.00
03999            1440.00
04000            1440.00
04001            1360.00
04002            1360.00
04003            1200.00
04004            1200.00
04005            1120.00
04006            1040.00
04007            1040.00
04008             880.00
04009            1040.00
04010             800.00
04011             800.00
04012             720.00
04013             720.00
04014             720.00
04015             560.00
04016             560.00
04017             480.00
04018             480.00
04019             400.00
04020             320.00
04021             240.00
04022             240.00
04023             160.00
04024             160.00
04025              80.00
04026              80.00
04027               0.00
04028             -80.00
04029            -160.00
04030            -240.00
04031            -240.00
04032            -240.00
04033            -240.00
04034            -400.00
04035            -400.00
04036            -480.00
04037            -480.00
04038            -640.00
04039            -720.00
04040            -720.00
04041            -720.00
04042            -880.00
04043            -880.00
04044            -880.00
04045            -960.00
04046           -1040.00
04047           -1040.00
04048           -1120.00
04049           -1200.00
04050           -1200.00
04051           -1200.00
04052           -1360.00
04053           -1440.00
04054           -1520.00
04055           -1520.00
04056           -1520.00
04057           -1520.00
04058           -1760.00
04059           -1760.00
04060           -1760.00
04061           -1840.00
04062           -1840.00
04063           -2000.00
04064           -2000.00
04065           -2080.00
04066           -2080.00
04067           -2160.00
04068           -2160.00
04069           -2320.00
04070           -2400.00
04071           -2400.00
04072           -2400.00
04073           -2480.00
04074           -2480.00
04075           -2480.00
04076           -2720.00
04077           -2720.00
04078           -2800.00
04079           -2800.00
04080           -2800.00
04081           -2960.00
04082           -2960.00
04083           -3040.00
04084           -3040.00
04085           -3120.00
04086           -3120.00
04087           -3120.00
04088           -3280.00
04089           -3360.00
04090           -3360.00
04091           -3440.00
04092           -3440.00
04093           -3440.00
04094           -3600.00
04095           -3680.00
04096           -3680.00
04097           -3680.00
04098           -3760.00
04099           -3760.00
04100           -3840.00
04101           -3920.00
04102           -4000.00
04103           -4000.00
04104           -4080.00
04105           -4080.00
04106           -4080.00
04107           -4240.00
04108           -4240.00
04109           -4240.00
04110           -4320.00
04111           -4320.00
04112           -4400.00
04113           -4400.00
04114           -4560.00
04115           -4560.00
04116           -4640.00
04117           -4640.00
04118           -4640.00
04119           -4720.00
04120           -4800.00
04121           -4880.00
04122           -4960.00
04123           -4960.00
04124           -5040.00
04125           -5040.00
04126           -5040.00
04127           -5040.00
04128           -5200.00
04129           -5200.00
04130           -5280.00
04131           -5280.00
04132           -5280.00
04133           -5360.00
04134           -5360.00
04135           -5520.00
04136           -5520.00
04137           -5600.00
04138           -5600.00
04139           -5680.00
04140           -5680.00
04141           -5680.00
04142           -5840.00
04143           -5840.00
04144           -5840.00
04145           -5920.00
04146           -5920.00
04147           -6000.00
04148           -6000.00
04149           -6000.00
04150           -6080.00
04151           -6160.00
04152           -6160.00
04153           -6160.00
04154           -6240.00
04155           -6240.00
04156           -6240.00
04157           -6320.00
04158           -6320.00
04159           -6400.00
04160           -6480.00
04161           -6480.00
04162           -6560.00
04163           -6560.00
04164           -6640.00
04165           -6560.00
04166           -6640.00
04167           -6640.00
04168           -6720.00
04169           -6800.00
04170           -6800.00
04171           -6800.00
04172           -6880.00
04173           -6880.00
04174           -6960.00
04175           -6960.00
04176           -6960.00
04177           -7040.00
04178           -7040.00
04179           -7120.00
04180           -7200.00
04181           -7200.00
04182           -7120.00
04183           -7200.00
04184           -7280.00
04185           -7280.00
04186           -7280.00
04187           -7360.00
04188           -7360.00
04189           -7440.00
04190           -7520.00
04191           -7440.00
04192           -7440.00
04193           -7600.00
04194           -7520.00
04195           -7600.00
04196           -7600.00
04197           -7600.00
04198           -7600.00
04199           -7760.00
04200           -7840.00
04201           -7760.00
04202           -7840.00
04203           -7840.00
04204           -7840.00
04205           -7840.00
04206           -7840.00
04207           -7920.00
04208           -7920.00
04209           -7920.00
04210           -7920.00
04211           -7920.00
04212           -8080.00
04213           -8080.00
04214           -7920.00
04215           -8080.00
04216           -8080.00
04217           -8080.00
04218           -8160.00
04219           -8160.00
04220           -8160.00
04221           -8160.00
04222           -8160.00
04223           -8240.00
04224           -8160.00
04225           -8240.00
04226           -8240.00
04227           -8240.00
04228           -8320.00
04229           -8400.00
04230           -8240.00
04231           -8400.00
04232           -8400.00
04233           -8320.00
04234           -8400.00
04235           -8400.00
04236           -8400.00
04237           -8400.00
04238           -8480.00
04239           -8480.00
04240           -8560.00
04241           -8480.00
04242           -8480.00
04243           -8480.00
04244           -8560.00
04245           -8480.00
04246           -8560.00
04247           -8560.00
04248           -8560.00
04249           -8560.00
04250           -8560.00
04251           -8560.00
04252           -8560.00
04253           -8720.00
04254           -8560.00
04255           -8560.00
04256           -8640.00
04257           -8640.00
04258           -8720.00
04259           -8720.00
04260           -8720.00
04261           -8720.00
04262           -8720.00
04263           -8720.00
04264           -8720.00
04265           -8720.00
04266           -8720.00
04267           -8720.00
04268           -8720.00
04269           -8720.00
04270           -8800.00
04271           -8800.00
04272           -8720.00
04273           -8800.00
04274           -8800.00
04275           -8800.00
04276           -8720.00
04277           -8800.00
04278           -8800.00
04279           -8800.00
04280           -8800.00
04281           -8800.00
04282           -8800.00
04283           -8720.00
04284           -8720.00
04285           -8720.00
04286           -8720.00
04287           -8800.00
04288           -8720.00
04289           -8800.00
04290           -8800.00
04291           -8720.00
04292           -8720.00
04293           -8720.00
04294           -8640.00
04295           -8720.00
04296           -8720.00
04297           -8640.00
04298           -8800.00
04299           -8720.00
04300           -8560.00
04301           -8720.00
04302           -8640.00
04303           -8560.00
04304           -8560.00
04305           -8560.00
04306           -8560.00
04307           -8640.00
04308           -8560.00
04309           -8560.00
04310           -8560.00
04311           -8560.00
04312           -8560.00
04313           -8560.00
04314           -8560.00
04315           -8480.00
04316           -8560.00
04317           -8560.00
04318           -8480.00
04319           -8480.00
04320           -8480.00
04321           -8480.00
04322           -8480.00
04323           -8480.00
04324           -8480.00
04325           -8400.00
04326           -8400.00
04327           -8480.00
04328           -8400.00
04329           -8400.00
04330           -8320.00
04331           -8320.00
04332           -8240.00
04333           -8240.00
04334           -8240.00
04335           -8160.00
04336           -8240.00
04337           -8160.00
04338           -8160.00
04339           -8240.00
04340           -8160.00
04341           -8160.00
04342           -8160.00
04343           -8080.00
04344           -8080.00
04345           -8080.00
04346           -8000.00
04347           -8080.00
04348           -8000.00
04349           -7920.00
04350           -7920.00
04351           -7920.00
04352           -7840.00
04353           -7920.00
04354           -7840.00
04355           -7840.00
04356           -7840.00
04357           -7760.00
04358           -7760.00
04359           -7760.00
04360           -7760.00
04361           -7600.00
04362           -7600.00
04363           -7520.00
04364           -7600.00
04365           -7520.00
04366           -7520.00
04367           -7520.00
04368           -7440.00
04369           -7520.00
04370           -7440.00
04371           -7440.00
04372           -7360.00
04373           -7280.00
04374           -7280.00
04375           -7280.00
04376           -7200.00
04377           -7200.00
04378           -7200.00
04379           -7120.00
04380           -7120.00
04381           -7120.00
04382           -7040.00
04383           -6960.00
04384           -6960.00
04385           -6960.00
04386           -6880.00
04387           -6960.00
04388           -6880.00
04389           -6880.00
04390           -6800.00
04391           -6800.00
04392           -6800.00
04393           -6640.00
04394           -6640.00
04395           -6640.00
04396           -6640.00
04397           -6560.00
04398           -6560.00
04399           -6480.00
04400           -6480.00
04401           -6320.00
04402           -6320.00
04403           -6320.00
04404           -6320.00
04405           -6240.00
04406           -6240.00
04407           -6240.00
04408           -6240.00
04409           -6160.00
04410           -6080.00
04411           -6000.00
04412           -5920.00
04413           -6000.00
04414           -6000.00
04415           -5920.00
04416           -5840.00
04417           -5840.00
04418           -5760.00
04419           -5680.00
04420           -5680.00
04421           -5600.00
04422           -5600.00
04423           -5600.00
04424           -5520.00
04425           -5520.00
04426           -5360.00
04427           -5360.00
04428           -5280.00
04429           -5360.00
04430           -5280.00
04431           -5200.00
04432           -5200.00
04433           -5120.00
04434           -5040.00
04435           -5040.00
04436           -5040.00
04437           -4960.00
04438           -4880.00
04439           -4880.00
04440           -4720.00
04441           -4720.00
04442           -4720.00
04443           -4640.00
04444           -4640.00
04445           -4640.00
04446           -4560.00
04447           -4560.00
04448           -4400.00
04449           -4400.00
04450           -4320.00
04451           -4320.00
04452           -4240.00
04453           -4240.00
04454           -4240.00
04455           -4080.00
04456           -4080.00
04457           -4080.00
04458           -4000.00
04459           -4000.00
04460           -3840.00
04461           -3920.00
04462           -3760.00
04463           -3680.00
04464           -3760.00
04465           -3680.00
04466           -3680.00
04467           -3600.00
04468           -3520.00
04469           -3440.00
04470           -3440.00
04471           -3440.00
04472           -3360.00
04473           -3360.00
04474           -3280.00
04475           -3120.00
04476           -3120.00
04477           -3120.00
04478           -3040.00
04479           -3040.00
04480           -2960.00
04481           -2800.00
04482           -2800.00
04483           -2720.00
04484           -2720.00
04485           -2640.00
04486           -2640.00
04487           -2480.00
04488           -2480.00
04489           -2480.00
04490           -2400.00
04491           -2400.00
04492           -2160.00
04493           -2320.00
04494           -2160.00
04495           -2080.00
04496           -2080.00
04497           -2000.00
04498           -2000.00
04499           -1920.00
04500           -1840.00
04501           -1760.00
04502           -1760.00
04503           -1760.00
04504           -1680.00
04505           -1520.00
04506           -1520.00
04507           -1520.00
04508           -1440.00
04509           -1360.00
04510           -1280.00
04511           -1200.00
04512           -1200.00
04513           -1120.00
04514           -1120.00
04515           -1120.00
04516           -1120.00
04517            -960.00
04518            -880.00
04519            -880.00
04520            -880.00
04521            -800.00
04522            -800.00
04523            -720.00
04524            -560.00
04525            -560.00
04526            -480.00
04527            -480.00
04528            -400.00
04529            -400.00
04530            -240.00
04531            -240.00
04532            -240.00
04533            -160.00
04534             -80.00
04535             -80.00
04536              80.00
04537              80.00
04538              80.00
04539             160.00
04540             160.00
04541             240.00
04542             320.00
04543             400.00
04544             400.00
04545             480.00
04546             560.00
04547             560.00
04548             720.00
04549             720.00
04550             800.00
04551             800.00
04552             880.00
04553            1040.00
04554             880.00
04555            1040.00
04556            1120.00
04557            1200.00
04558            1200.00
04559            1280.00
04560            1360.00
04561            1440.00
04562            1440.00
04563            1520.00
04564            1520.00
04565            1520.00
04566            1680.00
04567            1760.00
04568            1680.00
04569            1760.00
04570            1760.00
04571            2000.00
04572            2000.00
04573            2000.00
04574            2080.00
04575            2160.00
04576            2160.00
04577            2160.00
04578            2320.00
04579            2320.00
04580            2400.00
04581            2480.00
04582            2480.00
04583            2480.00
04584            2640.00
04585            2640.00
04586            2720.00
04587            2720.00
04588            2720.00
04589            2800.00
04590            2880.00
04591            2960.00
04592            3040.00
04593            3040.00
04594            3040.00
04595            3120.00
04596            3280.00
04597            3280.00
04598            3360.00
04599            3360.00
04600            3360.00
04601            3360.00
04602            3440.00
04603            3600.00
04604            3600.00
04605            3600.00
04606            3680.00
04607            3760.00
04608            3760.00
04609            3840.00
04610            3920.00
04611            4000.00
04612            4000.00
04613            4000.00
04614            4160.00
04615            4160.00
04616            4240.00
04617            4240.00
04618            4240.00
04619            4320.00
04620            4400.00
04621            4400.00
04622            4560.00
04623            4560.00
04624            4640.00
04625            4640.00
04626            4720.00
04627            4720.00
04628            4720.00
04629            4880.00
04630            4880.00
04631            4880.00
04632            4960.00
04633            4960.00
04634            5040.00
04635            5040.00
04636            5200.00
04637            5200.00
04638            5200.00
04639            5280.00
04640            5280.00
04641            5360.00
04642            5440.00
04643            5440.00
04644            5520.00
04645            5520.00
04646            5520.00
04647            5520.00
04648            5600.00
04649            5680.00
04650            5680.00
04651            5840.00
04652            5840.00
04653            5920.00
04654            5920.00
04655            5920.00
04656            6000.00
04657            6000.00
04658            6000.00
04659            6000.00
04660            6160.00
04661            6160.00
04662            6160.00
04663            6240.00
04664            6320.00
04665            6320.00
04666            6320.00
04667            6400.00
04668            6480.00
04669            6480.00
04670            6480.00
04671            6560.00
04672            6560.00
04673            6560.00
04674            6560.00
04675            6720.00
04676            6720.00
04677            6800.00
04678            6800.00
04679            6800.00
04680            6880.00
04681            6880.00
04682            6880.00
04683            6960.00
04684            6960.00
04685            6960.00
04686            7120.00
04687            7120.00
04688            7120.00
04689            7200.00
04690            7200.00
04691            7200.00
04692            7200.00
04693            7280.00
04694            7360.00
04695            7440.00
04696            7440.00
04697            7440.00
04698            7440.00
04699            7520.00
04700            7520.00
04701            7520.00
04702            7520.00
04703            7520.00
04704            7600.00
04705            7680.00
04706            7680.00
04707            7600.00
04708            7760.00
04709            7840.00
04710            7760.00
04711            7840.00
04712            7840.00
04713            7840.00
04714            7840.00
04715            7840.00
04716            7920.00
04717            7840.00
04718            7840.00
04719            8000.00
04720            7920.00
04721            8000.00
04722            8080.00
04723            8080.00
04724            8080.00
04725            8080.00
04726            8160.00
04727            8080.00
04728            8160.00
04729            8160.00
04730            8240.00
04731            8240.00
04732            8240.00
04733            8240.00
04734            8320.00
04735            8320.00
04736            8240.00
04737            8400.00
04738            8400.00
04739            8400.00
04740            8400.00
04741            8400.00
04742            8480.00
04743            8400.00
04744            8480.00
04745            8480.00
04746            8480.00
04747            8480.00
04748            8480.00
04749            8480.00
04750            8480.00
04751            8560.00
04752            8560.00
04753            8560.00
04754            8560.00
04755            8640.00
04756            8640.00
04757            8560.00
04758            8640.00
04759            8560.00
04760            8720.00
04761            8720.00
04762            8720.00
04763            8720.00
04764            8720.00
04765            8720.00
04766            8720.00
04767            8720.00
04768            8720.00
04769            8720.00
04770            8720.00
04771            8720.00
04772            8720.00
04773            8720.00
04774            8800.00
04775            8720.00
04776            8720.00
04777            8720.00
04778            8720.00
04779            8720.00
04780            8800.00
04781            8800.00
04782            8800.00
04783            8720.00
04784            8800.00
04785            8720.00
04786            8800.00
04787            8720.00
04788            8800.00
04789            8720.00
04790            8800.00
04791            8720.00
04792            8720.00
04793            8720.00
04794            8800.00
04795            8800.00
04796            8800.00
04797            8720.00
04798            8720.00
04799            8720.00
04800            8720.00
04801            8720.00
04802            8720.00
04803            8720.00
04804            8720.00
04805            8720.00
04806            8720.00
04807            8720.00
04808            8720.00
04809            8720.00
04810            8720.00
04811            8720.00
04812            8640.00
04813            8720.00
04814            8640.00
04815            8720.00
04816            8720.00
04817            8720.00
04818            8720.00
04819            8720.00
04820            8640.00
04821            8560.00
04822            8560.00
04823            8560.00
04824            8560.00
04825            8560.00
04826            8560.00
04827            8560.00
04828            8560.00
04829            8480.00
04830            8480.00
04831            8560.00
04832            8480.00
04833            8480.00
04834            8480.00
04835            8480.00
04836            8480.00
04837            8480.00
04838            8400.00
04839            8400.00
04840            8400.00
04841            8400.00
04842            8400.00
04843            8400.00
04844            8240.00
04845            8240.00
04846            8240.00
04847            8240.00
04848            8160.00
04849            8160.00
04850            8160.00
04851            8160.00
04852            8160.00
04853            8080.00
04854            8160.00
04855            8080.00
04856            8080.00
04857            8080.00
04858            7920.00
04859            7920.00
04860            7920.00
04861            7920.00
04862            7840.00
04863            7840.00
04864            7840.00
04865            7840.00
04866            7840.00
04867            7840.00
04868            7760.00
04869            7760.00
04870            7680.00
04871            7760.00
04872            7680.00
04873            7600.00
04874            7600.00
04875            7520.00
04876            7600.00
04877            7520.00
04878            7520.00
04879            7520.00
04880            7440.00
04881            7440.00
04882            7440.00
04883            7440.00
04884            7440.00
04885            7440.00
04886            7280.00
04887            7200.00
04888            7200.00
04889            7200.00
04890            7200.00
04891            7200.00
04892            7120.00
04893            7120.00
04894            7040.00
04895            6960.00
04896            6960.00
04897            6880.00
04898            6960.00
04899            6880.00
04900            6880.00
04901            6800.00
04902            6800.00
04903            6800.00
04904            6800.00
04905            6640.00
04906            6640.00
04907            6560.00
04908            6560.00
04909            6480.00
04910            6480.00
04911            6400.00
04912            6400.00
04913            6480.00
04914            6320.00
04915            6240.00
04916            6240.00
04917            6160.00
04918            6160.00
04919            6160.00
04920            6160.00
04921            6000.00
04922            6000.00
04923            6000.00
04924            5920.00
04925            5920.00
04926            5920.00
04927            5840.00
04928            5760.00
04929            5760.00
04930            5680.00
04931            5680.00
04932            5600.00
04933            5600.00
04934            5520.00
04935            5520.00
04936            5440.00
04937            5360.00
04938            5360.00
04939            5360.00
04940            5360.00
04941            5280.00
04942            5200.00
04943            5120.00
04944            5120.00
04945            5040.00
04946            4960.00
04947            4960.00
04948            4960.00
04949            4960.00
04950            4880.00
04951            4880.00
04952            4720.00
04953            4720.00
04954            4720.00
04955            4560.00
04956            4560.00
04957            4560.00
04958            4560.00
04959            4400.00
04960            4400.00
04961            4320.00
04962            4240.00
04963            4240.00
04964            4240.00
04965            4160.00
04966            4080.00
04967            4080.00
04968            4000.00
04969            4000.00
04970            3920.00
04971            3920.00
04972            3920.00
04973            3760.00
04974            3680.00
04975            3600.00
04976            3600.00
04977            3600.00
04978            3600.00
04979            3440.00
04980            3360.00
04981            3360.00
04982            3360.00
04983            3280.00
04984            3280.00
04985            3120.00
04986            3120.00
04987            3040.00
04988            3040.00
04989            2960.00
04990            2960.00
04991            2880.00
04992            2800.00
04993            2720.00
04994            2720.00
04995            2640.00
04996            2640.00
04997            2640.00
04998            2480.00
04999            2480.00
05000            2400.00
