Unit:(mV)
                     CH1
Frequency     98.081 kHz
00001           -1120.00
00002           -1120.00
00003           -1200.00
00004           -1200.00
00005           -1200.00
00006           -1200.00
00007           -1360.00
00008           -1280.00
00009           -1200.00
00010           -1360.00
00011           -1360.00
00012           -1440.00
00013           -1360.00
00014           -1440.00
00015           -1440.00
00016           -1520.00
00017           -1520.00
00018           -1520.00
00019           -1520.00
00020           -1520.00
00021           -1600.00
00022           -1600.00
00023           -1680.00
00024           -1680.00
00025           -1680.00
00026           -1760.00
00027           -1680.00
00028           -1760.00
00029           -1760.00
00030           -1760.00
00031           -1760.00
00032           -1760.00
00033           -1840.00
00034           -1840.00
00035           -1840.00
00036           -1840.00
00037           -2000.00
00038           -2000.00
00039           -2000.00
00040           -2000.00
00041           -2080.00
00042           -2080.00
00043           -2080.00
00044           -2080.00
00045           -2160.00
00046           -2080.00
00047           -2160.00
00048           -2160.00
00049           -2160.00
00050           -2160.00
00051           -2160.00
00052           -2160.00
00053           -2320.00
00054           -2320.00
00055           -2320.00
00056           -2320.00
00057           -2320.00
00058           -2400.00
00059           -2400.00
00060           -2400.00
00061           -2400.00
00062           -2400.00
00063           -2480.00
00064           -2480.00
00065           -2480.00
00066           -2480.00
00067           -2480.00
00068           -2480.00
00069           -2560.00
00070           -2640.00
00071           -2560.00
00072           -2640.00
00073           -2560.00
00074           -2640.00
00075           -2720.00
00076           -2640.00
00077           -2720.00
00078           -2720.00
00079           -2720.00
00080           -2720.00
00081           -2720.00
00082           -2800.00
00083           -2800.00
00084           -2800.00
00085           -2800.00
00086           -2800.00
00087           -2800.00
00088           -2800.00
00089           -2880.00
00090           -2960.00
00091           -2880.00
00092           -2960.00
00093           -2960.00
00094           -2960.00
00095           -2960.00
00096           -2960.00
00097           -3040.00
00098           -3040.00
00099           -3040.00
00100           -3040.00
00101           -3040.00
00102           -3040.00
00103           -3040.00
00104           -3120.00
00105           -3040.00
00106           -3120.00
00107           -3120.00
00108           -3200.00
00109           -3120.00
00110           -3200.00
00111           -3280.00
00112           -3280.00
00113           -3280.00
00114           -3280.00
00115           -3280.00
00116           -3280.00
00117           -3360.00
00118           -3280.00
00119           -3360.00
00120           -3360.00
00121           -3360.00
00122           -3360.00
00123           -3360.00
00124           -3360.00
00125           -3360.00
00126           -3360.00
00127           -3360.00
00128           -3360.00
00129           -3440.00
00130           -3360.00
00131           -3440.00
00132           -3440.00
00133           -3440.00
00134           -3440.00
00135           -3600.00
00136           -3440.00
00137           -3520.00
00138           -3440.00
00139           -3440.00
00140           -3520.00
00141           -3520.00
00142           -3600.00
00143           -3600.00
00144           -3600.00
00145           -3600.00
00146           -3440.00
00147           -3600.00
00148           -3600.00
00149           -3600.00
00150           -3680.00
00151           -3600.00
00152           -3600.00
00153           -3680.00
00154           -3680.00
00155           -3600.00
00156           -3600.00
00157           -3680.00
00158           -3680.00
00159           -3680.00
00160           -3680.00
00161           -3680.00
00162           -3680.00
00163           -3680.00
00164           -3680.00
00165           -3680.00
00166           -3760.00
00167           -3680.00
00168           -3760.00
00169           -3680.00
00170           -3760.00
00171           -3760.00
00172           -3760.00
00173           -3760.00
00174           -3760.00
00175           -3680.00
00176           -3760.00
00177           -3760.00
00178           -3760.00
00179           -3760.00
00180           -3760.00
00181           -3760.00
00182           -3760.00
00183           -3840.00
00184           -3840.00
00185           -3760.00
00186           -3760.00
00187           -3760.00
00188           -3920.00
00189           -3840.00
00190           -3760.00
00191           -3760.00
00192           -3760.00
00193           -3840.00
00194           -3760.00
00195           -3840.00
00196           -3760.00
00197           -3840.00
00198           -3760.00
00199           -3840.00
00200           -3760.00
00201           -3760.00
00202           -3840.00
00203           -3760.00
00204           -3840.00
00205           -3760.00
00206           -3920.00
00207           -3760.00
00208           -3760.00
00209           -3760.00
00210           -3840.00
00211           -3760.00
00212           -3840.00
00213           -3840.00
00214           -3760.00
00215           -3760.00
00216           -3760.00
00217           -3760.00
00218           -3760.00
00219           -3760.00
00220           -3760.00
00221           -3760.00
00222           -3760.00
00223           -3760.00
00224           -3760.00
00225           -3760.00
00226           -3760.00
00227           -3760.00
00228           -3840.00
00229           -3760.00
00230           -3760.00
00231           -3760.00
00232           -3760.00
00233           -3760.00
00234           -3760.00
00235           -3760.00
00236           -3760.00
00237           -3760.00
00238           -3760.00
00239           -3760.00
00240           -3680.00
00241           -3760.00
00242           -3760.00
00243           -3680.00
00244           -3760.00
00245           -3680.00
00246           -3760.00
00247           -3680.00
00248           -3760.00
00249           -3680.00
00250           -3680.00
00251           -3680.00
00252           -3680.00
00253           -3680.00
00254           -3680.00
00255           -3680.00
00256           -3680.00
00257           -3680.00
00258           -3600.00
00259           -3600.00
00260           -3600.00
00261           -3680.00
00262           -3600.00
00263           -3600.00
00264           -3680.00
00265           -3600.00
00266           -3600.00
00267           -3600.00
00268           -3520.00
00269           -3440.00
00270           -3520.00
00271           -3440.00
00272           -3520.00
00273           -3440.00
00274           -3440.00
00275           -3440.00
00276           -3440.00
00277           -3440.00
00278           -3440.00
00279           -3440.00
00280           -3440.00
00281           -3440.00
00282           -3440.00
00283           -3360.00
00284           -3440.00
00285           -3360.00
00286           -3440.00
00287           -3360.00
00288           -3360.00
00289           -3360.00
00290           -3360.00
00291           -3280.00
00292           -3360.00
00293           -3360.00
00294           -3280.00
00295           -3280.00
00296           -3280.00
00297           -3280.00
00298           -3280.00
00299           -3280.00
00300           -3280.00
00301           -3200.00
00302           -3200.00
00303           -3200.00
00304           -3120.00
00305           -3200.00
00306           -3120.00
00307           -3120.00
00308           -3120.00
00309           -3040.00
00310           -3040.00
00311           -3040.00
00312           -3040.00
00313           -3040.00
00314           -3040.00
00315           -3040.00
00316           -3040.00
00317           -2960.00
00318           -3040.00
00319           -2960.00
00320           -2960.00
00321           -2960.00
00322           -2960.00
00323           -2960.00
00324           -2800.00
00325           -2800.00
00326           -2800.00
00327           -2800.00
00328           -2800.00
00329           -2800.00
00330           -2800.00
00331           -2800.00
00332           -2720.00
00333           -2720.00
00334           -2720.00
00335           -2720.00
00336           -2720.00
00337           -2640.00
00338           -2640.00
00339           -2560.00
00340           -2560.00
00341           -2640.00
00342           -2640.00
00343           -2480.00
00344           -2480.00
00345           -2480.00
00346           -2480.00
00347           -2400.00
00348           -2480.00
00349           -2400.00
00350           -2400.00
00351           -2400.00
00352           -2400.00
00353           -2400.00
00354           -2400.00
00355           -2400.00
00356           -2320.00
00357           -2320.00
00358           -2320.00
00359           -2160.00
00360           -2320.00
00361           -2160.00
00362           -2320.00
00363           -2160.00
00364           -2160.00
00365           -2160.00
00366           -2160.00
00367           -2080.00
00368           -2080.00
00369           -2080.00
00370           -2000.00
00371           -2080.00
00372           -2000.00
00373           -2000.00
00374           -2000.00
00375           -2000.00
00376           -1840.00
00377           -1840.00
00378           -1840.00
00379           -1840.00
00380           -1840.00
00381           -1840.00
00382           -1840.00
00383           -1760.00
00384           -1760.00
00385           -1760.00
00386           -1760.00
00387           -1680.00
00388           -1680.00
00389           -1680.00
00390           -1680.00
00391           -1600.00
00392           -1520.00
00393           -1520.00
00394           -1680.00
00395           -1520.00
00396           -1520.00
00397           -1440.00
00398           -1520.00
00399           -1440.00
00400           -1440.00
00401           -1360.00
00402           -1440.00
00403           -1360.00
00404           -1280.00
00405           -1360.00
00406           -1200.00
00407           -1200.00
00408           -1200.00
00409           -1200.00
00410           -1200.00
00411           -1200.00
00412           -1120.00
00413           -1120.00
00414           -1040.00
00415           -1120.00
00416           -1040.00
00417           -1040.00
00418           -1040.00
00419           -1040.00
00420            -960.00
00421            -880.00
00422            -960.00
00423            -880.00
00424            -800.00
00425            -880.00
00426            -880.00
00427            -800.00
00428            -880.00
00429            -800.00
00430            -800.00
00431            -720.00
00432            -720.00
00433            -720.00
00434            -560.00
00435            -720.00
00436            -640.00
00437            -560.00
00438            -560.00
00439            -560.00
00440            -560.00
00441            -480.00
00442            -480.00
00443            -400.00
00444            -480.00
00445            -400.00
00446            -400.00
00447            -320.00
00448            -400.00
00449            -240.00
00450            -240.00
00451            -240.00
00452            -240.00
00453            -240.00
00454            -160.00
00455            -160.00
00456            -160.00
00457             -80.00
00458             -80.00
00459             -80.00
00460             -80.00
00461              80.00
00462              80.00
00463              80.00
00464              80.00
00465             160.00
00466              80.00
00467             160.00
00468             240.00
00469             160.00
00470             160.00
00471             160.00
00472             160.00
00473             320.00
00474             400.00
00475             400.00
00476             320.00
00477             400.00
00478             400.00
00479             480.00
00480             480.00
00481             400.00
00482             480.00
00483             480.00
00484             560.00
00485             560.00
00486             560.00
00487             720.00
00488             720.00
00489             720.00
00490             720.00
00491             720.00
00492             720.00
00493             720.00
00494             800.00
00495             800.00
00496             800.00
00497             800.00
00498             800.00
00499             880.00
00500             880.00
00501             880.00
00502            1040.00
00503             880.00
00504            1040.00
00505            1040.00
00506            1040.00
00507            1040.00
00508            1040.00
00509            1040.00
00510            1120.00
00511            1120.00
00512            1120.00
00513            1200.00
00514            1200.00
00515            1280.00
00516            1360.00
00517            1360.00
00518            1280.00
00519            1360.00
00520            1360.00
00521            1360.00
00522            1440.00
00523            1440.00
00524            1440.00
00525            1440.00
00526            1520.00
00527            1520.00
00528            1520.00
00529            1520.00
00530            1600.00
00531            1680.00
00532            1680.00
00533            1680.00
00534            1680.00
00535            1680.00
00536            1680.00
00537            1680.00
00538            1760.00
00539            1760.00
00540            1840.00
00541            1760.00
00542            1840.00
00543            1840.00
00544            1920.00
00545            1840.00
00546            2000.00
00547            1840.00
00548            2080.00
00549            2000.00
00550            2000.00
00551            2080.00
00552            2000.00
00553            2080.00
00554            2080.00
00555            2160.00
00556            2080.00
00557            2080.00
00558            2160.00
00559            2160.00
00560            2160.00
00561            2160.00
00562            2160.00
00563            2240.00
00564            2320.00
00565            2320.00
00566            2320.00
00567            2400.00
00568            2320.00
00569            2320.00
00570            2400.00
00571            2400.00
00572            2400.00
00573            2400.00
00574            2400.00
00575            2400.00
00576            2480.00
00577            2480.00
00578            2480.00
00579            2640.00
00580            2560.00
00581            2640.00
00582            2640.00
00583            2640.00
00584            2640.00
00585            2720.00
00586            2720.00
00587            2640.00
00588            2720.00
00589            2720.00
00590            2720.00
00591            2720.00
00592            2800.00
00593            2720.00
00594            2720.00
00595            2800.00
00596            2880.00
00597            2880.00
00598            2880.00
00599            2960.00
00600            2960.00
00601            2960.00
00602            2960.00
00603            2960.00
00604            3040.00
00605            3040.00
00606            3040.00
00607            3040.00
00608            3040.00
00609            3040.00
00610            3040.00
00611            3040.00
00612            3120.00
00613            3120.00
00614            3120.00
00615            3120.00
00616            3200.00
00617            3120.00
00618            3120.00
00619            3280.00
00620            3200.00
00621            3200.00
00622            3200.00
00623            3280.00
00624            3200.00
00625            3280.00
00626            3280.00
00627            3280.00
00628            3280.00
00629            3360.00
00630            3360.00
00631            3360.00
00632            3360.00
00633            3360.00
00634            3360.00
00635            3360.00
00636            3360.00
00637            3360.00
00638            3360.00
00639            3360.00
00640            3440.00
00641            3440.00
00642            3440.00
00643            3440.00
00644            3440.00
00645            3440.00
00646            3520.00
00647            3600.00
00648            3600.00
00649            3600.00
00650            3600.00
00651            3600.00
00652            3600.00
00653            3600.00
00654            3600.00
00655            3600.00
00656            3600.00
00657            3600.00
00658            3600.00
00659            3600.00
00660            3600.00
00661            3600.00
00662            3680.00
00663            3680.00
00664            3680.00
00665            3680.00
00666            3680.00
00667            3680.00
00668            3680.00
00669            3680.00
00670            3760.00
00671            3680.00
00672            3760.00
00673            3760.00
00674            3680.00
00675            3680.00
00676            3760.00
00677            3760.00
00678            3760.00
00679            3760.00
00680            3760.00
00681            3760.00
00682            3760.00
00683            3760.00
00684            3760.00
00685            3760.00
00686            3760.00
00687            3840.00
00688            3760.00
00689            3760.00
00690            3760.00
00691            3760.00
00692            3760.00
00693            3840.00
00694            3760.00
00695            3760.00
00696            3840.00
00697            3760.00
00698            3840.00
00699            3760.00
00700            3840.00
00701            3760.00
00702            3920.00
00703            3760.00
00704            3840.00
00705            3760.00
00706            3840.00
00707            3760.00
00708            3920.00
00709            3840.00
00710            3920.00
00711            3840.00
00712            3840.00
00713            3840.00
00714            3760.00
00715            3920.00
00716            3920.00
00717            3840.00
00718            3920.00
00719            3920.00
00720            3920.00
00721            3920.00
00722            3840.00
00723            3760.00
00724            3920.00
00725            3840.00
00726            3920.00
00727            3840.00
00728            3920.00
00729            3920.00
00730            3760.00
00731            3920.00
00732            3840.00
00733            3840.00
00734            3920.00
00735            3920.00
00736            3760.00
00737            3760.00
00738            3840.00
00739            3840.00
00740            3920.00
00741            3840.00
00742            3920.00
00743            3840.00
00744            3760.00
00745            3760.00
00746            3760.00
00747            3760.00
00748            3760.00
00749            3680.00
00750            3680.00
00751            3760.00
00752            3680.00
00753            3760.00
00754            3680.00
00755            3680.00
00756            3760.00
00757            3680.00
00758            3760.00
00759            3680.00
00760            3680.00
00761            3680.00
00762            3680.00
00763            3680.00
00764            3600.00
00765            3600.00
00766            3600.00
00767            3600.00
00768            3600.00
00769            3600.00
00770            3600.00
00771            3600.00
00772            3600.00
00773            3600.00
00774            3600.00
00775            3600.00
00776            3600.00
00777            3600.00
00778            3600.00
00779            3600.00
00780            3600.00
00781            3600.00
00782            3520.00
00783            3600.00
00784            3440.00
00785            3440.00
00786            3440.00
00787            3440.00
00788            3440.00
00789            3440.00
00790            3440.00
00791            3440.00
00792            3440.00
00793            3440.00
00794            3440.00
00795            3360.00
00796            3360.00
00797            3360.00
00798            3360.00
00799            3360.00
00800            3360.00
00801            3360.00
00802            3360.00
00803            3360.00
00804            3280.00
00805            3280.00
00806            3360.00
00807            3280.00
00808            3280.00
00809            3280.00
00810            3280.00
00811            3280.00
00812            3280.00
00813            3200.00
00814            3200.00
00815            3200.00
00816            3040.00
00817            3120.00
00818            3040.00
00819            3120.00
00820            3120.00
00821            3040.00
00822            3040.00
00823            3040.00
00824            2960.00
00825            2960.00
00826            2960.00
00827            2960.00
00828            2960.00
00829            2960.00
00830            2960.00
00831            2960.00
00832            2880.00
00833            2960.00
00834            2800.00
00835            2880.00
00836            2800.00
00837            2800.00
00838            2720.00
00839            2800.00
00840            2720.00
00841            2720.00
00842            2720.00
00843            2720.00
00844            2640.00
00845            2720.00
00846            2640.00
00847            2720.00
00848            2720.00
00849            2640.00
00850            2640.00
00851            2640.00
00852            2560.00
00853            2560.00
00854            2480.00
00855            2480.00
00856            2480.00
00857            2480.00
00858            2480.00
00859            2480.00
00860            2480.00
00861            2400.00
00862            2400.00
00863            2400.00
00864            2400.00
00865            2320.00
00866            2320.00
00867            2320.00
00868            2320.00
00869            2320.00
00870            2320.00
00871            2320.00
00872            2240.00
00873            2160.00
00874            2160.00
00875            2160.00
00876            2080.00
00877            2160.00
00878            2080.00
00879            2080.00
00880            2080.00
00881            2080.00
00882            2000.00
00883            2000.00
00884            2000.00
00885            2000.00
00886            1840.00
00887            1840.00
00888            1840.00
00889            1840.00
00890            1840.00
00891            1760.00
00892            1760.00
00893            1760.00
00894            1680.00
00895            1680.00
00896            1680.00
00897            1680.00
00898            1680.00
00899            1680.00
00900            1680.00
00901            1600.00
00902            1520.00
00903            1520.00
00904            1520.00
00905            1440.00
00906            1440.00
00907            1440.00
00908            1440.00
00909            1440.00
00910            1360.00
00911            1440.00
00912            1360.00
00913            1360.00
00914            1360.00
00915            1280.00
00916            1360.00
00917            1200.00
00918            1200.00
00919            1200.00
00920            1200.00
00921            1200.00
00922            1200.00
00923            1120.00
00924            1120.00
00925            1040.00
00926            1040.00
00927            1040.00
00928            1040.00
00929            1040.00
00930            1040.00
00931            1040.00
00932            1040.00
00933            1040.00
00934             800.00
00935             880.00
00936             880.00
00937             800.00
00938             800.00
00939             800.00
00940             800.00
00941             800.00
00942             720.00
00943             720.00
00944             720.00
00945             560.00
00946             640.00
00947             560.00
00948             560.00
00949             480.00
00950             480.00
00951             480.00
00952             480.00
00953             480.00
00954             480.00
00955             400.00
00956             400.00
00957             320.00
00958             400.00
00959             240.00
00960             320.00
00961             160.00
00962             240.00
00963             240.00
00964             160.00
00965             160.00
00966             160.00
00967              80.00
00968             160.00
00969              80.00
00970              80.00
00971              80.00
00972             -80.00
00973             -80.00
00974             -80.00
00975            -160.00
00976             -80.00
00977             -80.00
00978             -80.00
00979            -240.00
00980            -240.00
00981            -240.00
00982            -240.00
00983            -240.00
00984            -240.00
00985            -240.00
00986            -400.00
00987            -400.00
00988            -400.00
00989            -240.00
00990            -400.00
00991            -480.00
00992            -480.00
00993            -480.00
00994            -480.00
00995            -560.00
00996            -560.00
00997            -560.00
00998            -560.00
00999            -720.00
01000            -720.00
01001            -640.00
01002            -720.00
01003            -720.00
01004            -800.00
01005            -720.00
01006            -800.00
01007            -880.00
01008            -880.00
01009            -880.00
01010            -880.00
01011            -880.00
01012            -960.00
01013            -880.00
01014            -880.00
01015           -1040.00
01016           -1120.00
01017           -1120.00
01018           -1120.00
01019           -1120.00
01020           -1120.00
01021           -1120.00
01022           -1200.00
01023           -1200.00
01024           -1200.00
01025           -1200.00
01026           -1280.00
01027           -1360.00
01028           -1360.00
01029           -1360.00
01030           -1360.00
01031           -1360.00
01032           -1360.00
01033           -1520.00
01034           -1520.00
01035           -1520.00
01036           -1520.00
01037           -1520.00
01038           -1520.00
01039           -1520.00
01040           -1680.00
01041           -1520.00
01042           -1680.00
01043           -1680.00
01044           -1680.00
01045           -1760.00
01046           -1760.00
01047           -1760.00
01048           -1760.00
01049           -1760.00
01050           -1760.00
01051           -1760.00
01052           -1840.00
01053           -1840.00
01054           -1840.00
01055           -1840.00
01056           -1840.00
01057           -1840.00
01058           -1840.00
01059           -1920.00
01060           -2000.00
01061           -2000.00
01062           -2080.00
01063           -2080.00
01064           -2080.00
01065           -2080.00
01066           -2080.00
01067           -2160.00
01068           -2160.00
01069           -2160.00
01070           -2160.00
01071           -2320.00
01072           -2160.00
01073           -2160.00
01074           -2320.00
01075           -2320.00
01076           -2320.00
01077           -2320.00
01078           -2320.00
01079           -2400.00
01080           -2400.00
01081           -2400.00
01082           -2480.00
01083           -2480.00
01084           -2480.00
01085           -2480.00
01086           -2480.00
01087           -2480.00
01088           -2640.00
01089           -2560.00
01090           -2640.00
01091           -2640.00
01092           -2640.00
01093           -2720.00
01094           -2640.00
01095           -2640.00
01096           -2720.00
01097           -2720.00
01098           -2800.00
01099           -2800.00
01100           -2800.00
01101           -2800.00
01102           -2800.00
01103           -2800.00
01104           -2800.00
01105           -2800.00
01106           -2800.00
01107           -2800.00
01108           -2800.00
01109           -2800.00
01110           -2960.00
01111           -2960.00
01112           -2880.00
01113           -3040.00
01114           -2960.00
01115           -2960.00
01116           -3040.00
01117           -2960.00
01118           -3040.00
01119           -3040.00
01120           -3040.00
01121           -3040.00
01122           -3040.00
01123           -3040.00
01124           -3120.00
01125           -3040.00
01126           -3120.00
01127           -3120.00
01128           -3120.00
01129           -3200.00
01130           -3120.00
01131           -3120.00
01132           -3280.00
01133           -3280.00
01134           -3200.00
01135           -3280.00
01136           -3280.00
01137           -3280.00
01138           -3280.00
01139           -3280.00
01140           -3280.00
01141           -3360.00
01142           -3360.00
01143           -3360.00
01144           -3360.00
01145           -3440.00
01146           -3360.00
01147           -3440.00
01148           -3440.00
01149           -3440.00
01150           -3440.00
01151           -3440.00
01152           -3440.00
01153           -3440.00
01154           -3440.00
01155           -3440.00
01156           -3600.00
01157           -3520.00
01158           -3440.00
01159           -3520.00
01160           -3600.00
01161           -3520.00
01162           -3600.00
01163           -3600.00
01164           -3600.00
01165           -3600.00
01166           -3600.00
01167           -3600.00
01168           -3600.00
01169           -3600.00
01170           -3600.00
01171           -3600.00
01172           -3600.00
01173           -3680.00
01174           -3680.00
01175           -3680.00
01176           -3680.00
01177           -3680.00
01178           -3680.00
01179           -3680.00
01180           -3600.00
01181           -3680.00
01182           -3680.00
01183           -3680.00
01184           -3680.00
01185           -3680.00
01186           -3680.00
01187           -3760.00
01188           -3680.00
01189           -3680.00
01190           -3680.00
01191           -3680.00
01192           -3680.00
01193           -3760.00
01194           -3760.00
01195           -3680.00
01196           -3760.00
01197           -3680.00
01198           -3760.00
01199           -3760.00
01200           -3760.00
01201           -3680.00
01202           -3760.00
01203           -3760.00
01204           -3760.00
01205           -3760.00
01206           -3760.00
01207           -3760.00
01208           -3760.00
01209           -3760.00
01210           -3760.00
01211           -3840.00
01212           -3760.00
01213           -3760.00
01214           -3840.00
01215           -3760.00
01216           -3760.00
01217           -3760.00
01218           -3760.00
01219           -3760.00
01220           -3760.00
01221           -3840.00
01222           -3920.00
01223           -3760.00
01224           -3760.00
01225           -3920.00
01226           -3920.00
01227           -3760.00
01228           -3840.00
01229           -3760.00
01230           -3760.00
01231           -3760.00
01232           -3840.00
01233           -3760.00
01234           -3840.00
01235           -3920.00
01236           -3760.00
01237           -3760.00
01238           -3760.00
01239           -3760.00
01240           -3760.00
01241           -3760.00
01242           -3760.00
01243           -3760.00
01244           -3760.00
01245           -3760.00
01246           -3760.00
01247           -3760.00
01248           -3760.00
01249           -3760.00
01250           -3760.00
01251           -3760.00
01252           -3760.00
01253           -3760.00
01254           -3680.00
01255           -3760.00
01256           -3760.00
01257           -3760.00
01258           -3680.00
01259           -3680.00
01260           -3680.00
01261           -3680.00
01262           -3680.00
01263           -3680.00
01264           -3680.00
01265           -3680.00
01266           -3680.00
01267           -3680.00
01268           -3680.00
01269           -3680.00
01270           -3680.00
01271           -3680.00
01272           -3760.00
01273           -3680.00
01274           -3760.00
01275           -3600.00
01276           -3680.00
01277           -3680.00
01278           -3680.00
01279           -3680.00
01280           -3600.00
01281           -3600.00
01282           -3600.00
01283           -3600.00
01284           -3600.00
01285           -3600.00
01286           -3600.00
01287           -3600.00
01288           -3600.00
01289           -3520.00
01290           -3520.00
01291           -3600.00
01292           -3520.00
01293           -3440.00
01294           -3440.00
01295           -3520.00
01296           -3440.00
01297           -3440.00
01298           -3440.00
01299           -3440.00
01300           -3440.00
01301           -3440.00
01302           -3360.00
01303           -3440.00
01304           -3360.00
01305           -3360.00
01306           -3440.00
01307           -3440.00
01308           -3360.00
01309           -3280.00
01310           -3360.00
01311           -3360.00
01312           -3360.00
01313           -3280.00
01314           -3280.00
01315           -3280.00
01316           -3280.00
01317           -3120.00
01318           -3280.00
01319           -3280.00
01320           -3120.00
01321           -3280.00
01322           -3200.00
01323           -3120.00
01324           -3200.00
01325           -3120.00
01326           -3120.00
01327           -3040.00
01328           -3120.00
01329           -3040.00
01330           -3040.00
01331           -3040.00
01332           -3040.00
01333           -3040.00
01334           -3040.00
01335           -2960.00
01336           -3040.00
01337           -2960.00
01338           -2960.00
01339           -2960.00
01340           -2960.00
01341           -2960.00
01342           -2960.00
01343           -2880.00
01344           -2800.00
01345           -2800.00
01346           -2800.00
01347           -2800.00
01348           -2800.00
01349           -2800.00
01350           -2800.00
01351           -2800.00
01352           -2720.00
01353           -2720.00
01354           -2720.00
01355           -2720.00
01356           -2720.00
01357           -2640.00
01358           -2720.00
01359           -2640.00
01360           -2640.00
01361           -2560.00
01362           -2560.00
01363           -2480.00
01364           -2480.00
01365           -2480.00
01366           -2480.00
01367           -2480.00
01368           -2400.00
01369           -2400.00
01370           -2400.00
01371           -2400.00
01372           -2400.00
01373           -2320.00
01374           -2400.00
01375           -2400.00
01376           -2320.00
01377           -2320.00
01378           -2240.00
01379           -2160.00
01380           -2240.00
01381           -2160.00
01382           -2160.00
01383           -2160.00
01384           -2080.00
01385           -2080.00
01386           -2080.00
01387           -2080.00
01388           -2080.00
01389           -2000.00
01390           -2000.00
01391           -2000.00
01392           -2000.00
01393           -2000.00
01394           -1840.00
01395           -1920.00
01396           -1840.00
01397           -1840.00
01398           -1840.00
01399           -1840.00
01400           -1760.00
01401           -1760.00
01402           -1760.00
01403           -1760.00
01404           -1760.00
01405           -1760.00
01406           -1680.00
01407           -1760.00
01408           -1680.00
01409           -1680.00
01410           -1680.00
01411           -1520.00
01412           -1600.00
01413           -1520.00
01414           -1520.00
01415           -1520.00
01416           -1520.00
01417           -1440.00
01418           -1440.00
01419           -1520.00
01420           -1360.00
01421           -1360.00
01422           -1440.00
01423           -1360.00
01424           -1200.00
01425           -1360.00
01426           -1360.00
01427           -1200.00
01428           -1200.00
01429           -1200.00
01430           -1200.00
01431           -1120.00
01432           -1120.00
01433           -1120.00
01434           -1120.00
01435           -1120.00
01436           -1120.00
01437           -1040.00
01438           -1040.00
01439           -1040.00
01440            -880.00
01441            -880.00
01442            -880.00
01443            -880.00
01444            -880.00
01445            -880.00
01446            -800.00
01447            -800.00
01448            -800.00
01449            -720.00
01450            -720.00
01451            -720.00
01452            -640.00
01453            -560.00
01454            -560.00
01455            -560.00
01456            -560.00
01457            -560.00
01458            -480.00
01459            -480.00
01460            -480.00
01461            -480.00
01462            -480.00
01463            -400.00
01464            -400.00
01465            -400.00
01466            -400.00
01467            -400.00
01468            -240.00
01469            -240.00
01470            -240.00
01471            -240.00
01472            -240.00
01473            -240.00
01474            -160.00
01475            -160.00
01476             -80.00
01477            -160.00
01478            -160.00
01479             -80.00
01480             -80.00
01481               0.00
01482             -80.00
01483               0.00
01484              80.00
01485              80.00
01486              80.00
01487              80.00
01488             160.00
01489             160.00
01490              80.00
01491             160.00
01492             160.00
01493             240.00
01494             240.00
01495             320.00
01496             240.00
01497             400.00
01498             400.00
01499             480.00
01500             480.00
01501             480.00
01502             480.00
01503             480.00
01504             560.00
01505             480.00
01506             560.00
01507             640.00
01508             720.00
01509             720.00
01510             720.00
01511             720.00
01512             720.00
01513             800.00
01514             800.00
01515             800.00
01516             800.00
01517             880.00
01518             800.00
01519             880.00
01520             880.00
01521             960.00
01522            1040.00
01523             960.00
01524            1040.00
01525            1040.00
01526            1040.00
01527            1040.00
01528            1120.00
01529            1120.00
01530            1120.00
01531            1120.00
01532            1200.00
01533            1200.00
01534            1120.00
01535            1200.00
01536            1360.00
01537            1360.00
01538            1360.00
01539            1360.00
01540            1360.00
01541            1360.00
01542            1440.00
01543            1440.00
01544            1440.00
01545            1440.00
01546            1440.00
01547            1520.00
01548            1520.00
01549            1520.00
01550            1520.00
01551            1680.00
01552            1600.00
01553            1680.00
01554            1680.00
01555            1680.00
01556            1680.00
01557            1760.00
01558            1760.00
01559            1760.00
01560            1840.00
01561            1840.00
01562            1840.00
01563            1840.00
01564            1840.00
01565            1920.00
01566            2000.00
01567            2000.00
01568            2000.00
01569            2000.00
01570            2080.00
01571            2080.00
01572            2080.00
01573            2080.00
01574            2080.00
01575            2160.00
01576            2160.00
01577            2080.00
01578            2160.00
01579            2160.00
01580            2240.00
01581            2160.00
01582            2320.00
01583            2320.00
01584            2320.00
01585            2320.00
01586            2320.00
01587            2320.00
01588            2400.00
01589            2400.00
01590            2400.00
01591            2400.00
01592            2400.00
01593            2480.00
01594            2480.00
01595            2560.00
01596            2560.00
01597            2640.00
01598            2640.00
01599            2640.00
01600            2640.00
01601            2640.00
01602            2640.00
01603            2640.00
01604            2640.00
01605            2640.00
01606            2720.00
01607            2640.00
01608            2720.00
01609            2720.00
01610            2720.00
01611            2720.00
01612            2720.00
01613            2720.00
01614            2800.00
01615            2800.00
01616            2800.00
01617            2800.00
01618            2960.00
01619            2880.00
01620            2960.00
01621            2880.00
01622            2960.00
01623            2960.00
01624            2960.00
01625            2960.00
01626            2960.00
01627            3040.00
01628            2960.00
01629            3120.00
01630            3040.00
01631            3120.00
01632            3040.00
01633            3120.00
01634            3040.00
01635            3120.00
01636            3120.00
01637            3120.00
01638            3200.00
01639            3200.00
01640            3280.00
01641            3280.00
01642            3280.00
01643            3280.00
01644            3280.00
01645            3280.00
01646            3360.00
01647            3360.00
01648            3360.00
01649            3360.00
01650            3360.00
01651            3360.00
01652            3360.00
01653            3360.00
01654            3360.00
01655            3360.00
01656            3360.00
01657            3440.00
01658            3360.00
01659            3440.00
01660            3440.00
01661            3440.00
01662            3440.00
01663            3440.00
01664            3440.00
01665            3440.00
01666            3440.00
01667            3600.00
01668            3440.00
01669            3600.00
01670            3440.00
01671            3440.00
01672            3600.00
01673            3440.00
01674            3600.00
01675            3520.00
01676            3600.00
01677            3600.00
01678            3600.00
01679            3600.00
01680            3600.00
01681            3600.00
01682            3600.00
01683            3600.00
01684            3680.00
01685            3600.00
01686            3680.00
01687            3600.00
01688            3680.00
01689            3680.00
01690            3680.00
01691            3680.00
01692            3680.00
01693            3680.00
01694            3680.00
01695            3760.00
01696            3680.00
01697            3760.00
01698            3680.00
01699            3760.00
01700            3760.00
01701            3680.00
01702            3760.00
01703            3760.00
01704            3760.00
01705            3760.00
01706            3760.00
01707            3760.00
01708            3760.00
01709            3760.00
01710            3920.00
01711            3760.00
01712            3760.00
01713            3760.00
01714            3920.00
01715            3760.00
01716            3840.00
01717            3760.00
01718            3840.00
01719            3920.00
01720            3760.00
01721            3920.00
01722            3920.00
01723            3840.00
01724            3920.00
01725            3840.00
01726            3920.00
01727            3840.00
01728            3920.00
01729            3760.00
01730            3920.00
01731            3840.00
01732            3840.00
01733            3840.00
01734            3920.00
01735            3760.00
01736            3920.00
01737            3760.00
01738            3920.00
01739            3840.00
01740            3920.00
01741            3840.00
01742            3840.00
01743            3920.00
01744            3840.00
01745            3760.00
01746            3920.00
01747            3920.00
01748            3760.00
01749            3920.00
01750            3840.00
01751            3760.00
01752            3760.00
01753            3840.00
01754            3760.00
01755            3760.00
01756            3760.00
01757            3920.00
01758            3760.00
01759            3840.00
01760            3920.00
01761            3760.00
01762            3760.00
01763            3760.00
01764            3760.00
01765            3760.00
01766            3760.00
01767            3760.00
01768            3760.00
01769            3760.00
01770            3760.00
01771            3760.00
01772            3760.00
01773            3760.00
01774            3680.00
01775            3760.00
01776            3760.00
01777            3680.00
01778            3680.00
01779            3760.00
01780            3760.00
01781            3680.00
01782            3680.00
01783            3760.00
01784            3600.00
01785            3680.00
01786            3680.00
01787            3680.00
01788            3680.00
01789            3600.00
01790            3600.00
01791            3600.00
01792            3600.00
01793            3600.00
01794            3600.00
01795            3600.00
01796            3600.00
01797            3600.00
01798            3600.00
01799            3520.00
01800            3600.00
01801            3440.00
01802            3600.00
01803            3440.00
01804            3440.00
01805            3520.00
01806            3440.00
01807            3440.00
01808            3440.00
01809            3440.00
01810            3440.00
01811            3360.00
01812            3360.00
01813            3440.00
01814            3360.00
01815            3360.00
01816            3360.00
01817            3360.00
01818            3360.00
01819            3280.00
01820            3280.00
01821            3360.00
01822            3360.00
01823            3360.00
01824            3360.00
01825            3280.00
01826            3280.00
01827            3280.00
01828            3280.00
01829            3280.00
01830            3200.00
01831            3280.00
01832            3280.00
01833            3200.00
01834            3200.00
01835            3200.00
01836            3120.00
01837            3120.00
01838            3040.00
01839            3040.00
01840            3120.00
01841            3120.00
01842            3040.00
01843            3040.00
01844            3040.00
01845            2960.00
01846            3040.00
01847            3040.00
01848            2960.00
01849            2960.00
01850            2960.00
01851            2960.00
01852            2960.00
01853            2880.00
01854            2800.00
01855            2800.00
01856            2800.00
01857            2800.00
01858            2800.00
01859            2720.00
01860            2720.00
01861            2720.00
01862            2720.00
01863            2720.00
01864            2640.00
01865            2720.00
01866            2640.00
01867            2640.00
01868            2640.00
01869            2640.00
01870            2560.00
01871            2640.00
01872            2640.00
01873            2640.00
01874            2480.00
01875            2480.00
01876            2480.00
01877            2400.00
01878            2400.00
01879            2480.00
01880            2400.00
01881            2400.00
01882            2400.00
01883            2320.00
01884            2400.00
01885            2320.00
01886            2320.00
01887            2320.00
01888            2320.00
01889            2320.00
01890            2240.00
01891            2160.00
01892            2160.00
01893            2080.00
01894            2160.00
01895            2080.00
01896            2160.00
01897            2080.00
01898            2080.00
01899            2080.00
01900            2080.00
01901            2080.00
01902            2000.00
01903            2000.00
01904            2000.00
01905            2000.00
01906            1920.00
01907            1840.00
01908            1840.00
01909            1840.00
01910            1840.00
01911            1840.00
01912            1760.00
01913            1760.00
01914            1760.00
01915            1680.00
01916            1680.00
01917            1680.00
01918            1680.00
01919            1680.00
01920            1680.00
01921            1680.00
01922            1520.00
01923            1600.00
01924            1440.00
01925            1520.00
01926            1440.00
01927            1440.00
01928            1440.00
01929            1360.00
01930            1440.00
01931            1440.00
01932            1360.00
01933            1360.00
01934            1360.00
01935            1200.00
01936            1280.00
01937            1200.00
01938            1200.00
01939            1200.00
01940            1120.00
01941            1120.00
01942            1120.00
01943            1040.00
01944            1040.00
01945            1040.00
01946            1040.00
01947            1040.00
01948            1040.00
01949            1040.00
01950             960.00
01951             880.00
01952             960.00
01953             800.00
01954             880.00
01955             880.00
01956             800.00
01957             800.00
01958             800.00
01959             800.00
01960             720.00
01961             720.00
01962             720.00
01963             720.00
01964             720.00
01965             640.00
01966             560.00
01967             560.00
01968             560.00
01969             480.00
01970             480.00
01971             480.00
01972             400.00
01973             480.00
01974             400.00
01975             400.00
01976             400.00
01977             400.00
01978             320.00
01979             400.00
01980             240.00
01981             240.00
01982             240.00
01983             160.00
01984             160.00
01985             160.00
01986             160.00
01987              80.00
01988              80.00
01989              80.00
01990              80.00
01991             -80.00
01992             -80.00
01993             -80.00
01994             -80.00
01995            -160.00
01996            -160.00
01997            -160.00
01998            -160.00
01999            -240.00
02000            -240.00
02001            -240.00
02002            -160.00
02003            -240.00
02004            -240.00
02005            -400.00
02006            -400.00
02007            -400.00
02008            -480.00
02009            -400.00
02010            -480.00
02011            -480.00
02012            -480.00
02013            -480.00
02014            -560.00
02015            -560.00
02016            -720.00
02017            -640.00
02018            -640.00
02019            -720.00
02020            -720.00
02021            -800.00
02022            -800.00
02023            -800.00
02024            -800.00
02025            -800.00
02026            -880.00
02027            -880.00
02028            -880.00
02029            -880.00
02030            -880.00
02031            -880.00
02032            -960.00
02033           -1040.00
02034            -880.00
02035           -1040.00
02036           -1120.00
02037           -1120.00
02038           -1040.00
02039           -1120.00
02040           -1120.00
02041           -1120.00
02042           -1200.00
02043           -1200.00
02044           -1200.00
02045           -1200.00
02046           -1280.00
02047           -1360.00
02048           -1360.00
02049           -1360.00
02050           -1360.00
02051           -1440.00
02052           -1360.00
02053           -1440.00
02054           -1440.00
02055           -1440.00
02056           -1440.00
02057           -1520.00
02058           -1520.00
02059           -1600.00
02060           -1520.00
02061           -1680.00
02062           -1600.00
02063           -1680.00
02064           -1760.00
02065           -1760.00
02066           -1760.00
02067           -1760.00
02068           -1760.00
02069           -1760.00
02070           -1840.00
02071           -1840.00
02072           -1840.00
02073           -1840.00
02074           -1840.00
02075           -1840.00
02076           -2000.00
02077           -2000.00
02078           -2000.00
02079           -2000.00
02080           -2000.00
02081           -2080.00
02082           -2080.00
02083           -2080.00
02084           -2080.00
02085           -2080.00
02086           -2080.00
02087           -2160.00
02088           -2160.00
02089           -2160.00
02090           -2240.00
02091           -2320.00
02092           -2320.00
02093           -2160.00
02094           -2320.00
02095           -2320.00
02096           -2320.00
02097           -2320.00
02098           -2400.00
02099           -2400.00
02100           -2400.00
02101           -2400.00
02102           -2480.00
02103           -2400.00
02104           -2480.00
02105           -2480.00
02106           -2480.00
02107           -2480.00
02108           -2480.00
02109           -2480.00
02110           -2480.00
02111           -2640.00
02112           -2640.00
02113           -2560.00
02114           -2640.00
02115           -2720.00
02116           -2720.00
02117           -2640.00
02118           -2720.00
02119           -2800.00
02120           -2720.00
02121           -2800.00
02122           -2800.00
02123           -2800.00
02124           -2800.00
02125           -2800.00
02126           -2800.00
02127           -2800.00
02128           -2960.00
02129           -2800.00
02130           -2960.00
02131           -2960.00
02132           -2960.00
02133           -2960.00
02134           -3040.00
02135           -2960.00
02136           -3040.00
02137           -3040.00
02138           -3040.00
02139           -3040.00
02140           -3120.00
02141           -3040.00
02142           -3040.00
02143           -3040.00
02144           -3120.00
02145           -3120.00
02146           -3120.00
02147           -3120.00
02148           -3200.00
02149           -3120.00
02150           -3280.00
02151           -3120.00
02152           -3280.00
02153           -3280.00
02154           -3280.00
02155           -3280.00
02156           -3280.00
02157           -3280.00
02158           -3280.00
02159           -3360.00
02160           -3360.00
02161           -3360.00
02162           -3360.00
02163           -3360.00
02164           -3440.00
02165           -3360.00
02166           -3360.00
02167           -3440.00
02168           -3360.00
02169           -3360.00
02170           -3440.00
02171           -3440.00
02172           -3440.00
02173           -3440.00
02174           -3440.00
02175           -3440.00
02176           -3520.00
02177           -3440.00
02178           -3440.00
02179           -3440.00
02180           -3440.00
02181           -3600.00
02182           -3520.00
02183           -3600.00
02184           -3600.00
02185           -3600.00
02186           -3600.00
02187           -3600.00
02188           -3680.00
02189           -3680.00
02190           -3680.00
02191           -3680.00
02192           -3680.00
02193           -3680.00
02194           -3680.00
02195           -3680.00
02196           -3680.00
02197           -3680.00
02198           -3680.00
02199           -3680.00
02200           -3680.00
02201           -3680.00
02202           -3680.00
02203           -3680.00
02204           -3680.00
02205           -3760.00
02206           -3760.00
02207           -3680.00
02208           -3760.00
02209           -3760.00
02210           -3680.00
02211           -3760.00
02212           -3760.00
02213           -3760.00
02214           -3760.00
02215           -3760.00
02216           -3680.00
02217           -3760.00
02218           -3760.00
02219           -3840.00
02220           -3760.00
02221           -3760.00
02222           -3680.00
02223           -3760.00
02224           -3680.00
02225           -3760.00
02226           -3760.00
02227           -3760.00
02228           -3760.00
02229           -3760.00
02230           -3760.00
02231           -3760.00
02232           -3760.00
02233           -3760.00
02234           -3760.00
02235           -3920.00
02236           -3760.00
02237           -3840.00
02238           -3760.00
02239           -3760.00
02240           -3760.00
02241           -3840.00
02242           -3760.00
02243           -3760.00
02244           -3760.00
02245           -3840.00
02246           -3760.00
02247           -3760.00
02248           -3760.00
02249           -3760.00
02250           -3760.00
02251           -3920.00
02252           -3840.00
02253           -3920.00
02254           -3760.00
02255           -3920.00
02256           -3920.00
02257           -3760.00
02258           -3840.00
02259           -3760.00
02260           -3760.00
02261           -3760.00
02262           -3760.00
02263           -3920.00
02264           -3760.00
02265           -3840.00
02266           -3760.00
02267           -3840.00
02268           -3760.00
02269           -3760.00
02270           -3760.00
02271           -3760.00
02272           -3760.00
02273           -3760.00
02274           -3760.00
02275           -3760.00
02276           -3760.00
02277           -3760.00
02278           -3760.00
02279           -3680.00
02280           -3760.00
02281           -3680.00
02282           -3680.00
02283           -3680.00
02284           -3680.00
02285           -3680.00
02286           -3680.00
02287           -3680.00
02288           -3680.00
02289           -3680.00
02290           -3680.00
02291           -3680.00
02292           -3680.00
02293           -3600.00
02294           -3680.00
02295           -3600.00
02296           -3680.00
02297           -3680.00
02298           -3600.00
02299           -3600.00
02300           -3600.00
02301           -3600.00
02302           -3600.00
02303           -3600.00
02304           -3600.00
02305           -3520.00
02306           -3440.00
02307           -3520.00
02308           -3520.00
02309           -3600.00
02310           -3520.00
02311           -3440.00
02312           -3440.00
02313           -3520.00
02314           -3440.00
02315           -3440.00
02316           -3440.00
02317           -3440.00
02318           -3440.00
02319           -3440.00
02320           -3440.00
02321           -3440.00
02322           -3440.00
02323           -3360.00
02324           -3440.00
02325           -3360.00
02326           -3440.00
02327           -3360.00
02328           -3360.00
02329           -3360.00
02330           -3360.00
02331           -3360.00
02332           -3280.00
02333           -3360.00
02334           -3280.00
02335           -3360.00
02336           -3360.00
02337           -3280.00
02338           -3280.00
02339           -3200.00
02340           -3280.00
02341           -3200.00
02342           -3120.00
02343           -3280.00
02344           -3120.00
02345           -3120.00
02346           -3120.00
02347           -3040.00
02348           -3120.00
02349           -3040.00
02350           -3040.00
02351           -3040.00
02352           -3040.00
02353           -3040.00
02354           -3040.00
02355           -2960.00
02356           -2960.00
02357           -2960.00
02358           -2960.00
02359           -2960.00
02360           -2960.00
02361           -2960.00
02362           -2800.00
02363           -2880.00
02364           -2800.00
02365           -2800.00
02366           -2800.00
02367           -2800.00
02368           -2800.00
02369           -2800.00
02370           -2720.00
02371           -2720.00
02372           -2720.00
02373           -2720.00
02374           -2720.00
02375           -2640.00
02376           -2640.00
02377           -2640.00
02378           -2640.00
02379           -2640.00
02380           -2560.00
02381           -2640.00
02382           -2480.00
02383           -2480.00
02384           -2480.00
02385           -2480.00
02386           -2480.00
02387           -2480.00
02388           -2480.00
02389           -2400.00
02390           -2480.00
02391           -2400.00
02392           -2400.00
02393           -2400.00
02394           -2320.00
02395           -2320.00
02396           -2400.00
02397           -2320.00
02398           -2320.00
02399           -2160.00
02400           -2160.00
02401           -2160.00
02402           -2240.00
02403           -2160.00
02404           -2160.00
02405           -2080.00
02406           -2160.00
02407           -2080.00
02408           -2080.00
02409           -2000.00
02410           -2080.00
02411           -2000.00
02412           -1920.00
02413           -1840.00
02414           -2000.00
02415           -2000.00
02416           -1840.00
02417           -1840.00
02418           -1840.00
02419           -1840.00
02420           -1760.00
02421           -1760.00
02422           -1760.00
02423           -1760.00
02424           -1760.00
02425           -1680.00
02426           -1760.00
02427           -1680.00
02428           -1680.00
02429           -1680.00
02430           -1680.00
02431           -1520.00
02432           -1520.00
02433           -1520.00
02434           -1520.00
02435           -1520.00
02436           -1520.00
02437           -1440.00
02438           -1440.00
02439           -1440.00
02440           -1360.00
02441           -1360.00
02442           -1360.00
02443           -1360.00
02444           -1360.00
02445           -1360.00
02446           -1280.00
02447           -1200.00
02448           -1200.00
02449           -1200.00
02450           -1200.00
02451           -1200.00
02452           -1120.00
02453           -1120.00
02454           -1200.00
02455           -1040.00
02456           -1120.00
02457           -1040.00
02458           -1120.00
02459           -1040.00
02460            -880.00
02461            -960.00
02462            -880.00
02463            -880.00
02464            -880.00
02465            -880.00
02466            -800.00
02467            -800.00
02468            -800.00
02469            -800.00
02470            -800.00
02471            -720.00
02472            -720.00
02473            -720.00
02474            -720.00
02475            -480.00
02476            -560.00
02477            -560.00
02478            -480.00
02479            -480.00
02480            -480.00
02481            -480.00
02482            -480.00
02483            -400.00
02484            -400.00
02485            -240.00
02486            -240.00
02487            -320.00
02488            -240.00
02489            -240.00
02490            -240.00
02491            -240.00
02492            -240.00
02493            -160.00
02494            -160.00
02495            -160.00
02496             -80.00
02497            -160.00
02498               0.00
02499             -80.00
02500               0.00
02501              80.00
02502              80.00
02503              80.00
02504              80.00
02505              80.00
02506             160.00
02507             160.00
02508             160.00
02509             160.00
02510             160.00
02511             160.00
02512             240.00
02513             320.00
02514             400.00
02515             240.00
02516             400.00
02517             400.00
02518             400.00
02519             400.00
02520             400.00
02521             400.00
02522             480.00
02523             560.00
02524             480.00
02525             560.00
02526             560.00
02527             720.00
02528             720.00
02529             560.00
02530             720.00
02531             720.00
02532             800.00
02533             720.00
02534             800.00
02535             800.00
02536             800.00
02537             800.00
02538             800.00
02539             880.00
02540             880.00
02541            1040.00
02542            1040.00
02543             960.00
02544            1040.00
02545            1040.00
02546            1040.00
02547            1120.00
02548            1120.00
02549            1120.00
02550            1120.00
02551            1200.00
02552            1200.00
02553            1200.00
02554            1280.00
02555            1360.00
02556            1360.00
02557            1360.00
02558            1360.00
02559            1360.00
02560            1360.00
02561            1440.00
02562            1440.00
02563            1440.00
02564            1440.00
02565            1520.00
02566            1520.00
02567            1520.00
02568            1520.00
02569            1520.00
02570            1600.00
02571            1680.00
02572            1680.00
02573            1680.00
02574            1680.00
02575            1680.00
02576            1680.00
02577            1760.00
02578            1760.00
02579            1680.00
02580            1760.00
02581            1840.00
02582            1840.00
02583            1840.00
02584            1840.00
02585            1920.00
02586            1840.00
02587            2000.00
02588            2000.00
02589            2000.00
02590            2000.00
02591            2080.00
02592            2080.00
02593            2080.00
02594            2080.00
02595            2080.00
02596            2080.00
02597            2160.00
02598            2160.00
02599            2160.00
02600            2240.00
02601            2240.00
02602            2320.00
02603            2320.00
02604            2320.00
02605            2320.00
02606            2320.00
02607            2400.00
02608            2400.00
02609            2400.00
02610            2400.00
02611            2400.00
02612            2400.00
02613            2480.00
02614            2480.00
02615            2480.00
02616            2480.00
02617            2560.00
02618            2640.00
02619            2640.00
02620            2640.00
02621            2640.00
02622            2640.00
02623            2640.00
02624            2640.00
02625            2720.00
02626            2720.00
02627            2720.00
02628            2800.00
02629            2720.00
02630            2800.00
02631            2800.00
02632            2800.00
02633            2800.00
02634            2800.00
02635            2800.00
02636            2800.00
02637            2880.00
02638            2800.00
02639            2800.00
02640            2960.00
02641            2960.00
02642            2960.00
02643            2960.00
02644            2960.00
02645            3040.00
02646            3040.00
02647            3040.00
02648            3040.00
02649            3040.00
02650            3040.00
02651            3040.00
02652            3040.00
02653            3120.00
02654            3120.00
02655            3120.00
02656            3120.00
02657            3120.00
02658            3200.00
02659            3280.00
02660            3120.00
02661            3280.00
02662            3280.00
02663            3280.00
02664            3280.00
02665            3280.00
02666            3280.00
02667            3280.00
02668            3360.00
02669            3280.00
02670            3360.00
02671            3360.00
02672            3360.00
02673            3360.00
02674            3440.00
02675            3360.00
02676            3360.00
02677            3360.00
02678            3440.00
02679            3440.00
02680            3440.00
02681            3440.00
02682            3440.00
02683            3520.00
02684            3440.00
02685            3440.00
02686            3600.00
02687            3600.00
02688            3600.00
02689            3520.00
02690            3600.00
02691            3600.00
02692            3600.00
02693            3600.00
02694            3600.00
02695            3600.00
02696            3600.00
02697            3600.00
02698            3600.00
02699            3600.00
02700            3600.00
02701            3600.00
02702            3600.00
02703            3680.00
02704            3600.00
02705            3680.00
02706            3680.00
02707            3600.00
02708            3600.00
02709            3680.00
02710            3680.00
02711            3760.00
02712            3680.00
02713            3680.00
02714            3680.00
02715            3680.00
02716            3680.00
02717            3760.00
02718            3760.00
02719            3680.00
02720            3760.00
02721            3760.00
02722            3760.00
02723            3760.00
02724            3760.00
02725            3760.00
02726            3760.00
02727            3760.00
02728            3760.00
02729            3760.00
02730            3680.00
02731            3760.00
02732            3760.00
02733            3760.00
02734            3760.00
02735            3920.00
02736            3920.00
02737            3760.00
02738            3760.00
02739            3760.00
02740            3760.00
02741            3920.00
02742            3760.00
02743            3920.00
02744            3840.00
02745            3920.00
02746            3920.00
02747            3920.00
02748            3920.00
02749            3840.00
02750            3920.00
02751            3920.00
02752            3840.00
02753            3760.00
02754            3920.00
02755            3920.00
02756            3840.00
02757            3840.00
02758            3920.00
02759            3760.00
02760            3920.00
02761            3920.00
02762            3920.00
02763            3840.00
02764            3920.00
02765            3920.00
02766            3920.00
02767            3840.00
02768            3840.00
02769            3760.00
02770            3920.00
02771            3760.00
02772            3760.00
02773            3840.00
02774            3760.00
02775            3840.00
02776            3760.00
02777            3760.00
02778            3760.00
02779            3760.00
02780            3760.00
02781            3760.00
02782            3760.00
02783            3760.00
02784            3760.00
02785            3760.00
02786            3760.00
02787            3760.00
02788            3760.00
02789            3680.00
02790            3760.00
02791            3680.00
02792            3760.00
02793            3680.00
02794            3680.00
02795            3760.00
02796            3680.00
02797            3680.00
02798            3680.00
02799            3600.00
02800            3680.00
02801            3680.00
02802            3600.00
02803            3680.00
02804            3680.00
02805            3680.00
02806            3600.00
02807            3600.00
02808            3680.00
02809            3600.00
02810            3600.00
02811            3600.00
02812            3680.00
02813            3600.00
02814            3600.00
02815            3600.00
02816            3680.00
02817            3600.00
02818            3600.00
02819            3600.00
02820            3600.00
02821            3600.00
02822            3600.00
02823            3520.00
02824            3440.00
02825            3440.00
02826            3440.00
02827            3440.00
02828            3440.00
02829            3440.00
02830            3440.00
02831            3440.00
02832            3360.00
02833            3360.00
02834            3360.00
02835            3440.00
02836            3360.00
02837            3360.00
02838            3360.00
02839            3280.00
02840            3280.00
02841            3360.00
02842            3280.00
02843            3280.00
02844            3360.00
02845            3280.00
02846            3200.00
02847            3280.00
02848            3200.00
02849            3280.00
02850            3120.00
02851            3120.00
02852            3120.00
02853            3120.00
02854            3200.00
02855            3120.00
02856            3120.00
02857            3120.00
02858            3040.00
02859            3040.00
02860            3120.00
02861            3040.00
02862            2960.00
02863            3040.00
02864            3040.00
02865            3040.00
02866            3040.00
02867            2960.00
02868            2960.00
02869            2960.00
02870            2960.00
02871            2800.00
02872            2880.00
02873            2880.00
02874            2800.00
02875            2800.00
02876            2800.00
02877            2800.00
02878            2720.00
02879            2800.00
02880            2720.00
02881            2720.00
02882            2720.00
02883            2640.00
02884            2720.00
02885            2720.00
02886            2640.00
02887            2720.00
02888            2720.00
02889            2640.00
02890            2640.00
02891            2640.00
02892            2640.00
02893            2480.00
02894            2480.00
02895            2560.00
02896            2480.00
02897            2400.00
02898            2480.00
02899            2400.00
02900            2400.00
02901            2320.00
02902            2400.00
02903            2320.00
02904            2320.00
02905            2320.00
02906            2320.00
02907            2320.00
02908            2320.00
02909            2320.00
02910            2320.00
02911            2160.00
02912            2160.00
02913            2160.00
02914            2080.00
02915            2160.00
02916            2080.00
02917            2080.00
02918            2080.00
02919            2080.00
02920            2000.00
02921            2000.00
02922            2000.00
02923            1920.00
02924            2000.00
02925            1920.00
02926            1840.00
02927            1840.00
02928            1840.00
02929            1840.00
02930            1840.00
02931            1760.00
02932            1760.00
02933            1760.00
02934            1760.00
02935            1680.00
02936            1680.00
02937            1680.00
02938            1680.00
02939            1680.00
02940            1600.00
02941            1520.00
02942            1520.00
02943            1520.00
02944            1440.00
02945            1520.00
02946            1440.00
02947            1440.00
02948            1440.00
02949            1440.00
02950            1440.00
02951            1440.00
02952            1360.00
02953            1440.00
02954            1280.00
02955            1360.00
02956            1200.00
02957            1200.00
02958            1200.00
02959            1280.00
02960            1120.00
02961            1200.00
02962            1120.00
02963            1120.00
02964            1120.00
02965            1040.00
02966            1040.00
02967            1040.00
02968            1040.00
02969             960.00
02970             960.00
02971             880.00
02972             880.00
02973             880.00
02974             800.00
02975             800.00
02976             800.00
02977             800.00
02978             800.00
02979             800.00
02980             720.00
02981             720.00
02982             720.00
02983             720.00
02984             720.00
02985             560.00
02986             560.00
02987             560.00
02988             560.00
02989             480.00
02990             480.00
02991             480.00
02992             480.00
02993             400.00
02994             400.00
02995             400.00
02996             400.00
02997             400.00
02998             240.00
02999             320.00
03000             240.00
03001             240.00
03002             160.00
03003             160.00
03004             160.00
03005             160.00
03006             160.00
03007             160.00
03008              80.00
03009              80.00
03010              80.00
03011              80.00
03012               0.00
03013               0.00
03014             -80.00
03015             -80.00
03016             -80.00
03017             -80.00
03018            -160.00
03019            -160.00
03020            -240.00
03021            -240.00
03022            -160.00
03023            -240.00
03024            -240.00
03025            -400.00
03026            -400.00
03027            -400.00
03028            -240.00
03029            -400.00
03030            -400.00
03031            -480.00
03032            -480.00
03033            -480.00
03034            -560.00
03035            -560.00
03036            -560.00
03037            -640.00
03038            -640.00
03039            -720.00
03040            -720.00
03041            -720.00
03042            -720.00
03043            -800.00
03044            -720.00
03045            -880.00
03046            -880.00
03047            -880.00
03048            -800.00
03049            -880.00
03050            -960.00
03051            -880.00
03052           -1040.00
03053            -880.00
03054            -960.00
03055           -1120.00
03056           -1040.00
03057           -1120.00
03058           -1120.00
03059           -1120.00
03060           -1120.00
03061           -1200.00
03062           -1200.00
03063           -1200.00
03064           -1200.00
03065           -1200.00
03066           -1200.00
03067           -1280.00
03068           -1360.00
03069           -1360.00
03070           -1440.00
03071           -1360.00
03072           -1440.00
03073           -1440.00
03074           -1440.00
03075           -1520.00
03076           -1440.00
03077           -1520.00
03078           -1520.00
03079           -1520.00
03080           -1520.00
03081           -1520.00
03082           -1680.00
03083           -1680.00
03084           -1680.00
03085           -1760.00
03086           -1680.00
03087           -1760.00
03088           -1760.00
03089           -1760.00
03090           -1760.00
03091           -1760.00
03092           -1840.00
03093           -1840.00
03094           -1840.00
03095           -1840.00
03096           -2000.00
03097           -2000.00
03098           -2000.00
03099           -2000.00
03100           -2080.00
03101           -2080.00
03102           -2000.00
03103           -2080.00
03104           -2080.00
03105           -2160.00
03106           -2080.00
03107           -2160.00
03108           -2160.00
03109           -2160.00
03110           -2240.00
03111           -2240.00
03112           -2320.00
03113           -2240.00
03114           -2320.00
03115           -2320.00
03116           -2400.00
03117           -2400.00
03118           -2400.00
03119           -2400.00
03120           -2480.00
03121           -2400.00
03122           -2480.00
03123           -2480.00
03124           -2480.00
03125           -2480.00
03126           -2480.00
03127           -2480.00
03128           -2560.00
03129           -2480.00
03130           -2640.00
03131           -2640.00
03132           -2640.00
03133           -2640.00
03134           -2720.00
03135           -2640.00
03136           -2720.00
03137           -2720.00
03138           -2720.00
03139           -2720.00
03140           -2720.00
03141           -2800.00
03142           -2800.00
03143           -2800.00
03144           -2800.00
03145           -2800.00
03146           -2800.00
03147           -2800.00
03148           -2800.00
03149           -2880.00
03150           -2960.00
03151           -2960.00
03152           -2960.00
03153           -2960.00
03154           -2960.00
03155           -3040.00
03156           -2960.00
03157           -3040.00
03158           -3040.00
03159           -3040.00
03160           -3040.00
03161           -3040.00
03162           -3040.00
03163           -3120.00
03164           -3120.00
03165           -3120.00
03166           -3200.00
03167           -3200.00
03168           -3200.00
03169           -3200.00
03170           -3120.00
03171           -3280.00
03172           -3280.00
03173           -3280.00
03174           -3280.00
03175           -3280.00
03176           -3360.00
03177           -3360.00
03178           -3360.00
03179           -3360.00
03180           -3360.00
03181           -3360.00
03182           -3360.00
03183           -3360.00
03184           -3440.00
03185           -3360.00
03186           -3360.00
03187           -3440.00
03188           -3440.00
03189           -3440.00
03190           -3440.00
03191           -3440.00
03192           -3440.00
03193           -3440.00
03194           -3440.00
03195           -3440.00
03196           -3440.00
03197           -3440.00
03198           -3520.00
03199           -3440.00
03200           -3520.00
03201           -3520.00
03202           -3440.00
03203           -3600.00
03204           -3600.00
03205           -3520.00
03206           -3600.00
03207           -3600.00
03208           -3520.00
03209           -3600.00
03210           -3600.00
03211           -3600.00
03212           -3600.00
03213           -3600.00
03214           -3600.00
03215           -3680.00
03216           -3680.00
03217           -3680.00
03218           -3680.00
03219           -3600.00
03220           -3680.00
03221           -3600.00
03222           -3680.00
03223           -3680.00
03224           -3680.00
03225           -3680.00
03226           -3680.00
03227           -3680.00
03228           -3680.00
03229           -3760.00
03230           -3760.00
03231           -3760.00
03232           -3760.00
03233           -3760.00
03234           -3760.00
03235           -3760.00
03236           -3760.00
03237           -3760.00
03238           -3760.00
03239           -3760.00
03240           -3760.00
03241           -3760.00
03242           -3760.00
03243           -3760.00
03244           -3760.00
03245           -3840.00
03246           -3760.00
03247           -3920.00
03248           -3760.00
03249           -3760.00
03250           -3760.00
03251           -3760.00
03252           -3760.00
03253           -3760.00
03254           -3760.00
03255           -3760.00
03256           -3760.00
03257           -3760.00
03258           -3760.00
03259           -3920.00
03260           -3840.00
03261           -3760.00
03262           -3760.00
03263           -3920.00
03264           -3920.00
03265           -3760.00
03266           -3760.00
03267           -3840.00
03268           -3840.00
03269           -3760.00
03270           -3840.00
03271           -3760.00
03272           -3760.00
03273           -3760.00
03274           -3760.00
03275           -3760.00
03276           -3760.00
03277           -3760.00
03278           -3760.00
03279           -3760.00
03280           -3760.00
03281           -3760.00
03282           -3760.00
03283           -3760.00
03284           -3760.00
03285           -3760.00
03286           -3760.00
03287           -3760.00
03288           -3760.00
03289           -3760.00
03290           -3760.00
03291           -3760.00
03292           -3760.00
03293           -3760.00
03294           -3760.00
03295           -3760.00
03296           -3760.00
03297           -3760.00
03298           -3760.00
03299           -3760.00
03300           -3760.00
03301           -3760.00
03302           -3760.00
03303           -3680.00
03304           -3680.00
03305           -3680.00
03306           -3760.00
03307           -3760.00
03308           -3680.00
03309           -3680.00
03310           -3680.00
03311           -3680.00
03312           -3600.00
03313           -3680.00
03314           -3680.00
03315           -3680.00
03316           -3680.00
03317           -3680.00
03318           -3680.00
03319           -3680.00
03320           -3520.00
03321           -3680.00
03322           -3600.00
03323           -3600.00
03324           -3600.00
03325           -3600.00
03326           -3520.00
03327           -3600.00
03328           -3600.00
03329           -3600.00
03330           -3600.00
03331           -3440.00
03332           -3440.00
03333           -3520.00
03334           -3440.00
03335           -3440.00
03336           -3440.00
03337           -3440.00
03338           -3360.00
03339           -3440.00
03340           -3440.00
03341           -3360.00
03342           -3360.00
03343           -3360.00
03344           -3360.00
03345           -3360.00
03346           -3360.00
03347           -3360.00
03348           -3360.00
03349           -3360.00
03350           -3280.00
03351           -3360.00
03352           -3360.00
03353           -3360.00
03354           -3280.00
03355           -3280.00
03356           -3280.00
03357           -3280.00
03358           -3200.00
03359           -3280.00
03360           -3280.00
03361           -3200.00
03362           -3120.00
03363           -3120.00
03364           -3120.00
03365           -3120.00
03366           -3120.00
03367           -3120.00
03368           -3040.00
03369           -3120.00
03370           -3040.00
03371           -3040.00
03372           -3040.00
03373           -3040.00
03374           -2960.00
03375           -3040.00
03376           -3040.00
03377           -2960.00
03378           -2880.00
03379           -2960.00
03380           -2960.00
03381           -2880.00
03382           -2880.00
03383           -2800.00
03384           -2800.00
03385           -2800.00
03386           -2800.00
03387           -2800.00
03388           -2800.00
03389           -2800.00
03390           -2800.00
03391           -2800.00
03392           -2720.00
03393           -2640.00
03394           -2720.00
03395           -2640.00
03396           -2720.00
03397           -2640.00
03398           -2640.00
03399           -2640.00
03400           -2480.00
03401           -2480.00
03402           -2480.00
03403           -2480.00
03404           -2480.00
03405           -2400.00
03406           -2400.00
03407           -2400.00
03408           -2400.00
03409           -2400.00
03410           -2400.00
03411           -2400.00
03412           -2400.00
03413           -2320.00
03414           -2320.00
03415           -2320.00
03416           -2320.00
03417           -2240.00
03418           -2320.00
03419           -2160.00
03420           -2160.00
03421           -2160.00
03422           -2160.00
03423           -2160.00
03424           -2160.00
03425           -2080.00
03426           -2160.00
03427           -2080.00
03428           -2080.00
03429           -2000.00
03430           -2080.00
03431           -2000.00
03432           -2000.00
03433           -2000.00
03434           -2000.00
03435           -1840.00
03436           -1840.00
03437           -1840.00
03438           -1840.00
03439           -1840.00
03440           -1840.00
03441           -1840.00
03442           -1840.00
03443           -1760.00
03444           -1760.00
03445           -1760.00
03446           -1760.00
03447           -1760.00
03448           -1680.00
03449           -1680.00
03450           -1520.00
03451           -1520.00
03452           -1600.00
03453           -1520.00
03454           -1520.00
03455           -1440.00
03456           -1440.00
03457           -1440.00
03458           -1520.00
03459           -1440.00
03460           -1440.00
03461           -1360.00
03462           -1360.00
03463           -1360.00
03464           -1280.00
03465           -1200.00
03466           -1200.00
03467           -1120.00
03468           -1200.00
03469           -1200.00
03470           -1120.00
03471           -1120.00
03472           -1120.00
03473           -1120.00
03474           -1120.00
03475           -1040.00
03476           -1040.00
03477           -1040.00
03478           -1040.00
03479            -880.00
03480            -880.00
03481            -880.00
03482            -880.00
03483            -880.00
03484            -800.00
03485            -880.00
03486            -880.00
03487            -800.00
03488            -800.00
03489            -800.00
03490            -720.00
03491            -720.00
03492            -720.00
03493            -720.00
03494            -560.00
03495            -560.00
03496            -560.00
03497            -560.00
03498            -560.00
03499            -480.00
03500            -480.00
03501            -480.00
03502            -480.00
03503            -480.00
03504            -400.00
03505            -400.00
03506            -400.00
03507            -320.00
03508            -240.00
03509            -240.00
03510            -400.00
03511            -240.00
03512            -240.00
03513            -160.00
03514            -160.00
03515            -160.00
03516             -80.00
03517             -80.00
03518             -80.00
03519             -80.00
03520             -80.00
03521             -80.00
03522              80.00
03523               0.00
03524              80.00
03525             160.00
03526             160.00
03527             160.00
03528             160.00
03529             160.00
03530             160.00
03531             240.00
03532             400.00
03533             400.00
03534             400.00
03535             320.00
03536             400.00
03537             400.00
03538             480.00
03539             480.00
03540             480.00
03541             480.00
03542             480.00
03543             560.00
03544             560.00
03545             560.00
03546             640.00
03547             720.00
03548             720.00
03549             720.00
03550             720.00
03551             720.00
03552             800.00
03553             800.00
03554             800.00
03555             800.00
03556             800.00
03557             880.00
03558             800.00
03559             880.00
03560             880.00
03561             960.00
03562            1040.00
03563            1040.00
03564            1040.00
03565            1040.00
03566            1040.00
03567            1040.00
03568            1120.00
03569            1120.00
03570            1120.00
03571            1120.00
03572            1120.00
03573            1280.00
03574            1200.00
03575            1280.00
03576            1200.00
03577            1280.00
03578            1360.00
03579            1360.00
03580            1360.00
03581            1360.00
03582            1440.00
03583            1440.00
03584            1440.00
03585            1520.00
03586            1520.00
03587            1520.00
03588            1520.00
03589            1680.00
03590            1520.00
03591            1680.00
03592            1680.00
03593            1680.00
03594            1680.00
03595            1680.00
03596            1680.00
03597            1760.00
03598            1760.00
03599            1760.00
03600            1760.00
03601            1840.00
03602            1840.00
03603            2000.00
03604            1840.00
03605            1920.00
03606            2000.00
03607            2000.00
03608            2000.00
03609            2080.00
03610            2080.00
03611            2080.00
03612            2080.00
03613            2080.00
03614            2160.00
03615            2080.00
03616            2160.00
03617            2160.00
03618            2160.00
03619            2240.00
03620            2160.00
03621            2240.00
03622            2240.00
03623            2320.00
03624            2320.00
03625            2320.00
03626            2400.00
03627            2320.00
03628            2400.00
03629            2400.00
03630            2400.00
03631            2400.00
03632            2480.00
03633            2480.00
03634            2480.00
03635            2480.00
03636            2480.00
03637            2480.00
03638            2560.00
03639            2480.00
03640            2640.00
03641            2640.00
03642            2640.00
03643            2640.00
03644            2640.00
03645            2720.00
03646            2720.00
03647            2720.00
03648            2720.00
03649            2720.00
03650            2720.00
03651            2720.00
03652            2800.00
03653            2800.00
03654            2800.00
03655            2880.00
03656            2880.00
03657            2880.00
03658            2960.00
03659            2960.00
03660            2960.00
03661            2960.00
03662            2960.00
03663            2960.00
03664            2960.00
03665            2960.00
03666            3040.00
03667            3040.00
03668            3040.00
03669            3120.00
03670            3120.00
03671            3120.00
03672            3120.00
03673            3120.00
03674            3120.00
03675            3200.00
03676            3120.00
03677            3120.00
03678            3200.00
03679            3280.00
03680            3280.00
03681            3280.00
03682            3280.00
03683            3280.00
03684            3280.00
03685            3280.00
03686            3280.00
03687            3280.00
03688            3360.00
03689            3360.00
03690            3280.00
03691            3360.00
03692            3360.00
03693            3360.00
03694            3360.00
03695            3360.00
03696            3360.00
03697            3440.00
03698            3440.00
03699            3360.00
03700            3440.00
03701            3440.00
03702            3440.00
03703            3440.00
03704            3440.00
03705            3440.00
03706            3440.00
03707            3600.00
03708            3440.00
03709            3520.00
03710            3520.00
03711            3600.00
03712            3600.00
03713            3520.00
03714            3600.00
03715            3600.00
03716            3600.00
03717            3600.00
03718            3600.00
03719            3600.00
03720            3680.00
03721            3600.00
03722            3680.00
03723            3600.00
03724            3680.00
03725            3680.00
03726            3680.00
03727            3680.00
03728            3760.00
03729            3680.00
03730            3680.00
03731            3760.00
03732            3680.00
03733            3760.00
03734            3680.00
03735            3760.00
03736            3760.00
03737            3760.00
03738            3760.00
03739            3760.00
03740            3760.00
03741            3760.00
03742            3760.00
03743            3760.00
03744            3760.00
03745            3760.00
03746            3920.00
03747            3760.00
03748            3760.00
03749            3760.00
03750            3760.00
03751            3760.00
03752            3920.00
03753            3760.00
03754            3760.00
03755            3840.00
03756            3760.00
03757            3840.00
03758            3760.00
03759            3760.00
03760            3920.00
03761            3840.00
03762            3840.00
03763            3840.00
03764            3840.00
03765            3920.00
03766            3840.00
03767            3920.00
03768            3760.00
03769            3840.00
03770            3840.00
03771            3760.00
03772            3920.00
03773            3840.00
03774            3920.00
03775            3920.00
03776            3840.00
03777            3920.00
03778            3920.00
03779            3920.00
03780            3920.00
03781            3840.00
03782            3920.00
03783            3920.00
03784            3760.00
03785            3920.00
03786            3840.00
03787            3840.00
03788            3920.00
03789            3760.00
03790            3920.00
03791            3840.00
03792            3840.00
03793            3840.00
03794            3920.00
03795            3840.00
03796            3760.00
03797            3920.00
03798            3840.00
03799            3760.00
03800            3920.00
03801            3920.00
03802            3760.00
03803            3760.00
03804            3760.00
03805            3760.00
03806            3760.00
03807            3760.00
03808            3760.00
03809            3760.00
03810            3760.00
03811            3760.00
03812            3680.00
03813            3760.00
03814            3760.00
03815            3760.00
03816            3760.00
03817            3680.00
03818            3680.00
03819            3680.00
03820            3680.00
03821            3680.00
03822            3680.00
03823            3600.00
03824            3600.00
03825            3680.00
03826            3680.00
03827            3600.00
03828            3680.00
03829            3600.00
03830            3600.00
03831            3600.00
03832            3600.00
03833            3600.00
03834            3600.00
03835            3600.00
03836            3600.00
03837            3520.00
03838            3600.00
03839            3520.00
03840            3600.00
03841            3440.00
03842            3520.00
03843            3440.00
03844            3520.00
03845            3520.00
03846            3440.00
03847            3440.00
03848            3440.00
03849            3440.00
03850            3440.00
03851            3440.00
03852            3360.00
03853            3440.00
03854            3360.00
03855            3360.00
03856            3360.00
03857            3360.00
03858            3360.00
03859            3360.00
03860            3360.00
03861            3360.00
03862            3360.00
03863            3280.00
03864            3360.00
03865            3280.00
03866            3360.00
03867            3280.00
03868            3280.00
03869            3120.00
03870            3280.00
03871            3280.00
03872            3280.00
03873            3120.00
03874            3120.00
03875            3120.00
03876            3120.00
03877            3120.00
03878            3120.00
03879            3040.00
03880            3040.00
03881            3040.00
03882            3040.00
03883            3040.00
03884            3040.00
03885            2960.00
03886            2960.00
03887            2960.00
03888            2960.00
03889            2960.00
03890            2880.00
03891            2800.00
03892            2960.00
03893            2800.00
03894            2800.00
03895            2800.00
03896            2800.00
03897            2800.00
03898            2720.00
03899            2720.00
03900            2720.00
03901            2720.00
03902            2720.00
03903            2720.00
03904            2640.00
03905            2640.00
03906            2640.00
03907            2640.00
03908            2640.00
03909            2640.00
03910            2640.00
03911            2640.00
03912            2480.00
03913            2640.00
03914            2480.00
03915            2480.00
03916            2480.00
03917            2480.00
03918            2400.00
03919            2400.00
03920            2400.00
03921            2400.00
03922            2400.00
03923            2320.00
03924            2400.00
03925            2320.00
03926            2320.00
03927            2320.00
03928            2240.00
03929            2320.00
03930            2240.00
03931            2320.00
03932            2160.00
03933            2160.00
03934            2160.00
03935            2160.00
03936            2160.00
03937            2080.00
03938            2080.00
03939            2080.00
03940            2080.00
03941            2000.00
03942            2000.00
03943            2000.00
03944            2000.00
03945            2000.00
03946            1920.00
03947            1840.00
03948            1840.00
03949            1840.00
03950            1760.00
03951            1760.00
03952            1760.00
03953            1760.00
03954            1680.00
03955            1680.00
03956            1680.00
03957            1680.00
03958            1680.00
03959            1600.00
03960            1680.00
03961            1520.00
03962            1520.00
03963            1520.00
03964            1440.00
03965            1520.00
03966            1440.00
03967            1440.00
03968            1440.00
03969            1440.00
03970            1440.00
03971            1360.00
03972            1360.00
03973            1360.00
03974            1360.00
03975            1200.00
03976            1360.00
03977            1200.00
03978            1200.00
03979            1120.00
03980            1120.00
03981            1120.00
03982            1120.00
03983            1120.00
03984            1120.00
03985            1040.00
03986            1040.00
03987            1040.00
03988            1040.00
03989            1040.00
03990             880.00
03991             880.00
03992             880.00
03993             880.00
03994             800.00
03995             880.00
03996             800.00
03997             800.00
03998             800.00
03999             800.00
04000             720.00
04001             720.00
04002             720.00
04003             640.00
04004             640.00
04005             720.00
04006             560.00
04007             560.00
04008             480.00
04009             480.00
04010             400.00
04011             480.00
04012             400.00
04013             480.00
04014             320.00
04015             400.00
04016             320.00
04017             240.00
04018             240.00
04019             240.00
04020             240.00
04021             240.00
04022             160.00
04023             160.00
04024             160.00
04025              80.00
04026             160.00
04027              80.00
04028              80.00
04029              80.00
04030               0.00
04031             -80.00
04032             -80.00
04033               0.00
04034             -80.00
04035            -160.00
04036             -80.00
04037            -160.00
04038            -160.00
04039            -240.00
04040            -240.00
04041            -160.00
04042            -240.00
04043            -240.00
04044            -320.00
04045            -400.00
04046            -400.00
04047            -320.00
04048            -320.00
04049            -400.00
04050            -480.00
04051            -480.00
04052            -480.00
04053            -480.00
04054            -560.00
04055            -640.00
04056            -560.00
04057            -560.00
04058            -560.00
04059            -720.00
04060            -720.00
04061            -720.00
04062            -720.00
04063            -800.00
04064            -720.00
04065            -880.00
04066            -880.00
04067            -880.00
04068            -800.00
04069            -880.00
04070            -880.00
04071            -880.00
04072            -880.00
04073            -880.00
04074           -1040.00
04075           -1040.00
04076           -1040.00
04077           -1120.00
04078           -1120.00
04079           -1120.00
04080           -1200.00
04081           -1120.00
04082           -1200.00
04083           -1200.00
04084           -1200.00
04085           -1200.00
04086           -1360.00
04087           -1360.00
04088           -1360.00
04089           -1440.00
04090           -1440.00
04091           -1440.00
04092           -1440.00
04093           -1440.00
04094           -1440.00
04095           -1520.00
04096           -1520.00
04097           -1520.00
04098           -1520.00
04099           -1600.00
04100           -1520.00
04101           -1680.00
04102           -1680.00
04103           -1680.00
04104           -1680.00
04105           -1760.00
04106           -1760.00
04107           -1680.00
04108           -1760.00
04109           -1760.00
04110           -1840.00
04111           -1840.00
04112           -1760.00
04113           -1840.00
04114           -1840.00
04115           -1840.00
04116           -1840.00
04117           -2000.00
04118           -2000.00
04119           -2000.00
04120           -2000.00
04121           -2000.00
04122           -2080.00
04123           -2080.00
04124           -2080.00
04125           -2080.00
04126           -2160.00
04127           -2160.00
04128           -2160.00
04129           -2160.00
04130           -2320.00
04131           -2160.00
04132           -2320.00
04133           -2320.00
04134           -2320.00
04135           -2320.00
04136           -2320.00
04137           -2320.00
04138           -2400.00
04139           -2400.00
04140           -2400.00
04141           -2480.00
04142           -2480.00
04143           -2480.00
04144           -2480.00
04145           -2560.00
04146           -2480.00
04147           -2560.00
04148           -2480.00
04149           -2560.00
04150           -2640.00
04151           -2640.00
04152           -2640.00
04153           -2640.00
04154           -2720.00
04155           -2720.00
04156           -2720.00
04157           -2800.00
04158           -2720.00
04159           -2800.00
04160           -2800.00
04161           -2800.00
04162           -2800.00
04163           -2800.00
04164           -2880.00
04165           -2960.00
04166           -2800.00
04167           -2800.00
04168           -2880.00
04169           -2960.00
04170           -2960.00
04171           -2960.00
04172           -3040.00
04173           -2960.00
04174           -2960.00
04175           -3040.00
04176           -3040.00
04177           -2960.00
04178           -3040.00
04179           -3040.00
04180           -3040.00
04181           -3040.00
04182           -3040.00
04183           -3120.00
04184           -3120.00
04185           -3040.00
04186           -3120.00
04187           -3120.00
04188           -3280.00
04189           -3120.00
04190           -3200.00
04191           -3120.00
04192           -3280.00
04193           -3200.00
04194           -3280.00
04195           -3280.00
04196           -3280.00
04197           -3280.00
04198           -3280.00
04199           -3360.00
04200           -3360.00
04201           -3360.00
04202           -3360.00
04203           -3360.00
04204           -3360.00
04205           -3360.00
04206           -3360.00
04207           -3440.00
04208           -3440.00
04209           -3440.00
04210           -3440.00
04211           -3440.00
04212           -3440.00
04213           -3440.00
04214           -3440.00
04215           -3600.00
04216           -3440.00
04217           -3440.00
04218           -3600.00
04219           -3600.00
04220           -3440.00
04221           -3600.00
04222           -3600.00
04223           -3600.00
04224           -3600.00
04225           -3600.00
04226           -3600.00
04227           -3680.00
04228           -3680.00
04229           -3680.00
04230           -3680.00
04231           -3680.00
04232           -3600.00
04233           -3680.00
04234           -3680.00
04235           -3600.00
04236           -3680.00
04237           -3680.00
04238           -3680.00
04239           -3680.00
04240           -3680.00
04241           -3680.00
04242           -3680.00
04243           -3680.00
04244           -3680.00
04245           -3680.00
04246           -3680.00
04247           -3680.00
04248           -3760.00
04249           -3760.00
04250           -3680.00
04251           -3680.00
04252           -3760.00
04253           -3760.00
04254           -3760.00
04255           -3760.00
04256           -3760.00
04257           -3760.00
04258           -3760.00
04259           -3760.00
04260           -3760.00
04261           -3760.00
04262           -3760.00
04263           -3760.00
04264           -3760.00
04265           -3760.00
04266           -3760.00
04267           -3760.00
04268           -3760.00
04269           -3760.00
04270           -3760.00
04271           -3920.00
04272           -3760.00
04273           -3760.00
04274           -3840.00
04275           -3760.00
04276           -3840.00
04277           -3760.00
04278           -3760.00
04279           -3840.00
04280           -3920.00
04281           -3760.00
04282           -3920.00
04283           -3760.00
04284           -3760.00
04285           -3760.00
04286           -3840.00
04287           -3840.00
04288           -3760.00
04289           -3760.00
04290           -3760.00
04291           -3760.00
04292           -3760.00
04293           -3840.00
04294           -3760.00
04295           -3920.00
04296           -3760.00
04297           -3760.00
04298           -3760.00
04299           -3760.00
04300           -3760.00
04301           -3760.00
04302           -3760.00
04303           -3760.00
04304           -3760.00
04305           -3760.00
04306           -3760.00
04307           -3760.00
04308           -3760.00
04309           -3760.00
04310           -3760.00
04311           -3680.00
04312           -3760.00
04313           -3760.00
04314           -3760.00
04315           -3680.00
04316           -3760.00
04317           -3680.00
04318           -3760.00
04319           -3680.00
04320           -3680.00
04321           -3680.00
04322           -3760.00
04323           -3680.00
04324           -3680.00
04325           -3680.00
04326           -3680.00
04327           -3680.00
04328           -3680.00
04329           -3680.00
04330           -3680.00
04331           -3680.00
04332           -3680.00
04333           -3680.00
04334           -3600.00
04335           -3680.00
04336           -3600.00
04337           -3680.00
04338           -3680.00
04339           -3600.00
04340           -3680.00
04341           -3600.00
04342           -3680.00
04343           -3680.00
04344           -3600.00
04345           -3600.00
04346           -3600.00
04347           -3600.00
04348           -3440.00
04349           -3600.00
04350           -3440.00
04351           -3520.00
04352           -3520.00
04353           -3520.00
04354           -3440.00
04355           -3440.00
04356           -3440.00
04357           -3440.00
04358           -3440.00
04359           -3440.00
04360           -3360.00
04361           -3440.00
04362           -3440.00
04363           -3440.00
04364           -3360.00
04365           -3440.00
04366           -3360.00
04367           -3360.00
04368           -3360.00
04369           -3360.00
04370           -3280.00
04371           -3360.00
04372           -3360.00
04373           -3280.00
04374           -3280.00
04375           -3280.00
04376           -3280.00
04377           -3200.00
04378           -3120.00
04379           -3120.00
04380           -3120.00
04381           -3120.00
04382           -3120.00
04383           -3120.00
04384           -3120.00
04385           -3040.00
04386           -3040.00
04387           -3040.00
04388           -3040.00
04389           -3040.00
04390           -3040.00
04391           -3040.00
04392           -3040.00
04393           -2960.00
04394           -2960.00
04395           -2960.00
04396           -2960.00
04397           -2960.00
04398           -2880.00
04399           -2960.00
04400           -2800.00
04401           -2800.00
04402           -2800.00
04403           -2880.00
04404           -2800.00
04405           -2800.00
04406           -2800.00
04407           -2800.00
04408           -2800.00
04409           -2800.00
04410           -2720.00
04411           -2720.00
04412           -2720.00
04413           -2720.00
04414           -2640.00
04415           -2720.00
04416           -2640.00
04417           -2640.00
04418           -2640.00
04419           -2640.00
04420           -2560.00
04421           -2480.00
04422           -2480.00
04423           -2480.00
04424           -2480.00
04425           -2480.00
04426           -2480.00
04427           -2480.00
04428           -2400.00
04429           -2400.00
04430           -2400.00
04431           -2400.00
04432           -2400.00
04433           -2320.00
04434           -2320.00
04435           -2320.00
04436           -2320.00
04437           -2240.00
04438           -2320.00
04439           -2160.00
04440           -2160.00
04441           -2160.00
04442           -2080.00
04443           -2080.00
04444           -2080.00
04445           -2080.00
04446           -2080.00
04447           -2080.00
04448           -2000.00
04449           -2000.00
04450           -2000.00
04451           -1840.00
04452           -2000.00
04453           -1840.00
04454           -1840.00
04455           -1840.00
04456           -1840.00
04457           -1840.00
04458           -1760.00
04459           -1760.00
04460           -1760.00
04461           -1760.00
04462           -1760.00
04463           -1760.00
04464           -1680.00
04465           -1760.00
04466           -1680.00
04467           -1680.00
04468           -1680.00
04469           -1600.00
04470           -1520.00
04471           -1520.00
04472           -1520.00
04473           -1520.00
04474           -1520.00
04475           -1520.00
04476           -1440.00
04477           -1440.00
04478           -1520.00
04479           -1440.00
04480           -1440.00
04481           -1360.00
04482           -1360.00
04483           -1360.00
04484           -1360.00
04485           -1200.00
04486           -1200.00
04487           -1200.00
04488           -1200.00
04489           -1120.00
04490           -1120.00
04491           -1120.00
04492           -1120.00
04493           -1120.00
04494           -1120.00
04495           -1040.00
04496           -1040.00
04497            -880.00
04498            -960.00
04499            -880.00
04500            -880.00
04501            -880.00
04502            -880.00
04503            -880.00
04504            -800.00
04505            -800.00
04506            -800.00
04507            -720.00
04508            -800.00
04509            -720.00
04510            -720.00
04511            -720.00
04512            -560.00
04513            -640.00
04514            -560.00
04515            -560.00
04516            -480.00
04517            -480.00
04518            -480.00
04519            -480.00
04520            -400.00
04521            -480.00
04522            -480.00
04523            -400.00
04524            -320.00
04525            -400.00
04526            -320.00
04527            -240.00
04528            -240.00
04529            -240.00
04530            -240.00
04531            -240.00
04532            -240.00
04533            -160.00
04534            -160.00
04535            -160.00
04536            -160.00
04537             -80.00
04538             -80.00
04539               0.00
04540               0.00
04541              80.00
04542              80.00
04543              80.00
04544              80.00
04545             160.00
04546             160.00
04547             160.00
04548             160.00
04549             160.00
04550              80.00
04551             240.00
04552             320.00
04553             400.00
04554             320.00
04555             240.00
04556             400.00
04557             400.00
04558             480.00
04559             400.00
04560             480.00
04561             560.00
04562             480.00
04563             560.00
04564             480.00
04565             560.00
04566             560.00
04567             640.00
04568             640.00
04569             720.00
04570             720.00
04571             800.00
04572             800.00
04573             800.00
04574             800.00
04575             800.00
04576             880.00
04577             800.00
04578             880.00
04579             960.00
04580            1040.00
04581            1040.00
04582            1040.00
04583            1040.00
04584            1040.00
04585            1120.00
04586            1120.00
04587            1120.00
04588            1200.00
04589            1120.00
04590            1200.00
04591            1200.00
04592            1200.00
04593            1200.00
04594            1200.00
04595            1360.00
04596            1360.00
04597            1360.00
04598            1360.00
04599            1440.00
04600            1360.00
04601            1440.00
04602            1440.00
04603            1440.00
04604            1440.00
04605            1440.00
04606            1520.00
04607            1440.00
04608            1520.00
04609            1600.00
04610            1680.00
04611            1680.00
04612            1680.00
04613            1680.00
04614            1680.00
04615            1680.00
04616            1760.00
04617            1760.00
04618            1760.00
04619            1760.00
04620            1760.00
04621            1840.00
04622            1840.00
04623            1840.00
04624            1840.00
04625            1840.00
04626            2000.00
04627            2000.00
04628            2080.00
04629            2080.00
04630            2080.00
04631            2080.00
04632            2080.00
04633            2080.00
04634            2080.00
04635            2080.00
04636            2160.00
04637            2160.00
04638            2160.00
04639            2320.00
04640            2240.00
04641            2320.00
04642            2320.00
04643            2320.00
04644            2320.00
04645            2320.00
04646            2320.00
04647            2400.00
04648            2400.00
04649            2400.00
04650            2400.00
04651            2480.00
04652            2480.00
04653            2560.00
04654            2560.00
04655            2480.00
04656            2560.00
04657            2640.00
04658            2640.00
04659            2640.00
04660            2640.00
04661            2640.00
04662            2640.00
04663            2640.00
04664            2720.00
04665            2640.00
04666            2720.00
04667            2720.00
04668            2720.00
04669            2800.00
04670            2720.00
04671            2720.00
04672            2800.00
04673            2800.00
04674            2720.00
04675            2880.00
04676            2800.00
04677            2880.00
04678            2960.00
04679            2800.00
04680            2960.00
04681            2960.00
04682            2960.00
04683            2960.00
04684            2960.00
04685            3040.00
04686            2960.00
04687            3040.00
04688            3040.00
04689            3040.00
04690            3120.00
04691            3120.00
04692            3120.00
04693            3120.00
04694            3120.00
04695            3120.00
04696            3200.00
04697            3120.00
04698            3280.00
04699            3280.00
04700            3280.00
04701            3280.00
04702            3280.00
04703            3280.00
04704            3280.00
04705            3280.00
04706            3280.00
04707            3360.00
04708            3360.00
04709            3360.00
04710            3360.00
04711            3360.00
04712            3360.00
04713            3360.00
04714            3360.00
04715            3440.00
04716            3360.00
04717            3440.00
04718            3440.00
04719            3440.00
04720            3440.00
04721            3600.00
04722            3440.00
04723            3440.00
04724            3600.00
04725            3440.00
04726            3600.00
04727            3600.00
04728            3520.00
04729            3600.00
04730            3440.00
04731            3600.00
04732            3600.00
04733            3600.00
04734            3600.00
04735            3600.00
04736            3600.00
04737            3600.00
04738            3600.00
04739            3600.00
04740            3680.00
04741            3600.00
04742            3600.00
04743            3680.00
04744            3600.00
04745            3600.00
04746            3680.00
04747            3680.00
04748            3680.00
04749            3680.00
04750            3680.00
04751            3680.00
04752            3680.00
04753            3600.00
04754            3680.00
04755            3760.00
04756            3680.00
04757            3760.00
04758            3760.00
04759            3760.00
04760            3760.00
04761            3760.00
04762            3760.00
04763            3760.00
04764            3920.00
04765            3760.00
04766            3760.00
04767            3760.00
04768            3840.00
04769            3920.00
04770            3760.00
04771            3920.00
04772            3760.00
04773            3760.00
04774            3840.00
04775            3760.00
04776            3920.00
04777            3760.00
04778            3920.00
04779            3760.00
04780            3920.00
04781            3920.00
04782            3920.00
04783            3840.00
04784            3920.00
04785            3920.00
04786            3760.00
04787            3920.00
04788            3920.00
04789            3920.00
04790            3840.00
04791            3760.00
04792            3920.00
04793            3760.00
04794            3760.00
04795            3920.00
04796            3760.00
04797            3920.00
04798            3840.00
04799            3920.00
04800            3760.00
04801            3920.00
04802            3760.00
04803            3920.00
04804            3840.00
04805            3760.00
04806            3840.00
04807            3760.00
04808            3840.00
04809            3920.00
04810            3840.00
04811            3760.00
04812            3760.00
04813            3760.00
04814            3760.00
04815            3760.00
04816            3760.00
04817            3760.00
04818            3760.00
04819            3840.00
04820            3760.00
04821            3840.00
04822            3760.00
04823            3760.00
04824            3760.00
04825            3760.00
04826            3760.00
04827            3760.00
04828            3680.00
04829            3760.00
04830            3760.00
04831            3760.00
04832            3760.00
04833            3760.00
04834            3760.00
04835            3760.00
04836            3680.00
04837            3680.00
04838            3680.00
04839            3680.00
04840            3680.00
04841            3680.00
04842            3680.00
04843            3680.00
04844            3760.00
04845            3600.00
04846            3600.00
04847            3680.00
04848            3600.00
04849            3600.00
04850            3680.00
04851            3680.00
04852            3600.00
04853            3600.00
04854            3600.00
04855            3600.00
04856            3600.00
04857            3600.00
04858            3600.00
04859            3600.00
04860            3440.00
04861            3440.00
04862            3440.00
04863            3440.00
04864            3520.00
04865            3360.00
04866            3440.00
04867            3440.00
04868            3440.00
04869            3440.00
04870            3360.00
04871            3360.00
04872            3360.00
04873            3360.00
04874            3360.00
04875            3360.00
04876            3360.00
04877            3360.00
04878            3360.00
04879            3360.00
04880            3280.00
04881            3360.00
04882            3280.00
04883            3280.00
04884            3280.00
04885            3280.00
04886            3280.00
04887            3280.00
04888            3280.00
04889            3200.00
04890            3120.00
04891            3120.00
04892            3200.00
04893            3120.00
04894            3120.00
04895            3120.00
04896            3040.00
04897            3120.00
04898            3040.00
04899            3120.00
04900            3040.00
04901            3040.00
04902            3040.00
04903            3040.00
04904            2960.00
04905            2960.00
04906            2960.00
04907            2960.00
04908            2960.00
04909            2960.00
04910            2960.00
04911            2960.00
04912            2960.00
04913            2880.00
04914            2800.00
04915            2800.00
04916            2720.00
04917            2800.00
04918            2720.00
04919            2720.00
04920            2720.00
04921            2720.00
04922            2720.00
04923            2720.00
04924            2640.00
04925            2640.00
04926            2640.00
04927            2640.00
04928            2640.00
04929            2640.00
04930            2640.00
04931            2640.00
04932            2480.00
04933            2480.00
04934            2480.00
04935            2400.00
04936            2480.00
04937            2400.00
04938            2400.00
04939            2400.00
04940            2400.00
04941            2400.00
04942            2320.00
04943            2320.00
04944            2320.00
04945            2320.00
04946            2240.00
04947            2240.00
04948            2320.00
04949            2240.00
04950            2160.00
04951            2160.00
04952            2160.00
04953            2160.00
04954            2080.00
04955            2080.00
04956            2080.00
04957            2080.00
04958            2000.00
04959            2080.00
04960            2000.00
04961            2000.00
04962            2000.00
04963            2000.00
04964            2000.00
04965            2000.00
04966            1840.00
04967            1840.00
04968            1840.00
04969            1840.00
04970            1840.00
04971            1760.00
04972            1760.00
04973            1760.00
04974            1680.00
04975            1680.00
04976            1680.00
04977            1680.00
04978            1600.00
04979            1680.00
04980            1600.00
04981            1600.00
04982            1520.00
04983            1520.00
04984            1520.00
04985            1520.00
04986            1440.00
04987            1520.00
04988            1440.00
04989            1440.00
04990            1360.00
04991            1360.00
04992            1360.00
04993            1360.00
04994            1360.00
04995            1200.00
04996            1200.00
04997            1200.00
04998            1200.00
04999            1120.00
05000            1120.00
