Unit:(mV)
                     CH1
Frequency     98.119 kHz
00001           -2640.00
00002           -2720.00
00003           -2720.00
00004           -2720.00
00005           -2800.00
00006           -2800.00
00007           -2960.00
00008           -2960.00
00009           -3040.00
00010           -3040.00
00011           -3120.00
00012           -3120.00
00013           -3200.00
00014           -3280.00
00015           -3280.00
00016           -3440.00
00017           -3440.00
00018           -3440.00
00019           -3440.00
00020           -3440.00
00021           -3600.00
00022           -3680.00
00023           -3680.00
00024           -3680.00
00025           -3760.00
00026           -3760.00
00027           -3920.00
00028           -3920.00
00029           -4000.00
00030           -3920.00
00031           -4080.00
00032           -4080.00
00033           -4080.00
00034           -4080.00
00035           -4240.00
00036           -4240.00
00037           -4240.00
00038           -4320.00
00039           -4400.00
00040           -4400.00
00041           -4400.00
00042           -4480.00
00043           -4560.00
00044           -4560.00
00045           -4640.00
00046           -4640.00
00047           -4720.00
00048           -4720.00
00049           -4880.00
00050           -4720.00
00051           -4880.00
00052           -4960.00
00053           -4880.00
00054           -4960.00
00055           -5040.00
00056           -5040.00
00057           -5120.00
00058           -5120.00
00059           -5200.00
00060           -5200.00
00061           -5280.00
00062           -5360.00
00063           -5360.00
00064           -5520.00
00065           -5360.00
00066           -5440.00
00067           -5520.00
00068           -5520.00
00069           -5600.00
00070           -5600.00
00071           -5600.00
00072           -5680.00
00073           -5760.00
00074           -5840.00
00075           -5920.00
00076           -5920.00
00077           -5920.00
00078           -5920.00
00079           -6000.00
00080           -6000.00
00081           -6000.00
00082           -6000.00
00083           -6080.00
00084           -6160.00
00085           -6160.00
00086           -6240.00
00087           -6240.00
00088           -6240.00
00089           -6320.00
00090           -6320.00
00091           -6320.00
00092           -6480.00
00093           -6400.00
00094           -6560.00
00095           -6480.00
00096           -6560.00
00097           -6560.00
00098           -6640.00
00099           -6640.00
00100           -6640.00
00101           -6720.00
00102           -6720.00
00103           -6800.00
00104           -6720.00
00105           -6800.00
00106           -6800.00
00107           -6880.00
00108           -6880.00
00109           -6960.00
00110           -6880.00
00111           -6960.00
00112           -6960.00
00113           -6960.00
00114           -7040.00
00115           -7040.00
00116           -7120.00
00117           -7120.00
00118           -7120.00
00119           -7200.00
00120           -7200.00
00121           -7200.00
00122           -7280.00
00123           -7280.00
00124           -7280.00
00125           -7280.00
00126           -7280.00
00127           -7440.00
00128           -7440.00
00129           -7440.00
00130           -7440.00
00131           -7520.00
00132           -7440.00
00133           -7600.00
00134           -7520.00
00135           -7520.00
00136           -7520.00
00137           -7520.00
00138           -7600.00
00139           -7680.00
00140           -7600.00
00141           -7600.00
00142           -7760.00
00143           -7760.00
00144           -7760.00
00145           -7760.00
00146           -7840.00
00147           -7760.00
00148           -7840.00
00149           -7840.00
00150           -7840.00
00151           -7920.00
00152           -7840.00
00153           -7920.00
00154           -7920.00
00155           -7920.00
00156           -7920.00
00157           -7920.00
00158           -7920.00
00159           -7920.00
00160           -7920.00
00161           -7920.00
00162           -8000.00
00163           -8080.00
00164           -8080.00
00165           -7920.00
00166           -8080.00
00167           -8080.00
00168           -8080.00
00169           -8080.00
00170           -8080.00
00171           -8080.00
00172           -8080.00
00173           -8160.00
00174           -8160.00
00175           -8160.00
00176           -8160.00
00177           -8160.00
00178           -8160.00
00179           -8160.00
00180           -8160.00
00181           -8160.00
00182           -8160.00
00183           -8160.00
00184           -8160.00
00185           -8160.00
00186           -8240.00
00187           -8240.00
00188           -8160.00
00189           -8160.00
00190           -8160.00
00191           -8240.00
00192           -8240.00
00193           -8160.00
00194           -8240.00
00195           -8160.00
00196           -8160.00
00197           -8240.00
00198           -8240.00
00199           -8240.00
00200           -8240.00
00201           -8240.00
00202           -8240.00
00203           -8240.00
00204           -8320.00
00205           -8240.00
00206           -8240.00
00207           -8320.00
00208           -8240.00
00209           -8240.00
00210           -8240.00
00211           -8240.00
00212           -8320.00
00213           -8240.00
00214           -8240.00
00215           -8240.00
00216           -8240.00
00217           -8240.00
00218           -8240.00
00219           -8240.00
00220           -8160.00
00221           -8240.00
00222           -8160.00
00223           -8160.00
00224           -8160.00
00225           -8160.00
00226           -8240.00
00227           -8160.00
00228           -8160.00
00229           -8160.00
00230           -8160.00
00231           -8160.00
00232           -8160.00
00233           -8160.00
00234           -8080.00
00235           -8160.00
00236           -8080.00
00237           -8080.00
00238           -8080.00
00239           -8080.00
00240           -8080.00
00241           -8080.00
00242           -8080.00
00243           -7920.00
00244           -7920.00
00245           -7920.00
00246           -7920.00
00247           -7920.00
00248           -7920.00
00249           -7920.00
00250           -7920.00
00251           -7920.00
00252           -7840.00
00253           -7840.00
00254           -7840.00
00255           -7920.00
00256           -7840.00
00257           -7760.00
00258           -7760.00
00259           -7840.00
00260           -7760.00
00261           -7760.00
00262           -7760.00
00263           -7760.00
00264           -7760.00
00265           -7600.00
00266           -7680.00
00267           -7600.00
00268           -7600.00
00269           -7600.00
00270           -7520.00
00271           -7520.00
00272           -7520.00
00273           -7520.00
00274           -7520.00
00275           -7520.00
00276           -7440.00
00277           -7440.00
00278           -7440.00
00279           -7440.00
00280           -7280.00
00281           -7360.00
00282           -7280.00
00283           -7280.00
00284           -7280.00
00285           -7200.00
00286           -7280.00
00287           -7200.00
00288           -7200.00
00289           -7200.00
00290           -7120.00
00291           -7120.00
00292           -7120.00
00293           -6960.00
00294           -6960.00
00295           -6960.00
00296           -6880.00
00297           -6880.00
00298           -6880.00
00299           -6880.00
00300           -6880.00
00301           -6800.00
00302           -6800.00
00303           -6800.00
00304           -6640.00
00305           -6640.00
00306           -6640.00
00307           -6560.00
00308           -6560.00
00309           -6480.00
00310           -6560.00
00311           -6480.00
00312           -6480.00
00313           -6320.00
00314           -6320.00
00315           -6320.00
00316           -6320.00
00317           -6320.00
00318           -6240.00
00319           -6240.00
00320           -6160.00
00321           -6160.00
00322           -6160.00
00323           -6080.00
00324           -6000.00
00325           -6000.00
00326           -5920.00
00327           -5920.00
00328           -5920.00
00329           -5840.00
00330           -5840.00
00331           -5840.00
00332           -5760.00
00333           -5760.00
00334           -5680.00
00335           -5680.00
00336           -5600.00
00337           -5600.00
00338           -5600.00
00339           -5520.00
00340           -5520.00
00341           -5520.00
00342           -5360.00
00343           -5360.00
00344           -5360.00
00345           -5360.00
00346           -5280.00
00347           -5280.00
00348           -5200.00
00349           -5200.00
00350           -5120.00
00351           -4960.00
00352           -5040.00
00353           -4960.00
00354           -4960.00
00355           -4960.00
00356           -4880.00
00357           -4800.00
00358           -4880.00
00359           -4720.00
00360           -4640.00
00361           -4640.00
00362           -4640.00
00363           -4560.00
00364           -4560.00
00365           -4400.00
00366           -4400.00
00367           -4320.00
00368           -4320.00
00369           -4320.00
00370           -4240.00
00371           -4240.00
00372           -4160.00
00373           -4080.00
00374           -4080.00
00375           -4000.00
00376           -4080.00
00377           -3920.00
00378           -3920.00
00379           -3760.00
00380           -3760.00
00381           -3680.00
00382           -3680.00
00383           -3680.00
00384           -3600.00
00385           -3680.00
00386           -3440.00
00387           -3440.00
00388           -3440.00
00389           -3360.00
00390           -3360.00
00391           -3280.00
00392           -3280.00
00393           -3280.00
00394           -3120.00
00395           -3120.00
00396           -3120.00
00397           -3040.00
00398           -3040.00
00399           -2960.00
00400           -2960.00
00401           -2960.00
00402           -2800.00
00403           -2800.00
00404           -2720.00
00405           -2640.00
00406           -2640.00
00407           -2640.00
00408           -2480.00
00409           -2480.00
00410           -2480.00
00411           -2400.00
00412           -2320.00
00413           -2320.00
00414           -2160.00
00415           -2160.00
00416           -2160.00
00417           -2080.00
00418           -2080.00
00419           -2000.00
00420           -1920.00
00421           -1840.00
00422           -1840.00
00423           -1760.00
00424           -1760.00
00425           -1680.00
00426           -1520.00
00427           -1680.00
00428           -1520.00
00429           -1520.00
00430           -1440.00
00431           -1360.00
00432           -1360.00
00433           -1200.00
00434           -1200.00
00435           -1120.00
00436           -1120.00
00437           -1120.00
00438           -1040.00
00439            -880.00
00440            -880.00
00441            -880.00
00442            -880.00
00443            -800.00
00444            -720.00
00445            -640.00
00446            -560.00
00447            -480.00
00448            -560.00
00449            -480.00
00450            -400.00
00451            -400.00
00452            -320.00
00453            -240.00
00454            -240.00
00455            -160.00
00456            -160.00
00457             -80.00
00458               0.00
00459              80.00
00460             160.00
00461             160.00
00462             160.00
00463             240.00
00464             240.00
00465             400.00
00466             320.00
00467             400.00
00468             400.00
00469             560.00
00470             560.00
00471             720.00
00472             720.00
00473             720.00
00474             800.00
00475             800.00
00476             880.00
00477             880.00
00478             960.00
00479            1040.00
00480            1040.00
00481            1120.00
00482            1200.00
00483            1200.00
00484            1200.00
00485            1360.00
00486            1440.00
00487            1440.00
00488            1440.00
00489            1520.00
00490            1520.00
00491            1680.00
00492            1680.00
00493            1760.00
00494            1840.00
00495            1840.00
00496            1840.00
00497            2000.00
00498            2000.00
00499            2080.00
00500            2080.00
00501            2160.00
00502            2160.00
00503            2320.00
00504            2320.00
00505            2320.00
00506            2320.00
00507            2400.00
00508            2480.00
00509            2480.00
00510            2640.00
00511            2640.00
00512            2720.00
00513            2720.00
00514            2800.00
00515            2800.00
00516            2960.00
00517            2960.00
00518            2960.00
00519            3040.00
00520            3120.00
00521            3120.00
00522            3280.00
00523            3280.00
00524            3280.00
00525            3280.00
00526            3360.00
00527            3360.00
00528            3440.00
00529            3440.00
00530            3520.00
00531            3600.00
00532            3600.00
00533            3680.00
00534            3760.00
00535            3760.00
00536            3840.00
00537            3920.00
00538            3920.00
00539            3920.00
00540            4000.00
00541            4000.00
00542            4080.00
00543            4080.00
00544            4240.00
00545            4240.00
00546            4240.00
00547            4320.00
00548            4320.00
00549            4320.00
00550            4480.00
00551            4480.00
00552            4560.00
00553            4560.00
00554            4640.00
00555            4640.00
00556            4720.00
00557            4800.00
00558            4880.00
00559            4880.00
00560            4880.00
00561            4880.00
00562            4880.00
00563            4960.00
00564            5040.00
00565            5040.00
00566            5200.00
00567            5200.00
00568            5200.00
00569            5280.00
00570            5280.00
00571            5360.00
00572            5360.00
00573            5360.00
00574            5520.00
00575            5520.00
00576            5520.00
00577            5600.00
00578            5680.00
00579            5600.00
00580            5680.00
00581            5680.00
00582            5840.00
00583            5840.00
00584            5840.00
00585            5840.00
00586            5920.00
00587            5920.00
00588            5920.00
00589            6000.00
00590            6000.00
00591            6160.00
00592            6080.00
00593            6160.00
00594            6160.00
00595            6160.00
00596            6160.00
00597            6320.00
00598            6320.00
00599            6320.00
00600            6480.00
00601            6480.00
00602            6400.00
00603            6480.00
00604            6480.00
00605            6560.00
00606            6560.00
00607            6560.00
00608            6640.00
00609            6640.00
00610            6720.00
00611            6720.00
00612            6800.00
00613            6800.00
00614            6800.00
00615            6800.00
00616            6880.00
00617            6880.00
00618            6880.00
00619            6960.00
00620            6960.00
00621            6960.00
00622            6960.00
00623            7120.00
00624            7120.00
00625            7120.00
00626            7200.00
00627            7200.00
00628            7200.00
00629            7200.00
00630            7280.00
00631            7280.00
00632            7280.00
00633            7440.00
00634            7360.00
00635            7440.00
00636            7440.00
00637            7440.00
00638            7440.00
00639            7440.00
00640            7520.00
00641            7520.00
00642            7520.00
00643            7520.00
00644            7520.00
00645            7600.00
00646            7600.00
00647            7760.00
00648            7600.00
00649            7600.00
00650            7760.00
00651            7680.00
00652            7760.00
00653            7760.00
00654            7760.00
00655            7840.00
00656            7840.00
00657            7760.00
00658            7840.00
00659            7840.00
00660            7840.00
00661            7840.00
00662            7840.00
00663            7840.00
00664            7920.00
00665            7920.00
00666            7920.00
00667            7920.00
00668            8000.00
00669            8000.00
00670            8000.00
00671            8000.00
00672            8080.00
00673            8080.00
00674            8080.00
00675            8080.00
00676            8080.00
00677            8080.00
00678            8080.00
00679            8080.00
00680            8080.00
00681            8080.00
00682            8160.00
00683            8160.00
00684            8160.00
00685            8160.00
00686            8160.00
00687            8160.00
00688            8240.00
00689            8160.00
00690            8240.00
00691            8160.00
00692            8160.00
00693            8240.00
00694            8160.00
00695            8240.00
00696            8240.00
00697            8240.00
00698            8240.00
00699            8240.00
00700            8240.00
00701            8320.00
00702            8240.00
00703            8240.00
00704            8240.00
00705            8400.00
00706            8320.00
00707            8240.00
00708            8400.00
00709            8240.00
00710            8400.00
00711            8400.00
00712            8240.00
00713            8400.00
00714            8320.00
00715            8240.00
00716            8240.00
00717            8240.00
00718            8240.00
00719            8240.00
00720            8400.00
00721            8320.00
00722            8320.00
00723            8400.00
00724            8320.00
00725            8240.00
00726            8240.00
00727            8240.00
00728            8240.00
00729            8160.00
00730            8240.00
00731            8160.00
00732            8240.00
00733            8160.00
00734            8240.00
00735            8160.00
00736            8160.00
00737            8160.00
00738            8160.00
00739            8160.00
00740            8160.00
00741            8160.00
00742            8160.00
00743            8080.00
00744            8160.00
00745            8160.00
00746            8080.00
00747            8080.00
00748            8080.00
00749            8080.00
00750            8080.00
00751            8080.00
00752            8080.00
00753            8080.00
00754            7920.00
00755            8080.00
00756            8000.00
00757            8080.00
00758            7920.00
00759            7920.00
00760            7840.00
00761            7920.00
00762            7840.00
00763            7840.00
00764            7840.00
00765            7840.00
00766            7840.00
00767            7840.00
00768            7840.00
00769            7840.00
00770            7760.00
00771            7760.00
00772            7760.00
00773            7760.00
00774            7680.00
00775            7760.00
00776            7760.00
00777            7600.00
00778            7600.00
00779            7600.00
00780            7520.00
00781            7600.00
00782            7600.00
00783            7520.00
00784            7520.00
00785            7520.00
00786            7440.00
00787            7440.00
00788            7440.00
00789            7440.00
00790            7280.00
00791            7280.00
00792            7280.00
00793            7280.00
00794            7280.00
00795            7200.00
00796            7200.00
00797            7200.00
00798            7120.00
00799            7200.00
00800            7120.00
00801            7120.00
00802            7120.00
00803            6960.00
00804            6960.00
00805            6960.00
00806            6880.00
00807            6880.00
00808            6800.00
00809            6800.00
00810            6800.00
00811            6800.00
00812            6720.00
00813            6720.00
00814            6720.00
00815            6640.00
00816            6640.00
00817            6640.00
00818            6560.00
00819            6560.00
00820            6560.00
00821            6480.00
00822            6480.00
00823            6480.00
00824            6400.00
00825            6320.00
00826            6320.00
00827            6320.00
00828            6240.00
00829            6240.00
00830            6240.00
00831            6160.00
00832            6160.00
00833            6160.00
00834            6160.00
00835            6080.00
00836            6000.00
00837            5920.00
00838            6000.00
00839            5920.00
00840            5920.00
00841            5840.00
00842            5840.00
00843            5840.00
00844            5680.00
00845            5680.00
00846            5600.00
00847            5600.00
00848            5600.00
00849            5520.00
00850            5520.00
00851            5520.00
00852            5440.00
00853            5360.00
00854            5360.00
00855            5280.00
00856            5280.00
00857            5200.00
00858            5200.00
00859            5200.00
00860            5040.00
00861            5040.00
00862            4960.00
00863            4960.00
00864            4960.00
00865            4880.00
00866            4880.00
00867            4880.00
00868            4720.00
00869            4720.00
00870            4720.00
00871            4640.00
00872            4640.00
00873            4560.00
00874            4480.00
00875            4400.00
00876            4400.00
00877            4320.00
00878            4320.00
00879            4240.00
00880            4240.00
00881            4240.00
00882            4160.00
00883            4080.00
00884            4080.00
00885            4080.00
00886            4000.00
00887            4000.00
00888            3920.00
00889            3840.00
00890            3920.00
00891            3760.00
00892            3760.00
00893            3680.00
00894            3600.00
00895            3600.00
00896            3600.00
00897            3600.00
00898            3440.00
00899            3440.00
00900            3360.00
00901            3280.00
00902            3280.00
00903            3280.00
00904            3200.00
00905            3120.00
00906            3040.00
00907            3040.00
00908            3040.00
00909            2960.00
00910            2960.00
00911            2880.00
00912            2800.00
00913            2720.00
00914            2640.00
00915            2720.00
00916            2640.00
00917            2560.00
00918            2480.00
00919            2400.00
00920            2400.00
00921            2320.00
00922            2320.00
00923            2240.00
00924            2160.00
00925            2160.00
00926            2160.00
00927            2080.00
00928            2080.00
00929            2000.00
00930            1840.00
00931            1840.00
00932            1840.00
00933            1760.00
00934            1680.00
00935            1680.00
00936            1600.00
00937            1520.00
00938            1440.00
00939            1520.00
00940            1360.00
00941            1360.00
00942            1360.00
00943            1200.00
00944            1200.00
00945            1200.00
00946            1200.00
00947            1120.00
00948            1040.00
00949            1040.00
00950             880.00
00951             880.00
00952             800.00
00953             800.00
00954             720.00
00955             720.00
00956             640.00
00957             560.00
00958             560.00
00959             560.00
00960             480.00
00961             400.00
00962             320.00
00963             400.00
00964             240.00
00965             160.00
00966             160.00
00967             160.00
00968              80.00
00969              80.00
00970             -80.00
00971            -160.00
00972            -160.00
00973            -160.00
00974            -240.00
00975            -240.00
00976            -400.00
00977            -400.00
00978            -480.00
00979            -480.00
00980            -560.00
00981            -720.00
00982            -560.00
00983            -720.00
00984            -800.00
00985            -800.00
00986            -880.00
00987            -880.00
00988            -880.00
00989           -1040.00
00990           -1120.00
00991           -1200.00
00992           -1200.00
00993           -1200.00
00994           -1200.00
00995           -1360.00
00996           -1440.00
00997           -1520.00
00998           -1520.00
00999           -1520.00
01000           -1680.00
01001           -1680.00
01002           -1680.00
01003           -1760.00
01004           -1840.00
01005           -1840.00
01006           -1920.00
01007           -2000.00
01008           -2000.00
01009           -2080.00
01010           -2080.00
01011           -2160.00
01012           -2160.00
01013           -2160.00
01014           -2320.00
01015           -2400.00
01016           -2400.00
01017           -2400.00
01018           -2480.00
01019           -2480.00
01020           -2640.00
01021           -2640.00
01022           -2640.00
01023           -2720.00
01024           -2800.00
01025           -2800.00
01026           -2800.00
01027           -2960.00
01028           -3040.00
01029           -3040.00
01030           -3040.00
01031           -3120.00
01032           -3120.00
01033           -3200.00
01034           -3280.00
01035           -3360.00
01036           -3360.00
01037           -3360.00
01038           -3440.00
01039           -3440.00
01040           -3600.00
01041           -3600.00
01042           -3600.00
01043           -3680.00
01044           -3680.00
01045           -3760.00
01046           -3760.00
01047           -3920.00
01048           -4000.00
01049           -4000.00
01050           -4000.00
01051           -4080.00
01052           -4080.00
01053           -4080.00
01054           -4240.00
01055           -4240.00
01056           -4320.00
01057           -4320.00
01058           -4400.00
01059           -4400.00
01060           -4480.00
01061           -4560.00
01062           -4560.00
01063           -4560.00
01064           -4640.00
01065           -4720.00
01066           -4720.00
01067           -4720.00
01068           -4800.00
01069           -4880.00
01070           -4880.00
01071           -4960.00
01072           -4960.00
01073           -4960.00
01074           -5040.00
01075           -4960.00
01076           -5120.00
01077           -5120.00
01078           -5200.00
01079           -5200.00
01080           -5280.00
01081           -5280.00
01082           -5360.00
01083           -5360.00
01084           -5360.00
01085           -5520.00
01086           -5520.00
01087           -5520.00
01088           -5600.00
01089           -5600.00
01090           -5600.00
01091           -5600.00
01092           -5840.00
01093           -5680.00
01094           -5840.00
01095           -5840.00
01096           -5920.00
01097           -5920.00
01098           -5920.00
01099           -5920.00
01100           -6000.00
01101           -6000.00
01102           -6080.00
01103           -6160.00
01104           -6160.00
01105           -6240.00
01106           -6240.00
01107           -6240.00
01108           -6240.00
01109           -6320.00
01110           -6320.00
01111           -6320.00
01112           -6480.00
01113           -6400.00
01114           -6480.00
01115           -6560.00
01116           -6560.00
01117           -6640.00
01118           -6560.00
01119           -6640.00
01120           -6640.00
01121           -6640.00
01122           -6800.00
01123           -6880.00
01124           -6880.00
01125           -6880.00
01126           -6880.00
01127           -6960.00
01128           -6880.00
01129           -6960.00
01130           -6960.00
01131           -6960.00
01132           -6960.00
01133           -7120.00
01134           -7120.00
01135           -7120.00
01136           -7120.00
01137           -7200.00
01138           -7200.00
01139           -7200.00
01140           -7200.00
01141           -7280.00
01142           -7280.00
01143           -7280.00
01144           -7280.00
01145           -7360.00
01146           -7440.00
01147           -7360.00
01148           -7440.00
01149           -7440.00
01150           -7520.00
01151           -7520.00
01152           -7520.00
01153           -7520.00
01154           -7520.00
01155           -7600.00
01156           -7600.00
01157           -7600.00
01158           -7600.00
01159           -7600.00
01160           -7600.00
01161           -7680.00
01162           -7680.00
01163           -7680.00
01164           -7600.00
01165           -7760.00
01166           -7760.00
01167           -7840.00
01168           -7840.00
01169           -7760.00
01170           -7840.00
01171           -7840.00
01172           -7840.00
01173           -7920.00
01174           -7920.00
01175           -7920.00
01176           -7920.00
01177           -7920.00
01178           -7920.00
01179           -7920.00
01180           -8000.00
01181           -8080.00
01182           -8000.00
01183           -8080.00
01184           -8000.00
01185           -8080.00
01186           -8080.00
01187           -8080.00
01188           -8080.00
01189           -8160.00
01190           -8160.00
01191           -8160.00
01192           -8160.00
01193           -8160.00
01194           -8160.00
01195           -8160.00
01196           -8160.00
01197           -8240.00
01198           -8160.00
01199           -8160.00
01200           -8160.00
01201           -8160.00
01202           -8240.00
01203           -8240.00
01204           -8160.00
01205           -8240.00
01206           -8240.00
01207           -8240.00
01208           -8240.00
01209           -8240.00
01210           -8240.00
01211           -8240.00
01212           -8240.00
01213           -8240.00
01214           -8240.00
01215           -8240.00
01216           -8240.00
01217           -8240.00
01218           -8240.00
01219           -8240.00
01220           -8240.00
01221           -8240.00
01222           -8240.00
01223           -8240.00
01224           -8240.00
01225           -8240.00
01226           -8160.00
01227           -8240.00
01228           -8240.00
01229           -8240.00
01230           -8240.00
01231           -8240.00
01232           -8160.00
01233           -8240.00
01234           -8240.00
01235           -8160.00
01236           -8240.00
01237           -8240.00
01238           -8160.00
01239           -8240.00
01240           -8160.00
01241           -8160.00
01242           -8160.00
01243           -8160.00
01244           -8160.00
01245           -8160.00
01246           -8160.00
01247           -8160.00
01248           -8160.00
01249           -8160.00
01250           -8160.00
01251           -8160.00
01252           -8160.00
01253           -8160.00
01254           -8080.00
01255           -8080.00
01256           -8080.00
01257           -8080.00
01258           -8160.00
01259           -8080.00
01260           -8080.00
01261           -8000.00
01262           -7920.00
01263           -8000.00
01264           -7920.00
01265           -8000.00
01266           -7920.00
01267           -8000.00
01268           -7920.00
01269           -7920.00
01270           -7920.00
01271           -7920.00
01272           -7840.00
01273           -7920.00
01274           -7840.00
01275           -7760.00
01276           -7760.00
01277           -7760.00
01278           -7840.00
01279           -7760.00
01280           -7760.00
01281           -7760.00
01282           -7760.00
01283           -7600.00
01284           -7600.00
01285           -7680.00
01286           -7600.00
01287           -7600.00
01288           -7600.00
01289           -7600.00
01290           -7520.00
01291           -7520.00
01292           -7520.00
01293           -7520.00
01294           -7440.00
01295           -7440.00
01296           -7440.00
01297           -7280.00
01298           -7440.00
01299           -7280.00
01300           -7280.00
01301           -7280.00
01302           -7280.00
01303           -7200.00
01304           -7200.00
01305           -7200.00
01306           -7200.00
01307           -7120.00
01308           -7120.00
01309           -7120.00
01310           -7040.00
01311           -7120.00
01312           -6960.00
01313           -6960.00
01314           -6960.00
01315           -6880.00
01316           -6880.00
01317           -6880.00
01318           -6880.00
01319           -6800.00
01320           -6800.00
01321           -6800.00
01322           -6800.00
01323           -6640.00
01324           -6720.00
01325           -6640.00
01326           -6640.00
01327           -6560.00
01328           -6560.00
01329           -6560.00
01330           -6480.00
01331           -6480.00
01332           -6480.00
01333           -6320.00
01334           -6320.00
01335           -6320.00
01336           -6320.00
01337           -6240.00
01338           -6240.00
01339           -6160.00
01340           -6160.00
01341           -6160.00
01342           -6080.00
01343           -6000.00
01344           -6000.00
01345           -6000.00
01346           -6000.00
01347           -5920.00
01348           -5840.00
01349           -5840.00
01350           -5840.00
01351           -5840.00
01352           -5680.00
01353           -5680.00
01354           -5600.00
01355           -5600.00
01356           -5600.00
01357           -5520.00
01358           -5600.00
01359           -5440.00
01360           -5360.00
01361           -5360.00
01362           -5360.00
01363           -5360.00
01364           -5280.00
01365           -5200.00
01366           -5200.00
01367           -5200.00
01368           -5040.00
01369           -5040.00
01370           -5040.00
01371           -4960.00
01372           -4960.00
01373           -4880.00
01374           -4880.00
01375           -4880.00
01376           -4720.00
01377           -4880.00
01378           -4720.00
01379           -4640.00
01380           -4640.00
01381           -4640.00
01382           -4560.00
01383           -4560.00
01384           -4400.00
01385           -4400.00
01386           -4320.00
01387           -4320.00
01388           -4320.00
01389           -4320.00
01390           -4240.00
01391           -4080.00
01392           -4080.00
01393           -4080.00
01394           -4080.00
01395           -4000.00
01396           -4000.00
01397           -3920.00
01398           -3840.00
01399           -3920.00
01400           -3760.00
01401           -3680.00
01402           -3680.00
01403           -3680.00
01404           -3680.00
01405           -3520.00
01406           -3440.00
01407           -3440.00
01408           -3440.00
01409           -3360.00
01410           -3360.00
01411           -3280.00
01412           -3280.00
01413           -3200.00
01414           -3120.00
01415           -3040.00
01416           -3040.00
01417           -2960.00
01418           -2960.00
01419           -2960.00
01420           -2800.00
01421           -2800.00
01422           -2720.00
01423           -2720.00
01424           -2640.00
01425           -2640.00
01426           -2480.00
01427           -2480.00
01428           -2480.00
01429           -2480.00
01430           -2400.00
01431           -2320.00
01432           -2320.00
01433           -2160.00
01434           -2160.00
01435           -2080.00
01436           -2080.00
01437           -2000.00
01438           -2000.00
01439           -2000.00
01440           -1840.00
01441           -1840.00
01442           -1760.00
01443           -1760.00
01444           -1680.00
01445           -1680.00
01446           -1680.00
01447           -1520.00
01448           -1520.00
01449           -1440.00
01450           -1440.00
01451           -1360.00
01452           -1280.00
01453           -1200.00
01454           -1200.00
01455           -1120.00
01456           -1120.00
01457           -1120.00
01458           -1040.00
01459           -1040.00
01460            -880.00
01461            -880.00
01462            -800.00
01463            -800.00
01464            -720.00
01465            -640.00
01466            -560.00
01467            -560.00
01468            -480.00
01469            -480.00
01470            -400.00
01471            -400.00
01472            -240.00
01473            -240.00
01474            -240.00
01475            -160.00
01476            -160.00
01477             -80.00
01478              80.00
01479              80.00
01480             160.00
01481             160.00
01482             160.00
01483             240.00
01484             320.00
01485             400.00
01486             400.00
01487             480.00
01488             560.00
01489             560.00
01490             720.00
01491             720.00
01492             720.00
01493             800.00
01494             800.00
01495             880.00
01496             880.00
01497             960.00
01498            1040.00
01499            1120.00
01500            1040.00
01501            1200.00
01502            1200.00
01503            1360.00
01504            1360.00
01505            1440.00
01506            1440.00
01507            1440.00
01508            1520.00
01509            1520.00
01510            1600.00
01511            1680.00
01512            1680.00
01513            1760.00
01514            1760.00
01515            1840.00
01516            1920.00
01517            2080.00
01518            2080.00
01519            2080.00
01520            2080.00
01521            2160.00
01522            2160.00
01523            2320.00
01524            2320.00
01525            2320.00
01526            2400.00
01527            2480.00
01528            2480.00
01529            2640.00
01530            2560.00
01531            2640.00
01532            2720.00
01533            2720.00
01534            2800.00
01535            2800.00
01536            2960.00
01537            2960.00
01538            3040.00
01539            3040.00
01540            3120.00
01541            3200.00
01542            3200.00
01543            3280.00
01544            3280.00
01545            3360.00
01546            3360.00
01547            3440.00
01548            3600.00
01549            3600.00
01550            3600.00
01551            3680.00
01552            3760.00
01553            3760.00
01554            3760.00
01555            3840.00
01556            3920.00
01557            4000.00
01558            3920.00
01559            4000.00
01560            4000.00
01561            4080.00
01562            4240.00
01563            4160.00
01564            4240.00
01565            4240.00
01566            4320.00
01567            4320.00
01568            4320.00
01569            4400.00
01570            4480.00
01571            4400.00
01572            4640.00
01573            4640.00
01574            4640.00
01575            4640.00
01576            4720.00
01577            4720.00
01578            4880.00
01579            4880.00
01580            4880.00
01581            4960.00
01582            4960.00
01583            4960.00
01584            5040.00
01585            5120.00
01586            5200.00
01587            5200.00
01588            5200.00
01589            5360.00
01590            5280.00
01591            5280.00
01592            5360.00
01593            5360.00
01594            5520.00
01595            5520.00
01596            5520.00
01597            5600.00
01598            5600.00
01599            5680.00
01600            5680.00
01601            5760.00
01602            5840.00
01603            5840.00
01604            5840.00
01605            5920.00
01606            5920.00
01607            6000.00
01608            6000.00
01609            6000.00
01610            6080.00
01611            6160.00
01612            6240.00
01613            6160.00
01614            6240.00
01615            6240.00
01616            6320.00
01617            6320.00
01618            6320.00
01619            6400.00
01620            6480.00
01621            6480.00
01622            6480.00
01623            6560.00
01624            6560.00
01625            6560.00
01626            6560.00
01627            6560.00
01628            6640.00
01629            6640.00
01630            6800.00
01631            6800.00
01632            6800.00
01633            6800.00
01634            6880.00
01635            6800.00
01636            6880.00
01637            6880.00
01638            6880.00
01639            6960.00
01640            6960.00
01641            7040.00
01642            7120.00
01643            7120.00
01644            7120.00
01645            7200.00
01646            7120.00
01647            7200.00
01648            7200.00
01649            7200.00
01650            7200.00
01651            7280.00
01652            7360.00
01653            7360.00
01654            7360.00
01655            7280.00
01656            7440.00
01657            7440.00
01658            7440.00
01659            7440.00
01660            7440.00
01661            7520.00
01662            7520.00
01663            7520.00
01664            7520.00
01665            7600.00
01666            7600.00
01667            7680.00
01668            7600.00
01669            7680.00
01670            7760.00
01671            7760.00
01672            7760.00
01673            7760.00
01674            7840.00
01675            7840.00
01676            7840.00
01677            7840.00
01678            7840.00
01679            7920.00
01680            7840.00
01681            7920.00
01682            7920.00
01683            7920.00
01684            7920.00
01685            7920.00
01686            7920.00
01687            8080.00
01688            8080.00
01689            8080.00
01690            8080.00
01691            8080.00
01692            8080.00
01693            8080.00
01694            8160.00
01695            8080.00
01696            8080.00
01697            8080.00
01698            8160.00
01699            8160.00
01700            8160.00
01701            8080.00
01702            8160.00
01703            8160.00
01704            8160.00
01705            8160.00
01706            8160.00
01707            8160.00
01708            8240.00
01709            8160.00
01710            8240.00
01711            8240.00
01712            8160.00
01713            8160.00
01714            8240.00
01715            8160.00
01716            8240.00
01717            8240.00
01718            8240.00
01719            8240.00
01720            8240.00
01721            8240.00
01722            8240.00
01723            8240.00
01724            8400.00
01725            8240.00
01726            8240.00
01727            8240.00
01728            8240.00
01729            8320.00
01730            8240.00
01731            8320.00
01732            8240.00
01733            8320.00
01734            8240.00
01735            8240.00
01736            8240.00
01737            8320.00
01738            8320.00
01739            8240.00
01740            8240.00
01741            8240.00
01742            8240.00
01743            8240.00
01744            8320.00
01745            8240.00
01746            8240.00
01747            8240.00
01748            8240.00
01749            8240.00
01750            8240.00
01751            8240.00
01752            8240.00
01753            8240.00
01754            8240.00
01755            8160.00
01756            8160.00
01757            8160.00
01758            8240.00
01759            8160.00
01760            8160.00
01761            8160.00
01762            8160.00
01763            8160.00
01764            8080.00
01765            8080.00
01766            8080.00
01767            8080.00
01768            8080.00
01769            8080.00
01770            8080.00
01771            8080.00
01772            8000.00
01773            8000.00
01774            8000.00
01775            7920.00
01776            7920.00
01777            7920.00
01778            7920.00
01779            7920.00
01780            7840.00
01781            7840.00
01782            7840.00
01783            7840.00
01784            7760.00
01785            7840.00
01786            7840.00
01787            7760.00
01788            7760.00
01789            7840.00
01790            7760.00
01791            7760.00
01792            7760.00
01793            7760.00
01794            7600.00
01795            7600.00
01796            7680.00
01797            7600.00
01798            7600.00
01799            7600.00
01800            7520.00
01801            7520.00
01802            7520.00
01803            7520.00
01804            7440.00
01805            7440.00
01806            7440.00
01807            7440.00
01808            7440.00
01809            7440.00
01810            7440.00
01811            7280.00
01812            7280.00
01813            7280.00
01814            7280.00
01815            7200.00
01816            7200.00
01817            7200.00
01818            7120.00
01819            7120.00
01820            7120.00
01821            7120.00
01822            6960.00
01823            6960.00
01824            6960.00
01825            6960.00
01826            6880.00
01827            6880.00
01828            6880.00
01829            6880.00
01830            6800.00
01831            6800.00
01832            6800.00
01833            6640.00
01834            6640.00
01835            6640.00
01836            6560.00
01837            6560.00
01838            6560.00
01839            6480.00
01840            6480.00
01841            6480.00
01842            6480.00
01843            6480.00
01844            6320.00
01845            6320.00
01846            6320.00
01847            6240.00
01848            6240.00
01849            6240.00
01850            6160.00
01851            6080.00
01852            6160.00
01853            6080.00
01854            6000.00
01855            6000.00
01856            6000.00
01857            5920.00
01858            5920.00
01859            5920.00
01860            5840.00
01861            5840.00
01862            5680.00
01863            5760.00
01864            5680.00
01865            5600.00
01866            5600.00
01867            5520.00
01868            5520.00
01869            5520.00
01870            5520.00
01871            5440.00
01872            5440.00
01873            5360.00
01874            5280.00
01875            5280.00
01876            5280.00
01877            5200.00
01878            5200.00
01879            5120.00
01880            5040.00
01881            5040.00
01882            4960.00
01883            4960.00
01884            4880.00
01885            4880.00
01886            4800.00
01887            4800.00
01888            4720.00
01889            4720.00
01890            4640.00
01891            4640.00
01892            4640.00
01893            4560.00
01894            4400.00
01895            4480.00
01896            4320.00
01897            4320.00
01898            4240.00
01899            4240.00
01900            4240.00
01901            4160.00
01902            4080.00
01903            4080.00
01904            4000.00
01905            4000.00
01906            3920.00
01907            3920.00
01908            3920.00
01909            3760.00
01910            3760.00
01911            3680.00
01912            3680.00
01913            3600.00
01914            3600.00
01915            3600.00
01916            3440.00
01917            3440.00
01918            3360.00
01919            3360.00
01920            3360.00
01921            3280.00
01922            3280.00
01923            3200.00
01924            3120.00
01925            3120.00
01926            3040.00
01927            3040.00
01928            2960.00
01929            2960.00
01930            2960.00
01931            2800.00
01932            2720.00
01933            2720.00
01934            2640.00
01935            2640.00
01936            2480.00
01937            2480.00
01938            2480.00
01939            2400.00
01940            2400.00
01941            2320.00
01942            2320.00
01943            2240.00
01944            2160.00
01945            2160.00
01946            2080.00
01947            2080.00
01948            2000.00
01949            2000.00
01950            1840.00
01951            1840.00
01952            1840.00
01953            1760.00
01954            1760.00
01955            1680.00
01956            1680.00
01957            1680.00
01958            1440.00
01959            1440.00
01960            1360.00
01961            1360.00
01962            1280.00
01963            1200.00
01964            1120.00
01965            1120.00
01966            1040.00
01967            1040.00
01968            1040.00
01969             880.00
01970             800.00
01971             880.00
01972             800.00
01973             800.00
01974             720.00
01975             720.00
01976             640.00
01977             560.00
01978             400.00
01979             480.00
01980             400.00
01981             400.00
01982             240.00
01983             240.00
01984             160.00
01985             160.00
01986             160.00
01987              80.00
01988               0.00
01989             -80.00
01990             -80.00
01991            -160.00
01992            -160.00
01993            -240.00
01994            -320.00
01995            -400.00
01996            -400.00
01997            -480.00
01998            -560.00
01999            -640.00
02000            -720.00
02001            -560.00
02002            -560.00
02003            -800.00
02004            -880.00
02005            -880.00
02006            -880.00
02007            -880.00
02008            -960.00
02009           -1040.00
02010           -1120.00
02011           -1120.00
02012           -1200.00
02013           -1200.00
02014           -1440.00
02015           -1440.00
02016           -1440.00
02017           -1440.00
02018           -1520.00
02019           -1520.00
02020           -1680.00
02021           -1680.00
02022           -1760.00
02023           -1760.00
02024           -1840.00
02025           -1840.00
02026           -2000.00
02027           -2000.00
02028           -2080.00
02029           -2080.00
02030           -2160.00
02031           -2160.00
02032           -2320.00
02033           -2320.00
02034           -2400.00
02035           -2400.00
02036           -2400.00
02037           -2480.00
02038           -2480.00
02039           -2640.00
02040           -2640.00
02041           -2720.00
02042           -2800.00
02043           -2800.00
02044           -2800.00
02045           -2960.00
02046           -2960.00
02047           -3040.00
02048           -3040.00
02049           -3040.00
02050           -3120.00
02051           -3200.00
02052           -3280.00
02053           -3280.00
02054           -3360.00
02055           -3440.00
02056           -3440.00
02057           -3440.00
02058           -3520.00
02059           -3520.00
02060           -3600.00
02061           -3600.00
02062           -3680.00
02063           -3680.00
02064           -3760.00
02065           -3760.00
02066           -3920.00
02067           -3920.00
02068           -4000.00
02069           -4000.00
02070           -4000.00
02071           -4080.00
02072           -4080.00
02073           -4080.00
02074           -4240.00
02075           -4240.00
02076           -4320.00
02077           -4400.00
02078           -4400.00
02079           -4400.00
02080           -4480.00
02081           -4480.00
02082           -4560.00
02083           -4640.00
02084           -4640.00
02085           -4720.00
02086           -4720.00
02087           -4720.00
02088           -4880.00
02089           -4880.00
02090           -4960.00
02091           -4960.00
02092           -4960.00
02093           -5040.00
02094           -5120.00
02095           -5200.00
02096           -5200.00
02097           -5280.00
02098           -5280.00
02099           -5280.00
02100           -5360.00
02101           -5360.00
02102           -5360.00
02103           -5440.00
02104           -5440.00
02105           -5520.00
02106           -5600.00
02107           -5600.00
02108           -5680.00
02109           -5680.00
02110           -5680.00
02111           -5760.00
02112           -5680.00
02113           -5840.00
02114           -5920.00
02115           -5920.00
02116           -5920.00
02117           -6000.00
02118           -6000.00
02119           -6000.00
02120           -6000.00
02121           -6000.00
02122           -6160.00
02123           -6240.00
02124           -6240.00
02125           -6240.00
02126           -6240.00
02127           -6240.00
02128           -6320.00
02129           -6320.00
02130           -6320.00
02131           -6480.00
02132           -6400.00
02133           -6480.00
02134           -6480.00
02135           -6560.00
02136           -6560.00
02137           -6560.00
02138           -6560.00
02139           -6640.00
02140           -6640.00
02141           -6800.00
02142           -6800.00
02143           -6800.00
02144           -6800.00
02145           -6880.00
02146           -6880.00
02147           -6960.00
02148           -6880.00
02149           -6960.00
02150           -6960.00
02151           -6960.00
02152           -7120.00
02153           -6960.00
02154           -7040.00
02155           -7120.00
02156           -7200.00
02157           -7200.00
02158           -7200.00
02159           -7280.00
02160           -7200.00
02161           -7280.00
02162           -7280.00
02163           -7360.00
02164           -7360.00
02165           -7440.00
02166           -7280.00
02167           -7520.00
02168           -7440.00
02169           -7520.00
02170           -7520.00
02171           -7520.00
02172           -7520.00
02173           -7520.00
02174           -7600.00
02175           -7600.00
02176           -7600.00
02177           -7600.00
02178           -7600.00
02179           -7600.00
02180           -7760.00
02181           -7760.00
02182           -7760.00
02183           -7760.00
02184           -7840.00
02185           -7840.00
02186           -7840.00
02187           -7840.00
02188           -7840.00
02189           -7840.00
02190           -7840.00
02191           -7920.00
02192           -7920.00
02193           -7920.00
02194           -7920.00
02195           -7920.00
02196           -7920.00
02197           -7920.00
02198           -7920.00
02199           -7920.00
02200           -7920.00
02201           -8080.00
02202           -8000.00
02203           -8080.00
02204           -8080.00
02205           -8000.00
02206           -8160.00
02207           -8080.00
02208           -8080.00
02209           -8080.00
02210           -8160.00
02211           -8080.00
02212           -8160.00
02213           -8080.00
02214           -8160.00
02215           -8160.00
02216           -8160.00
02217           -8160.00
02218           -8160.00
02219           -8160.00
02220           -8160.00
02221           -8160.00
02222           -8240.00
02223           -8240.00
02224           -8160.00
02225           -8240.00
02226           -8240.00
02227           -8240.00
02228           -8240.00
02229           -8240.00
02230           -8240.00
02231           -8240.00
02232           -8240.00
02233           -8240.00
02234           -8240.00
02235           -8240.00
02236           -8240.00
02237           -8240.00
02238           -8240.00
02239           -8240.00
02240           -8240.00
02241           -8240.00
02242           -8240.00
02243           -8320.00
02244           -8240.00
02245           -8240.00
02246           -8240.00
02247           -8320.00
02248           -8240.00
02249           -8240.00
02250           -8160.00
02251           -8240.00
02252           -8160.00
02253           -8160.00
02254           -8240.00
02255           -8160.00
02256           -8240.00
02257           -8240.00
02258           -8160.00
02259           -8240.00
02260           -8160.00
02261           -8160.00
02262           -8160.00
02263           -8160.00
02264           -8160.00
02265           -8160.00
02266           -8160.00
02267           -8160.00
02268           -8160.00
02269           -8160.00
02270           -8160.00
02271           -8160.00
02272           -8160.00
02273           -8080.00
02274           -8080.00
02275           -8080.00
02276           -8160.00
02277           -8080.00
02278           -8000.00
02279           -7920.00
02280           -7920.00
02281           -8000.00
02282           -7920.00
02283           -7920.00
02284           -7920.00
02285           -7920.00
02286           -7920.00
02287           -7920.00
02288           -7920.00
02289           -7920.00
02290           -7920.00
02291           -7920.00
02292           -7840.00
02293           -7840.00
02294           -7840.00
02295           -7760.00
02296           -7840.00
02297           -7760.00
02298           -7760.00
02299           -7760.00
02300           -7760.00
02301           -7760.00
02302           -7680.00
02303           -7600.00
02304           -7600.00
02305           -7600.00
02306           -7600.00
02307           -7520.00
02308           -7600.00
02309           -7520.00
02310           -7520.00
02311           -7520.00
02312           -7520.00
02313           -7520.00
02314           -7440.00
02315           -7440.00
02316           -7440.00
02317           -7360.00
02318           -7280.00
02319           -7280.00
02320           -7200.00
02321           -7280.00
02322           -7280.00
02323           -7200.00
02324           -7200.00
02325           -7200.00
02326           -7120.00
02327           -7120.00
02328           -7120.00
02329           -6960.00
02330           -6960.00
02331           -6960.00
02332           -6960.00
02333           -6960.00
02334           -6880.00
02335           -6880.00
02336           -6880.00
02337           -6880.00
02338           -6880.00
02339           -6800.00
02340           -6800.00
02341           -6640.00
02342           -6720.00
02343           -6640.00
02344           -6640.00
02345           -6640.00
02346           -6560.00
02347           -6560.00
02348           -6480.00
02349           -6480.00
02350           -6480.00
02351           -6320.00
02352           -6480.00
02353           -6320.00
02354           -6320.00
02355           -6320.00
02356           -6240.00
02357           -6320.00
02358           -6240.00
02359           -6240.00
02360           -6160.00
02361           -6160.00
02362           -6080.00
02363           -6000.00
02364           -6000.00
02365           -5920.00
02366           -6000.00
02367           -5920.00
02368           -5920.00
02369           -5840.00
02370           -5840.00
02371           -5680.00
02372           -5680.00
02373           -5600.00
02374           -5680.00
02375           -5600.00
02376           -5600.00
02377           -5520.00
02378           -5520.00
02379           -5360.00
02380           -5360.00
02381           -5360.00
02382           -5360.00
02383           -5280.00
02384           -5280.00
02385           -5200.00
02386           -5200.00
02387           -5120.00
02388           -5200.00
02389           -5040.00
02390           -5040.00
02391           -4960.00
02392           -4960.00
02393           -4960.00
02394           -4800.00
02395           -4880.00
02396           -4720.00
02397           -4720.00
02398           -4640.00
02399           -4640.00
02400           -4640.00
02401           -4560.00
02402           -4560.00
02403           -4400.00
02404           -4400.00
02405           -4320.00
02406           -4320.00
02407           -4320.00
02408           -4240.00
02409           -4240.00
02410           -4240.00
02411           -4080.00
02412           -4080.00
02413           -4000.00
02414           -4000.00
02415           -3920.00
02416           -3920.00
02417           -3760.00
02418           -3760.00
02419           -3760.00
02420           -3760.00
02421           -3680.00
02422           -3680.00
02423           -3600.00
02424           -3600.00
02425           -3520.00
02426           -3440.00
02427           -3440.00
02428           -3360.00
02429           -3360.00
02430           -3360.00
02431           -3280.00
02432           -3120.00
02433           -3120.00
02434           -3120.00
02435           -3040.00
02436           -3040.00
02437           -3040.00
02438           -2960.00
02439           -2880.00
02440           -2800.00
02441           -2800.00
02442           -2800.00
02443           -2720.00
02444           -2640.00
02445           -2640.00
02446           -2480.00
02447           -2480.00
02448           -2400.00
02449           -2400.00
02450           -2320.00
02451           -2320.00
02452           -2160.00
02453           -2160.00
02454           -2160.00
02455           -2080.00
02456           -2080.00
02457           -2000.00
02458           -2000.00
02459           -1840.00
02460           -1840.00
02461           -1760.00
02462           -1760.00
02463           -1680.00
02464           -1680.00
02465           -1520.00
02466           -1520.00
02467           -1520.00
02468           -1440.00
02469           -1440.00
02470           -1200.00
02471           -1360.00
02472           -1200.00
02473           -1120.00
02474           -1120.00
02475           -1120.00
02476           -1040.00
02477            -960.00
02478            -880.00
02479            -880.00
02480            -880.00
02481            -800.00
02482            -800.00
02483            -720.00
02484            -640.00
02485            -560.00
02486            -560.00
02487            -560.00
02488            -480.00
02489            -400.00
02490            -400.00
02491            -240.00
02492            -240.00
02493            -160.00
02494            -160.00
02495            -160.00
02496             -80.00
02497             -80.00
02498              80.00
02499              80.00
02500              80.00
02501             160.00
02502             160.00
02503             320.00
02504             400.00
02505             400.00
02506             400.00
02507             480.00
02508             560.00
02509             560.00
02510             640.00
02511             720.00
02512             720.00
02513             880.00
02514             880.00
02515             880.00
02516            1040.00
02517            1040.00
02518            1040.00
02519            1120.00
02520            1120.00
02521            1200.00
02522            1280.00
02523            1360.00
02524            1440.00
02525            1440.00
02526            1440.00
02527            1520.00
02528            1680.00
02529            1680.00
02530            1680.00
02531            1760.00
02532            1760.00
02533            1760.00
02534            1840.00
02535            1920.00
02536            2080.00
02537            2080.00
02538            2080.00
02539            2160.00
02540            2160.00
02541            2240.00
02542            2320.00
02543            2320.00
02544            2320.00
02545            2400.00
02546            2480.00
02547            2640.00
02548            2640.00
02549            2640.00
02550            2640.00
02551            2720.00
02552            2720.00
02553            2800.00
02554            2880.00
02555            2960.00
02556            2960.00
02557            3040.00
02558            3040.00
02559            3120.00
02560            3120.00
02561            3200.00
02562            3280.00
02563            3280.00
02564            3280.00
02565            3360.00
02566            3360.00
02567            3440.00
02568            3440.00
02569            3600.00
02570            3600.00
02571            3680.00
02572            3680.00
02573            3760.00
02574            3760.00
02575            3920.00
02576            3920.00
02577            4000.00
02578            4000.00
02579            4080.00
02580            4080.00
02581            4160.00
02582            4160.00
02583            4240.00
02584            4240.00
02585            4320.00
02586            4320.00
02587            4400.00
02588            4400.00
02589            4480.00
02590            4560.00
02591            4640.00
02592            4640.00
02593            4640.00
02594            4720.00
02595            4720.00
02596            4800.00
02597            4880.00
02598            4880.00
02599            4880.00
02600            4960.00
02601            4960.00
02602            5040.00
02603            5040.00
02604            5040.00
02605            5200.00
02606            5200.00
02607            5280.00
02608            5280.00
02609            5360.00
02610            5360.00
02611            5440.00
02612            5520.00
02613            5440.00
02614            5520.00
02615            5600.00
02616            5600.00
02617            5600.00
02618            5600.00
02619            5680.00
02620            5840.00
02621            5680.00
02622            5840.00
02623            5840.00
02624            5840.00
02625            5920.00
02626            6000.00
02627            5920.00
02628            6000.00
02629            6160.00
02630            6000.00
02631            6160.00
02632            6160.00
02633            6160.00
02634            6240.00
02635            6240.00
02636            6240.00
02637            6320.00
02638            6320.00
02639            6320.00
02640            6480.00
02641            6480.00
02642            6480.00
02643            6480.00
02644            6560.00
02645            6560.00
02646            6560.00
02647            6640.00
02648            6640.00
02649            6640.00
02650            6800.00
02651            6800.00
02652            6800.00
02653            6800.00
02654            6880.00
02655            6880.00
02656            6880.00
02657            6960.00
02658            6960.00
02659            6960.00
02660            7120.00
02661            7120.00
02662            7120.00
02663            7120.00
02664            7120.00
02665            7120.00
02666            7200.00
02667            7200.00
02668            7200.00
02669            7280.00
02670            7360.00
02671            7440.00
02672            7360.00
02673            7440.00
02674            7440.00
02675            7440.00
02676            7440.00
02677            7440.00
02678            7440.00
02679            7520.00
02680            7520.00
02681            7440.00
02682            7520.00
02683            7520.00
02684            7520.00
02685            7600.00
02686            7600.00
02687            7600.00
02688            7600.00
02689            7680.00
02690            7760.00
02691            7760.00
02692            7760.00
02693            7760.00
02694            7840.00
02695            7760.00
02696            7760.00
02697            7760.00
02698            7840.00
02699            7840.00
02700            7840.00
02701            7920.00
02702            7840.00
02703            7920.00
02704            7920.00
02705            7920.00
02706            7920.00
02707            8080.00
02708            8000.00
02709            8080.00
02710            8080.00
02711            8080.00
02712            8080.00
02713            8080.00
02714            8080.00
02715            8080.00
02716            8080.00
02717            8160.00
02718            8160.00
02719            8160.00
02720            8160.00
02721            8160.00
02722            8160.00
02723            8160.00
02724            8240.00
02725            8160.00
02726            8160.00
02727            8160.00
02728            8160.00
02729            8240.00
02730            8240.00
02731            8240.00
02732            8240.00
02733            8240.00
02734            8240.00
02735            8240.00
02736            8240.00
02737            8240.00
02738            8240.00
02739            8240.00
02740            8240.00
02741            8320.00
02742            8240.00
02743            8240.00
02744            8240.00
02745            8240.00
02746            8240.00
02747            8240.00
02748            8240.00
02749            8240.00
02750            8320.00
02751            8320.00
02752            8320.00
02753            8240.00
02754            8240.00
02755            8240.00
02756            8240.00
02757            8240.00
02758            8240.00
02759            8240.00
02760            8160.00
02761            8240.00
02762            8240.00
02763            8240.00
02764            8240.00
02765            8240.00
02766            8240.00
02767            8240.00
02768            8160.00
02769            8240.00
02770            8240.00
02771            8240.00
02772            8160.00
02773            8240.00
02774            8160.00
02775            8160.00
02776            8160.00
02777            8160.00
02778            8160.00
02779            8160.00
02780            8160.00
02781            8160.00
02782            8080.00
02783            8160.00
02784            8160.00
02785            8080.00
02786            8080.00
02787            8080.00
02788            8080.00
02789            8080.00
02790            8080.00
02791            8080.00
02792            8080.00
02793            8080.00
02794            8000.00
02795            7920.00
02796            8000.00
02797            8000.00
02798            8000.00
02799            7920.00
02800            7840.00
02801            7920.00
02802            7840.00
02803            7840.00
02804            7840.00
02805            7840.00
02806            7840.00
02807            7760.00
02808            7760.00
02809            7760.00
02810            7760.00
02811            7760.00
02812            7680.00
02813            7680.00
02814            7680.00
02815            7600.00
02816            7600.00
02817            7520.00
02818            7600.00
02819            7520.00
02820            7520.00
02821            7440.00
02822            7520.00
02823            7440.00
02824            7440.00
02825            7440.00
02826            7440.00
02827            7440.00
02828            7360.00
02829            7360.00
02830            7280.00
02831            7280.00
02832            7200.00
02833            7200.00
02834            7200.00
02835            7200.00
02836            7200.00
02837            7120.00
02838            7120.00
02839            7120.00
02840            7120.00
02841            6960.00
02842            7040.00
02843            6960.00
02844            6960.00
02845            6880.00
02846            6880.00
02847            6880.00
02848            6880.00
02849            6800.00
02850            6800.00
02851            6720.00
02852            6800.00
02853            6640.00
02854            6640.00
02855            6640.00
02856            6560.00
02857            6560.00
02858            6560.00
02859            6560.00
02860            6480.00
02861            6480.00
02862            6480.00
02863            6400.00
02864            6480.00
02865            6320.00
02866            6240.00
02867            6240.00
02868            6160.00
02869            6240.00
02870            6160.00
02871            6160.00
02872            6080.00
02873            6000.00
02874            6000.00
02875            5920.00
02876            5920.00
02877            5920.00
02878            5840.00
02879            5840.00
02880            5840.00
02881            5840.00
02882            5680.00
02883            5680.00
02884            5600.00
02885            5520.00
02886            5600.00
02887            5520.00
02888            5520.00
02889            5440.00
02890            5440.00
02891            5280.00
02892            5360.00
02893            5280.00
02894            5280.00
02895            5200.00
02896            5200.00
02897            5200.00
02898            5040.00
02899            5040.00
02900            5040.00
02901            4960.00
02902            4960.00
02903            4880.00
02904            4880.00
02905            4880.00
02906            4880.00
02907            4720.00
02908            4640.00
02909            4640.00
02910            4560.00
02911            4560.00
02912            4560.00
02913            4560.00
02914            4400.00
02915            4400.00
02916            4320.00
02917            4320.00
02918            4240.00
02919            4240.00
02920            4240.00
02921            4240.00
02922            4080.00
02923            4000.00
02924            4000.00
02925            4000.00
02926            3920.00
02927            3920.00
02928            3920.00
02929            3760.00
02930            3760.00
02931            3680.00
02932            3600.00
02933            3600.00
02934            3600.00
02935            3600.00
02936            3440.00
02937            3440.00
02938            3360.00
02939            3360.00
02940            3280.00
02941            3280.00
02942            3120.00
02943            3120.00
02944            3040.00
02945            3040.00
02946            2960.00
02947            2960.00
02948            2880.00
02949            2800.00
02950            2800.00
02951            2720.00
02952            2720.00
02953            2640.00
02954            2640.00
02955            2640.00
02956            2480.00
02957            2480.00
02958            2400.00
02959            2400.00
02960            2320.00
02961            2240.00
02962            2240.00
02963            2160.00
02964            2080.00
02965            2080.00
02966            2080.00
02967            2000.00
02968            2000.00
02969            1840.00
02970            1840.00
02971            1760.00
02972            1680.00
02973            1680.00
02974            1680.00
02975            1600.00
02976            1520.00
02977            1520.00
02978            1440.00
02979            1360.00
02980            1440.00
02981            1360.00
02982            1200.00
02983            1200.00
02984            1200.00
02985            1040.00
02986            1120.00
02987            1040.00
02988             880.00
02989             880.00
02990             880.00
02991             800.00
02992             720.00
02993             720.00
02994             720.00
02995             560.00
02996             560.00
02997             480.00
02998             480.00
02999             400.00
03000             400.00
03001             240.00
03002             160.00
03003             160.00
03004             160.00
03005              80.00
03006              80.00
03007               0.00
03008             -80.00
03009            -160.00
03010            -160.00
03011            -240.00
03012            -240.00
03013            -240.00
03014            -400.00
03015            -480.00
03016            -400.00
03017            -480.00
03018            -560.00
03019            -720.00
03020            -720.00
03021            -640.00
03022            -800.00
03023            -800.00
03024            -880.00
03025            -880.00
03026           -1040.00
03027            -960.00
03028           -1120.00
03029           -1120.00
03030           -1200.00
03031           -1200.00
03032           -1200.00
03033           -1360.00
03034           -1440.00
03035           -1440.00
03036           -1440.00
03037           -1440.00
03038           -1680.00
03039           -1680.00
03040           -1760.00
03041           -1760.00
03042           -1760.00
03043           -1840.00
03044           -1840.00
03045           -2000.00
03046           -1840.00
03047           -2000.00
03048           -2080.00
03049           -2080.00
03050           -2080.00
03051           -2160.00
03052           -2160.00
03053           -2400.00
03054           -2400.00
03055           -2400.00
03056           -2480.00
03057           -2480.00
03058           -2640.00
03059           -2640.00
03060           -2720.00
03061           -2720.00
03062           -2800.00
03063           -2800.00
03064           -2880.00
03065           -2960.00
03066           -2960.00
03067           -3040.00
03068           -3040.00
03069           -3120.00
03070           -3120.00
03071           -3280.00
03072           -3280.00
03073           -3360.00
03074           -3360.00
03075           -3360.00
03076           -3440.00
03077           -3440.00
03078           -3600.00
03079           -3600.00
03080           -3600.00
03081           -3680.00
03082           -3760.00
03083           -3760.00
03084           -3920.00
03085           -3920.00
03086           -3840.00
03087           -4000.00
03088           -4000.00
03089           -4000.00
03090           -4080.00
03091           -4160.00
03092           -4160.00
03093           -4240.00
03094           -4320.00
03095           -4320.00
03096           -4320.00
03097           -4400.00
03098           -4400.00
03099           -4480.00
03100           -4480.00
03101           -4560.00
03102           -4640.00
03103           -4640.00
03104           -4640.00
03105           -4720.00
03106           -4720.00
03107           -4880.00
03108           -4880.00
03109           -4880.00
03110           -4960.00
03111           -4960.00
03112           -4960.00
03113           -5040.00
03114           -5040.00
03115           -5120.00
03116           -5120.00
03117           -5200.00
03118           -5280.00
03119           -5280.00
03120           -5360.00
03121           -5360.00
03122           -5360.00
03123           -5520.00
03124           -5440.00
03125           -5600.00
03126           -5600.00
03127           -5600.00
03128           -5600.00
03129           -5680.00
03130           -5680.00
03131           -5680.00
03132           -5840.00
03133           -5840.00
03134           -5920.00
03135           -5920.00
03136           -5920.00
03137           -6000.00
03138           -6000.00
03139           -6080.00
03140           -6000.00
03141           -6160.00
03142           -6160.00
03143           -6160.00
03144           -6240.00
03145           -6240.00
03146           -6240.00
03147           -6320.00
03148           -6320.00
03149           -6400.00
03150           -6400.00
03151           -6480.00
03152           -6480.00
03153           -6560.00
03154           -6560.00
03155           -6560.00
03156           -6640.00
03157           -6640.00
03158           -6640.00
03159           -6640.00
03160           -6800.00
03161           -6800.00
03162           -6800.00
03163           -6800.00
03164           -6880.00
03165           -6880.00
03166           -6880.00
03167           -6880.00
03168           -7040.00
03169           -6960.00
03170           -7040.00
03171           -6960.00
03172           -7120.00
03173           -7120.00
03174           -7200.00
03175           -7120.00
03176           -7120.00
03177           -7200.00
03178           -7200.00
03179           -7280.00
03180           -7200.00
03181           -7280.00
03182           -7280.00
03183           -7280.00
03184           -7440.00
03185           -7440.00
03186           -7440.00
03187           -7440.00
03188           -7440.00
03189           -7520.00
03190           -7520.00
03191           -7520.00
03192           -7520.00
03193           -7520.00
03194           -7520.00
03195           -7600.00
03196           -7600.00
03197           -7600.00
03198           -7680.00
03199           -7680.00
03200           -7680.00
03201           -7760.00
03202           -7760.00
03203           -7760.00
03204           -7840.00
03205           -7840.00
03206           -7760.00
03207           -7840.00
03208           -7840.00
03209           -7920.00
03210           -7920.00
03211           -7920.00
03212           -7920.00
03213           -7920.00
03214           -8000.00
03215           -7920.00
03216           -7920.00
03217           -7920.00
03218           -8000.00
03219           -8000.00
03220           -8080.00
03221           -8080.00
03222           -8080.00
03223           -8000.00
03224           -8080.00
03225           -8080.00
03226           -8080.00
03227           -8160.00
03228           -8080.00
03229           -8160.00
03230           -8080.00
03231           -8080.00
03232           -8160.00
03233           -8160.00
03234           -8160.00
03235           -8160.00
03236           -8160.00
03237           -8160.00
03238           -8160.00
03239           -8160.00
03240           -8240.00
03241           -8160.00
03242           -8160.00
03243           -8160.00
03244           -8160.00
03245           -8240.00
03246           -8160.00
03247           -8160.00
03248           -8240.00
03249           -8240.00
03250           -8240.00
03251           -8240.00
03252           -8240.00
03253           -8240.00
03254           -8240.00
03255           -8240.00
03256           -8240.00
03257           -8240.00
03258           -8240.00
03259           -8240.00
03260           -8160.00
03261           -8240.00
03262           -8240.00
03263           -8240.00
03264           -8240.00
03265           -8240.00
03266           -8240.00
03267           -8240.00
03268           -8320.00
03269           -8240.00
03270           -8240.00
03271           -8240.00
03272           -8240.00
03273           -8160.00
03274           -8240.00
03275           -8240.00
03276           -8240.00
03277           -8160.00
03278           -8240.00
03279           -8240.00
03280           -8160.00
03281           -8160.00
03282           -8160.00
03283           -8160.00
03284           -8160.00
03285           -8160.00
03286           -8160.00
03287           -8160.00
03288           -8160.00
03289           -8160.00
03290           -8160.00
03291           -8080.00
03292           -8080.00
03293           -8080.00
03294           -8000.00
03295           -8080.00
03296           -8000.00
03297           -8000.00
03298           -8080.00
03299           -8080.00
03300           -8080.00
03301           -8080.00
03302           -7920.00
03303           -7920.00
03304           -7920.00
03305           -7920.00
03306           -7920.00
03307           -7920.00
03308           -7840.00
03309           -7920.00
03310           -7840.00
03311           -7840.00
03312           -7920.00
03313           -7840.00
03314           -7840.00
03315           -7760.00
03316           -7760.00
03317           -7760.00
03318           -7760.00
03319           -7600.00
03320           -7680.00
03321           -7600.00
03322           -7600.00
03323           -7600.00
03324           -7600.00
03325           -7600.00
03326           -7520.00
03327           -7520.00
03328           -7520.00
03329           -7520.00
03330           -7440.00
03331           -7520.00
03332           -7520.00
03333           -7440.00
03334           -7440.00
03335           -7440.00
03336           -7440.00
03337           -7280.00
03338           -7280.00
03339           -7280.00
03340           -7280.00
03341           -7280.00
03342           -7200.00
03343           -7200.00
03344           -7200.00
03345           -7120.00
03346           -7120.00
03347           -7120.00
03348           -7120.00
03349           -7120.00
03350           -7040.00
03351           -6960.00
03352           -6960.00
03353           -6960.00
03354           -6960.00
03355           -6880.00
03356           -6880.00
03357           -6880.00
03358           -6800.00
03359           -6800.00
03360           -6720.00
03361           -6640.00
03362           -6640.00
03363           -6640.00
03364           -6640.00
03365           -6560.00
03366           -6560.00
03367           -6560.00
03368           -6480.00
03369           -6480.00
03370           -6400.00
03371           -6320.00
03372           -6320.00
03373           -6320.00
03374           -6320.00
03375           -6240.00
03376           -6240.00
03377           -6240.00
03378           -6160.00
03379           -6160.00
03380           -6080.00
03381           -6000.00
03382           -6000.00
03383           -6000.00
03384           -5920.00
03385           -5920.00
03386           -5920.00
03387           -5920.00
03388           -5840.00
03389           -5760.00
03390           -5840.00
03391           -5680.00
03392           -5680.00
03393           -5680.00
03394           -5520.00
03395           -5600.00
03396           -5520.00
03397           -5440.00
03398           -5520.00
03399           -5360.00
03400           -5360.00
03401           -5360.00
03402           -5360.00
03403           -5280.00
03404           -5200.00
03405           -5200.00
03406           -5200.00
03407           -5040.00
03408           -5120.00
03409           -5040.00
03410           -4960.00
03411           -4960.00
03412           -4960.00
03413           -4880.00
03414           -4880.00
03415           -4720.00
03416           -4720.00
03417           -4720.00
03418           -4640.00
03419           -4640.00
03420           -4640.00
03421           -4560.00
03422           -4400.00
03423           -4400.00
03424           -4400.00
03425           -4320.00
03426           -4320.00
03427           -4240.00
03428           -4240.00
03429           -4080.00
03430           -4080.00
03431           -4080.00
03432           -4080.00
03433           -4000.00
03434           -4000.00
03435           -4000.00
03436           -3920.00
03437           -3760.00
03438           -3760.00
03439           -3760.00
03440           -3680.00
03441           -3680.00
03442           -3600.00
03443           -3600.00
03444           -3440.00
03445           -3440.00
03446           -3440.00
03447           -3360.00
03448           -3280.00
03449           -3280.00
03450           -3280.00
03451           -3120.00
03452           -3120.00
03453           -3040.00
03454           -3040.00
03455           -3040.00
03456           -2960.00
03457           -2960.00
03458           -2800.00
03459           -2800.00
03460           -2720.00
03461           -2720.00
03462           -2720.00
03463           -2640.00
03464           -2640.00
03465           -2480.00
03466           -2480.00
03467           -2400.00
03468           -2480.00
03469           -2400.00
03470           -2320.00
03471           -2160.00
03472           -2160.00
03473           -2160.00
03474           -2080.00
03475           -2080.00
03476           -2000.00
03477           -2000.00
03478           -1840.00
03479           -1840.00
03480           -1760.00
03481           -1760.00
03482           -1760.00
03483           -1680.00
03484           -1680.00
03485           -1520.00
03486           -1520.00
03487           -1440.00
03488           -1440.00
03489           -1440.00
03490           -1360.00
03491           -1200.00
03492           -1200.00
03493           -1120.00
03494           -1120.00
03495           -1040.00
03496           -1040.00
03497            -880.00
03498            -880.00
03499            -800.00
03500            -800.00
03501            -720.00
03502            -720.00
03503            -640.00
03504            -560.00
03505            -560.00
03506            -480.00
03507            -400.00
03508            -480.00
03509            -320.00
03510            -240.00
03511            -240.00
03512            -160.00
03513            -160.00
03514            -160.00
03515             -80.00
03516              80.00
03517              80.00
03518              80.00
03519             160.00
03520             160.00
03521             240.00
03522             240.00
03523             400.00
03524             400.00
03525             400.00
03526             480.00
03527             480.00
03528             640.00
03529             640.00
03530             720.00
03531             720.00
03532             800.00
03533             880.00
03534             800.00
03535             880.00
03536            1040.00
03537            1040.00
03538            1120.00
03539            1200.00
03540            1200.00
03541            1200.00
03542            1280.00
03543            1360.00
03544            1360.00
03545            1440.00
03546            1520.00
03547            1520.00
03548            1520.00
03549            1600.00
03550            1680.00
03551            1760.00
03552            1760.00
03553            1920.00
03554            1840.00
03555            2000.00
03556            2080.00
03557            2080.00
03558            2160.00
03559            2080.00
03560            2320.00
03561            2320.00
03562            2320.00
03563            2320.00
03564            2400.00
03565            2480.00
03566            2560.00
03567            2640.00
03568            2640.00
03569            2640.00
03570            2720.00
03571            2720.00
03572            2800.00
03573            2880.00
03574            2960.00
03575            2960.00
03576            2960.00
03577            3040.00
03578            3040.00
03579            3200.00
03580            3200.00
03581            3280.00
03582            3280.00
03583            3360.00
03584            3360.00
03585            3360.00
03586            3440.00
03587            3600.00
03588            3600.00
03589            3600.00
03590            3680.00
03591            3760.00
03592            3840.00
03593            3760.00
03594            3920.00
03595            3920.00
03596            3920.00
03597            4000.00
03598            4000.00
03599            4080.00
03600            4080.00
03601            4080.00
03602            4240.00
03603            4240.00
03604            4240.00
03605            4320.00
03606            4320.00
03607            4400.00
03608            4400.00
03609            4560.00
03610            4560.00
03611            4640.00
03612            4640.00
03613            4720.00
03614            4640.00
03615            4720.00
03616            4800.00
03617            4880.00
03618            4880.00
03619            4960.00
03620            4960.00
03621            4960.00
03622            5040.00
03623            5040.00
03624            5200.00
03625            5200.00
03626            5280.00
03627            5280.00
03628            5280.00
03629            5280.00
03630            5360.00
03631            5440.00
03632            5520.00
03633            5520.00
03634            5600.00
03635            5600.00
03636            5600.00
03637            5680.00
03638            5680.00
03639            5760.00
03640            5760.00
03641            5840.00
03642            5840.00
03643            5920.00
03644            5920.00
03645            6000.00
03646            6000.00
03647            6000.00
03648            6080.00
03649            6160.00
03650            6160.00
03651            6160.00
03652            6160.00
03653            6240.00
03654            6240.00
03655            6240.00
03656            6320.00
03657            6320.00
03658            6400.00
03659            6480.00
03660            6480.00
03661            6480.00
03662            6560.00
03663            6560.00
03664            6560.00
03665            6640.00
03666            6640.00
03667            6640.00
03668            6800.00
03669            6800.00
03670            6800.00
03671            6800.00
03672            6880.00
03673            6800.00
03674            6800.00
03675            6880.00
03676            6880.00
03677            6960.00
03678            6960.00
03679            6960.00
03680            6960.00
03681            7120.00
03682            7120.00
03683            7120.00
03684            7200.00
03685            7280.00
03686            7200.00
03687            7200.00
03688            7200.00
03689            7280.00
03690            7280.00
03691            7280.00
03692            7280.00
03693            7440.00
03694            7440.00
03695            7440.00
03696            7440.00
03697            7520.00
03698            7440.00
03699            7520.00
03700            7520.00
03701            7520.00
03702            7600.00
03703            7520.00
03704            7600.00
03705            7600.00
03706            7600.00
03707            7680.00
03708            7760.00
03709            7760.00
03710            7760.00
03711            7760.00
03712            7760.00
03713            7840.00
03714            7840.00
03715            7840.00
03716            7840.00
03717            7840.00
03718            7840.00
03719            7840.00
03720            7920.00
03721            7920.00
03722            7920.00
03723            7920.00
03724            7920.00
03725            7920.00
03726            8000.00
03727            7920.00
03728            7920.00
03729            8000.00
03730            8080.00
03731            8080.00
03732            8080.00
03733            8080.00
03734            8080.00
03735            8080.00
03736            8080.00
03737            8160.00
03738            8080.00
03739            8080.00
03740            8160.00
03741            8160.00
03742            8160.00
03743            8160.00
03744            8160.00
03745            8160.00
03746            8160.00
03747            8240.00
03748            8160.00
03749            8160.00
03750            8240.00
03751            8160.00
03752            8160.00
03753            8240.00
03754            8240.00
03755            8240.00
03756            8240.00
03757            8240.00
03758            8320.00
03759            8240.00
03760            8240.00
03761            8240.00
03762            8240.00
03763            8400.00
03764            8240.00
03765            8320.00
03766            8320.00
03767            8240.00
03768            8320.00
03769            8240.00
03770            8320.00
03771            8240.00
03772            8400.00
03773            8240.00
03774            8240.00
03775            8320.00
03776            8400.00
03777            8240.00
03778            8240.00
03779            8400.00
03780            8240.00
03781            8400.00
03782            8240.00
03783            8320.00
03784            8240.00
03785            8240.00
03786            8160.00
03787            8240.00
03788            8160.00
03789            8160.00
03790            8160.00
03791            8160.00
03792            8240.00
03793            8160.00
03794            8160.00
03795            8160.00
03796            8160.00
03797            8160.00
03798            8160.00
03799            8160.00
03800            8080.00
03801            8160.00
03802            8080.00
03803            8080.00
03804            8000.00
03805            8080.00
03806            8080.00
03807            8080.00
03808            8080.00
03809            8080.00
03810            8080.00
03811            8080.00
03812            8080.00
03813            7920.00
03814            8000.00
03815            7920.00
03816            7920.00
03817            7920.00
03818            7920.00
03819            7920.00
03820            7840.00
03821            7840.00
03822            7840.00
03823            7760.00
03824            7840.00
03825            7840.00
03826            7840.00
03827            7840.00
03828            7760.00
03829            7760.00
03830            7760.00
03831            7760.00
03832            7760.00
03833            7760.00
03834            7600.00
03835            7600.00
03836            7600.00
03837            7600.00
03838            7520.00
03839            7520.00
03840            7520.00
03841            7520.00
03842            7520.00
03843            7440.00
03844            7440.00
03845            7440.00
03846            7440.00
03847            7440.00
03848            7440.00
03849            7280.00
03850            7280.00
03851            7280.00
03852            7200.00
03853            7200.00
03854            7200.00
03855            7200.00
03856            7120.00
03857            7200.00
03858            7120.00
03859            7120.00
03860            6960.00
03861            6960.00
03862            6960.00
03863            6960.00
03864            6880.00
03865            6880.00
03866            6800.00
03867            6880.00
03868            6800.00
03869            6800.00
03870            6800.00
03871            6720.00
03872            6720.00
03873            6640.00
03874            6560.00
03875            6560.00
03876            6560.00
03877            6480.00
03878            6480.00
03879            6480.00
03880            6480.00
03881            6480.00
03882            6320.00
03883            6320.00
03884            6320.00
03885            6320.00
03886            6240.00
03887            6160.00
03888            6240.00
03889            6160.00
03890            6160.00
03891            6160.00
03892            6080.00
03893            6000.00
03894            6000.00
03895            5920.00
03896            5920.00
03897            5920.00
03898            5840.00
03899            5840.00
03900            5840.00
03901            5760.00
03902            5680.00
03903            5680.00
03904            5680.00
03905            5600.00
03906            5520.00
03907            5520.00
03908            5440.00
03909            5520.00
03910            5360.00
03911            5360.00
03912            5360.00
03913            5280.00
03914            5280.00
03915            5200.00
03916            5200.00
03917            5040.00
03918            4960.00
03919            4960.00
03920            4960.00
03921            4960.00
03922            4880.00
03923            4880.00
03924            4720.00
03925            4720.00
03926            4720.00
03927            4640.00
03928            4640.00
03929            4560.00
03930            4560.00
03931            4560.00
03932            4400.00
03933            4400.00
03934            4400.00
03935            4320.00
03936            4320.00
03937            4240.00
03938            4240.00
03939            4160.00
03940            4160.00
03941            4080.00
03942            4000.00
03943            4000.00
03944            4000.00
03945            3920.00
03946            3920.00
03947            3920.00
03948            3840.00
03949            3760.00
03950            3680.00
03951            3680.00
03952            3600.00
03953            3600.00
03954            3520.00
03955            3440.00
03956            3360.00
03957            3440.00
03958            3360.00
03959            3360.00
03960            3280.00
03961            3200.00
03962            3120.00
03963            3120.00
03964            3040.00
03965            3040.00
03966            2960.00
03967            2960.00
03968            2960.00
03969            2800.00
03970            2800.00
03971            2720.00
03972            2720.00
03973            2640.00
03974            2640.00
03975            2640.00
03976            2480.00
03977            2480.00
03978            2400.00
03979            2400.00
03980            2320.00
03981            2320.00
03982            2240.00
03983            2080.00
03984            2080.00
03985            2080.00
03986            2000.00
03987            1920.00
03988            1840.00
03989            1840.00
03990            1760.00
03991            1760.00
03992            1680.00
03993            1680.00
03994            1600.00
03995            1520.00
03996            1440.00
03997            1440.00
03998            1360.00
03999            1360.00
04000            1360.00
04001            1200.00
04002            1200.00
04003            1200.00
04004            1040.00
04005            1040.00
04006            1040.00
04007             880.00
04008             880.00
04009             800.00
04010             800.00
04011             800.00
04012             720.00
04013             720.00
04014             720.00
04015             560.00
04016             480.00
04017             480.00
04018             400.00
04019             400.00
04020             320.00
04021             240.00
04022             240.00
04023             160.00
04024             160.00
04025              80.00
04026               0.00
04027              80.00
04028            -160.00
04029            -160.00
04030            -240.00
04031            -240.00
04032            -240.00
04033            -400.00
04034            -400.00
04035            -400.00
04036            -480.00
04037            -560.00
04038            -720.00
04039            -640.00
04040            -720.00
04041            -720.00
04042            -880.00
04043            -800.00
04044            -880.00
04045           -1040.00
04046            -960.00
04047           -1120.00
04048           -1120.00
04049           -1200.00
04050           -1200.00
04051           -1200.00
04052           -1360.00
04053           -1440.00
04054           -1440.00
04055           -1440.00
04056           -1440.00
04057           -1680.00
04058           -1680.00
04059           -1760.00
04060           -1680.00
04061           -1840.00
04062           -1840.00
04063           -1840.00
04064           -2000.00
04065           -2000.00
04066           -2080.00
04067           -2080.00
04068           -2160.00
04069           -2160.00
04070           -2160.00
04071           -2320.00
04072           -2400.00
04073           -2400.00
04074           -2400.00
04075           -2400.00
04076           -2480.00
04077           -2640.00
04078           -2720.00
04079           -2640.00
04080           -2720.00
04081           -2800.00
04082           -2800.00
04083           -2800.00
04084           -2960.00
04085           -2960.00
04086           -3040.00
04087           -3040.00
04088           -3120.00
04089           -3120.00
04090           -3280.00
04091           -3280.00
04092           -3360.00
04093           -3360.00
04094           -3440.00
04095           -3360.00
04096           -3440.00
04097           -3600.00
04098           -3600.00
04099           -3680.00
04100           -3680.00
04101           -3680.00
04102           -3760.00
04103           -3760.00
04104           -3760.00
04105           -3920.00
04106           -4000.00
04107           -4000.00
04108           -4080.00
04109           -4000.00
04110           -4080.00
04111           -4240.00
04112           -4240.00
04113           -4240.00
04114           -4320.00
04115           -4320.00
04116           -4400.00
04117           -4400.00
04118           -4400.00
04119           -4560.00
04120           -4560.00
04121           -4640.00
04122           -4640.00
04123           -4720.00
04124           -4720.00
04125           -4880.00
04126           -4880.00
04127           -4880.00
04128           -4960.00
04129           -4960.00
04130           -4960.00
04131           -5040.00
04132           -5040.00
04133           -5120.00
04134           -5200.00
04135           -5280.00
04136           -5280.00
04137           -5360.00
04138           -5360.00
04139           -5360.00
04140           -5360.00
04141           -5520.00
04142           -5520.00
04143           -5520.00
04144           -5520.00
04145           -5600.00
04146           -5600.00
04147           -5600.00
04148           -5680.00
04149           -5680.00
04150           -5760.00
04151           -5840.00
04152           -5840.00
04153           -5920.00
04154           -5920.00
04155           -5920.00
04156           -6000.00
04157           -6000.00
04158           -6000.00
04159           -6080.00
04160           -6080.00
04161           -6160.00
04162           -6160.00
04163           -6240.00
04164           -6240.00
04165           -6240.00
04166           -6320.00
04167           -6320.00
04168           -6320.00
04169           -6320.00
04170           -6480.00
04171           -6400.00
04172           -6560.00
04173           -6560.00
04174           -6560.00
04175           -6560.00
04176           -6640.00
04177           -6640.00
04178           -6720.00
04179           -6800.00
04180           -6800.00
04181           -6880.00
04182           -6800.00
04183           -6880.00
04184           -6880.00
04185           -6880.00
04186           -6960.00
04187           -6960.00
04188           -6960.00
04189           -6960.00
04190           -7120.00
04191           -7120.00
04192           -7120.00
04193           -7120.00
04194           -7200.00
04195           -7200.00
04196           -7200.00
04197           -7280.00
04198           -7280.00
04199           -7280.00
04200           -7280.00
04201           -7280.00
04202           -7280.00
04203           -7280.00
04204           -7440.00
04205           -7280.00
04206           -7440.00
04207           -7520.00
04208           -7440.00
04209           -7520.00
04210           -7520.00
04211           -7600.00
04212           -7520.00
04213           -7600.00
04214           -7600.00
04215           -7600.00
04216           -7600.00
04217           -7600.00
04218           -7600.00
04219           -7600.00
04220           -7760.00
04221           -7680.00
04222           -7760.00
04223           -7680.00
04224           -7840.00
04225           -7840.00
04226           -7760.00
04227           -7920.00
04228           -7920.00
04229           -7840.00
04230           -7920.00
04231           -7920.00
04232           -7920.00
04233           -7920.00
04234           -7920.00
04235           -7920.00
04236           -7920.00
04237           -8000.00
04238           -7920.00
04239           -8000.00
04240           -8000.00
04241           -8000.00
04242           -8080.00
04243           -8080.00
04244           -8080.00
04245           -8080.00
04246           -8160.00
04247           -8080.00
04248           -8160.00
04249           -8160.00
04250           -8160.00
04251           -8160.00
04252           -8160.00
04253           -8160.00
04254           -8160.00
04255           -8160.00
04256           -8160.00
04257           -8160.00
04258           -8160.00
04259           -8240.00
04260           -8240.00
04261           -8160.00
04262           -8160.00
04263           -8160.00
04264           -8240.00
04265           -8240.00
04266           -8240.00
04267           -8240.00
04268           -8240.00
04269           -8160.00
04270           -8240.00
04271           -8240.00
04272           -8240.00
04273           -8240.00
04274           -8240.00
04275           -8240.00
04276           -8160.00
04277           -8240.00
04278           -8240.00
04279           -8240.00
04280           -8240.00
04281           -8240.00
04282           -8240.00
04283           -8240.00
04284           -8240.00
04285           -8240.00
04286           -8240.00
04287           -8160.00
04288           -8160.00
04289           -8160.00
04290           -8240.00
04291           -8240.00
04292           -8240.00
04293           -8240.00
04294           -8160.00
04295           -8240.00
04296           -8160.00
04297           -8160.00
04298           -8160.00
04299           -8160.00
04300           -8160.00
04301           -8160.00
04302           -8240.00
04303           -8160.00
04304           -8160.00
04305           -8160.00
04306           -8160.00
04307           -8160.00
04308           -8080.00
04309           -8160.00
04310           -8160.00
04311           -8160.00
04312           -8080.00
04313           -8080.00
04314           -8080.00
04315           -8080.00
04316           -8080.00
04317           -8160.00
04318           -8080.00
04319           -8080.00
04320           -7920.00
04321           -8080.00
04322           -8000.00
04323           -7920.00
04324           -7920.00
04325           -7920.00
04326           -7920.00
04327           -7920.00
04328           -7920.00
04329           -7920.00
04330           -7840.00
04331           -7840.00
04332           -7840.00
04333           -7840.00
04334           -7840.00
04335           -7840.00
04336           -7760.00
04337           -7760.00
04338           -7760.00
04339           -7760.00
04340           -7600.00
04341           -7680.00
04342           -7600.00
04343           -7600.00
04344           -7600.00
04345           -7600.00
04346           -7600.00
04347           -7520.00
04348           -7520.00
04349           -7520.00
04350           -7440.00
04351           -7440.00
04352           -7440.00
04353           -7440.00
04354           -7440.00
04355           -7280.00
04356           -7280.00
04357           -7280.00
04358           -7280.00
04359           -7280.00
04360           -7200.00
04361           -7200.00
04362           -7200.00
04363           -7200.00
04364           -7200.00
04365           -7120.00
04366           -7120.00
04367           -7120.00
04368           -7040.00
04369           -6960.00
04370           -6960.00
04371           -6880.00
04372           -6880.00
04373           -6880.00
04374           -6880.00
04375           -6880.00
04376           -6880.00
04377           -6880.00
04378           -6800.00
04379           -6800.00
04380           -6800.00
04381           -6640.00
04382           -6640.00
04383           -6640.00
04384           -6560.00
04385           -6640.00
04386           -6560.00
04387           -6560.00
04388           -6480.00
04389           -6480.00
04390           -6480.00
04391           -6320.00
04392           -6320.00
04393           -6320.00
04394           -6240.00
04395           -6240.00
04396           -6240.00
04397           -6160.00
04398           -6160.00
04399           -6160.00
04400           -6000.00
04401           -6080.00
04402           -6000.00
04403           -5920.00
04404           -6000.00
04405           -5920.00
04406           -5920.00
04407           -5840.00
04408           -5840.00
04409           -5680.00
04410           -5680.00
04411           -5600.00
04412           -5680.00
04413           -5600.00
04414           -5600.00
04415           -5520.00
04416           -5520.00
04417           -5520.00
04418           -5360.00
04419           -5360.00
04420           -5280.00
04421           -5280.00
04422           -5280.00
04423           -5200.00
04424           -5200.00
04425           -5200.00
04426           -5040.00
04427           -5040.00
04428           -4960.00
04429           -4960.00
04430           -4960.00
04431           -4880.00
04432           -4880.00
04433           -4880.00
04434           -4720.00
04435           -4720.00
04436           -4720.00
04437           -4640.00
04438           -4640.00
04439           -4560.00
04440           -4560.00
04441           -4400.00
04442           -4480.00
04443           -4400.00
04444           -4320.00
04445           -4400.00
04446           -4320.00
04447           -4240.00
04448           -4080.00
04449           -4160.00
04450           -4080.00
04451           -4080.00
04452           -4000.00
04453           -4000.00
04454           -3920.00
04455           -3920.00
04456           -3840.00
04457           -3760.00
04458           -3760.00
04459           -3760.00
04460           -3680.00
04461           -3680.00
04462           -3600.00
04463           -3520.00
04464           -3440.00
04465           -3440.00
04466           -3360.00
04467           -3360.00
04468           -3280.00
04469           -3280.00
04470           -3120.00
04471           -3120.00
04472           -3120.00
04473           -3040.00
04474           -3040.00
04475           -2960.00
04476           -2960.00
04477           -2960.00
04478           -2800.00
04479           -2800.00
04480           -2720.00
04481           -2720.00
04482           -2640.00
04483           -2640.00
04484           -2480.00
04485           -2480.00
04486           -2400.00
04487           -2400.00
04488           -2400.00
04489           -2320.00
04490           -2160.00
04491           -2160.00
04492           -2160.00
04493           -2080.00
04494           -2080.00
04495           -1920.00
04496           -2000.00
04497           -1840.00
04498           -1840.00
04499           -1760.00
04500           -1760.00
04501           -1680.00
04502           -1680.00
04503           -1600.00
04504           -1520.00
04505           -1520.00
04506           -1440.00
04507           -1440.00
04508           -1360.00
04509           -1360.00
04510           -1360.00
04511           -1200.00
04512           -1120.00
04513           -1120.00
04514           -1120.00
04515           -1040.00
04516            -960.00
04517            -880.00
04518            -880.00
04519            -880.00
04520            -800.00
04521            -800.00
04522            -720.00
04523            -720.00
04524            -560.00
04525            -480.00
04526            -480.00
04527            -400.00
04528            -400.00
04529            -240.00
04530            -240.00
04531            -240.00
04532            -160.00
04533            -160.00
04534             -80.00
04535               0.00
04536              80.00
04537              80.00
04538             160.00
04539             160.00
04540             240.00
04541             320.00
04542             400.00
04543             400.00
04544             400.00
04545             480.00
04546             560.00
04547             640.00
04548             720.00
04549             720.00
04550             720.00
04551             800.00
04552             800.00
04553             880.00
04554             960.00
04555            1040.00
04556            1120.00
04557            1120.00
04558            1120.00
04559            1200.00
04560            1360.00
04561            1360.00
04562            1440.00
04563            1440.00
04564            1440.00
04565            1520.00
04566            1520.00
04567            1680.00
04568            1680.00
04569            1680.00
04570            1760.00
04571            1840.00
04572            1760.00
04573            2000.00
04574            2000.00
04575            2000.00
04576            2080.00
04577            2080.00
04578            2160.00
04579            2160.00
04580            2320.00
04581            2320.00
04582            2320.00
04583            2400.00
04584            2400.00
04585            2560.00
04586            2560.00
04587            2640.00
04588            2640.00
04589            2720.00
04590            2720.00
04591            2800.00
04592            2800.00
04593            2960.00
04594            2960.00
04595            3040.00
04596            3040.00
04597            3040.00
04598            3200.00
04599            3280.00
04600            3280.00
04601            3280.00
04602            3360.00
04603            3360.00
04604            3360.00
04605            3440.00
04606            3600.00
04607            3600.00
04608            3600.00
04609            3680.00
04610            3680.00
04611            3760.00
04612            3840.00
04613            3920.00
04614            3920.00
04615            4000.00
04616            4000.00
04617            4000.00
04618            4080.00
04619            4160.00
04620            4240.00
04621            4240.00
04622            4320.00
04623            4240.00
04624            4320.00
04625            4400.00
04626            4400.00
04627            4400.00
04628            4560.00
04629            4560.00
04630            4640.00
04631            4640.00
04632            4720.00
04633            4720.00
04634            4800.00
04635            4880.00
04636            4880.00
04637            4880.00
04638            4880.00
04639            4960.00
04640            4960.00
04641            5040.00
04642            5040.00
04643            5200.00
04644            5200.00
04645            5280.00
04646            5280.00
04647            5280.00
04648            5360.00
04649            5280.00
04650            5360.00
04651            5360.00
04652            5520.00
04653            5520.00
04654            5520.00
04655            5600.00
04656            5600.00
04657            5680.00
04658            5680.00
04659            5680.00
04660            5840.00
04661            5840.00
04662            5920.00
04663            5920.00
04664            5920.00
04665            6000.00
04666            6000.00
04667            6080.00
04668            6160.00
04669            6160.00
04670            6240.00
04671            6160.00
04672            6160.00
04673            6240.00
04674            6320.00
04675            6320.00
04676            6320.00
04677            6480.00
04678            6480.00
04679            6480.00
04680            6480.00
04681            6560.00
04682            6560.00
04683            6640.00
04684            6640.00
04685            6640.00
04686            6720.00
04687            6800.00
04688            6720.00
04689            6800.00
04690            6800.00
04691            6880.00
04692            6880.00
04693            6880.00
04694            6880.00
04695            6880.00
04696            6960.00
04697            6960.00
04698            6960.00
04699            7040.00
04700            7120.00
04701            7120.00
04702            7120.00
04703            7200.00
04704            7120.00
04705            7200.00
04706            7200.00
04707            7200.00
04708            7200.00
04709            7280.00
04710            7280.00
04711            7280.00
04712            7440.00
04713            7440.00
04714            7440.00
04715            7440.00
04716            7440.00
04717            7520.00
04718            7440.00
04719            7600.00
04720            7520.00
04721            7520.00
04722            7520.00
04723            7600.00
04724            7600.00
04725            7600.00
04726            7760.00
04727            7760.00
04728            7760.00
04729            7760.00
04730            7760.00
04731            7840.00
04732            7760.00
04733            7760.00
04734            7840.00
04735            7840.00
04736            7920.00
04737            7840.00
04738            7840.00
04739            7920.00
04740            7920.00
04741            7920.00
04742            7920.00
04743            7920.00
04744            8000.00
04745            8000.00
04746            8000.00
04747            8080.00
04748            8080.00
04749            8080.00
04750            8080.00
04751            8080.00
04752            8080.00
04753            8160.00
04754            8080.00
04755            8160.00
04756            8080.00
04757            8080.00
04758            8160.00
04759            8160.00
04760            8160.00
04761            8160.00
04762            8240.00
04763            8240.00
04764            8240.00
04765            8160.00
04766            8160.00
04767            8240.00
04768            8160.00
04769            8160.00
04770            8240.00
04771            8160.00
04772            8240.00
04773            8160.00
04774            8240.00
04775            8240.00
04776            8240.00
04777            8240.00
04778            8240.00
04779            8240.00
04780            8240.00
04781            8240.00
04782            8240.00
04783            8240.00
04784            8320.00
04785            8240.00
04786            8320.00
04787            8240.00
04788            8320.00
04789            8240.00
04790            8240.00
04791            8240.00
04792            8240.00
04793            8240.00
04794            8240.00
04795            8320.00
04796            8240.00
04797            8240.00
04798            8320.00
04799            8240.00
04800            8240.00
04801            8240.00
04802            8240.00
04803            8240.00
04804            8240.00
04805            8240.00
04806            8240.00
04807            8240.00
04808            8240.00
04809            8160.00
04810            8240.00
04811            8240.00
04812            8240.00
04813            8160.00
04814            8160.00
04815            8160.00
04816            8160.00
04817            8160.00
04818            8160.00
04819            8080.00
04820            8160.00
04821            8160.00
04822            8080.00
04823            8160.00
04824            8080.00
04825            8080.00
04826            8080.00
04827            8080.00
04828            7920.00
04829            8080.00
04830            8080.00
04831            8000.00
04832            7920.00
04833            8000.00
04834            7840.00
04835            7840.00
04836            7920.00
04837            7840.00
04838            7920.00
04839            7840.00
04840            7840.00
04841            7840.00
04842            7760.00
04843            7760.00
04844            7840.00
04845            7760.00
04846            7760.00
04847            7760.00
04848            7760.00
04849            7760.00
04850            7760.00
04851            7680.00
04852            7680.00
04853            7600.00
04854            7600.00
04855            7600.00
04856            7520.00
04857            7600.00
04858            7520.00
04859            7520.00
04860            7520.00
04861            7440.00
04862            7440.00
04863            7440.00
04864            7440.00
04865            7360.00
04866            7360.00
04867            7360.00
04868            7360.00
04869            7280.00
04870            7280.00
04871            7200.00
04872            7280.00
04873            7200.00
04874            7200.00
04875            7200.00
04876            7120.00
04877            7120.00
04878            7120.00
04879            7120.00
04880            7120.00
04881            7040.00
04882            6960.00
04883            6960.00
04884            6880.00
04885            6880.00
04886            6880.00
04887            6800.00
04888            6880.00
04889            6800.00
04890            6800.00
04891            6720.00
04892            6640.00
04893            6640.00
04894            6560.00
04895            6560.00
04896            6560.00
04897            6480.00
04898            6480.00
04899            6400.00
04900            6480.00
04901            6480.00
04902            6320.00
04903            6320.00
04904            6320.00
04905            6240.00
04906            6240.00
04907            6160.00
04908            6160.00
04909            6160.00
04910            6160.00
04911            6000.00
04912            6000.00
04913            6000.00
04914            5920.00
04915            5920.00
04916            5920.00
04917            5840.00
04918            5840.00
04919            5760.00
04920            5680.00
04921            5680.00
04922            5600.00
04923            5600.00
04924            5600.00
04925            5600.00
04926            5520.00
04927            5440.00
04928            5520.00
04929            5360.00
04930            5280.00
04931            5360.00
04932            5280.00
04933            5280.00
04934            5200.00
04935            5200.00
04936            5200.00
04937            5120.00
04938            5040.00
04939            5040.00
04940            5040.00
04941            4960.00
04942            4880.00
04943            4880.00
04944            4800.00
04945            4720.00
04946            4720.00
04947            4640.00
04948            4640.00
04949            4640.00
04950            4560.00
04951            4480.00
04952            4480.00
04953            4400.00
04954            4320.00
04955            4320.00
04956            4320.00
04957            4240.00
04958            4240.00
04959            4080.00
04960            4240.00
04961            4000.00
04962            4000.00
04963            4000.00
04964            3920.00
04965            3920.00
04966            3920.00
04967            3760.00
04968            3680.00
04969            3680.00
04970            3600.00
04971            3600.00
04972            3600.00
04973            3520.00
04974            3440.00
04975            3440.00
04976            3360.00
04977            3280.00
04978            3280.00
04979            3280.00
04980            3280.00
04981            3120.00
04982            3120.00
04983            3040.00
04984            2960.00
04985            2960.00
04986            2960.00
04987            2880.00
04988            2800.00
04989            2800.00
04990            2720.00
04991            2720.00
04992            2640.00
04993            2640.00
04994            2480.00
04995            2480.00
04996            2400.00
04997            2400.00
04998            2320.00
04999            2320.00
05000            2320.00
