Unit:(mV)
                     CH1
Frequency     98.110 kHz
00001           -2400.00
00002           -2400.00
00003           -2480.00
00004           -2480.00
00005           -2560.00
00006           -2640.00
00007           -2640.00
00008           -2720.00
00009           -2720.00
00010           -2800.00
00011           -2800.00
00012           -2800.00
00013           -2960.00
00014           -3040.00
00015           -3040.00
00016           -3040.00
00017           -3040.00
00018           -3120.00
00019           -3120.00
00020           -3200.00
00021           -3280.00
00022           -3280.00
00023           -3360.00
00024           -3360.00
00025           -3440.00
00026           -3440.00
00027           -3520.00
00028           -3600.00
00029           -3600.00
00030           -3600.00
00031           -3680.00
00032           -3680.00
00033           -3680.00
00034           -3760.00
00035           -3920.00
00036           -3920.00
00037           -4000.00
00038           -4000.00
00039           -4000.00
00040           -4080.00
00041           -4080.00
00042           -4160.00
00043           -4080.00
00044           -4240.00
00045           -4320.00
00046           -4320.00
00047           -4400.00
00048           -4320.00
00049           -4400.00
00050           -4400.00
00051           -4560.00
00052           -4560.00
00053           -4640.00
00054           -4640.00
00055           -4720.00
00056           -4720.00
00057           -4720.00
00058           -4720.00
00059           -4800.00
00060           -4880.00
00061           -4880.00
00062           -4960.00
00063           -4960.00
00064           -4960.00
00065           -4960.00
00066           -5040.00
00067           -5040.00
00068           -5040.00
00069           -5200.00
00070           -5200.00
00071           -5280.00
00072           -5280.00
00073           -5280.00
00074           -5360.00
00075           -5360.00
00076           -5360.00
00077           -5440.00
00078           -5520.00
00079           -5520.00
00080           -5600.00
00081           -5600.00
00082           -5600.00
00083           -5600.00
00084           -5600.00
00085           -5680.00
00086           -5680.00
00087           -5680.00
00088           -5840.00
00089           -5840.00
00090           -5840.00
00091           -5920.00
00092           -5920.00
00093           -6000.00
00094           -5920.00
00095           -6000.00
00096           -6000.00
00097           -6000.00
00098           -6080.00
00099           -6160.00
00100           -6240.00
00101           -6160.00
00102           -6160.00
00103           -6240.00
00104           -6320.00
00105           -6320.00
00106           -6320.00
00107           -6320.00
00108           -6400.00
00109           -6400.00
00110           -6480.00
00111           -6480.00
00112           -6480.00
00113           -6560.00
00114           -6560.00
00115           -6560.00
00116           -6560.00
00117           -6640.00
00118           -6640.00
00119           -6640.00
00120           -6720.00
00121           -6720.00
00122           -6800.00
00123           -6800.00
00124           -6800.00
00125           -6880.00
00126           -6880.00
00127           -6880.00
00128           -6880.00
00129           -6880.00
00130           -6960.00
00131           -6880.00
00132           -6960.00
00133           -6960.00
00134           -6960.00
00135           -7120.00
00136           -6960.00
00137           -6960.00
00138           -7120.00
00139           -7040.00
00140           -7120.00
00141           -7200.00
00142           -7120.00
00143           -7200.00
00144           -7200.00
00145           -7200.00
00146           -7200.00
00147           -7200.00
00148           -7200.00
00149           -7280.00
00150           -7280.00
00151           -7280.00
00152           -7280.00
00153           -7280.00
00154           -7280.00
00155           -7280.00
00156           -7360.00
00157           -7360.00
00158           -7440.00
00159           -7440.00
00160           -7440.00
00161           -7440.00
00162           -7520.00
00163           -7520.00
00164           -7440.00
00165           -7520.00
00166           -7520.00
00167           -7520.00
00168           -7520.00
00169           -7520.00
00170           -7600.00
00171           -7520.00
00172           -7520.00
00173           -7520.00
00174           -7520.00
00175           -7600.00
00176           -7600.00
00177           -7520.00
00178           -7600.00
00179           -7600.00
00180           -7600.00
00181           -7600.00
00182           -7600.00
00183           -7600.00
00184           -7600.00
00185           -7680.00
00186           -7600.00
00187           -7760.00
00188           -7600.00
00189           -7600.00
00190           -7760.00
00191           -7680.00
00192           -7600.00
00193           -7760.00
00194           -7600.00
00195           -7760.00
00196           -7600.00
00197           -7600.00
00198           -7680.00
00199           -7680.00
00200           -7680.00
00201           -7680.00
00202           -7680.00
00203           -7600.00
00204           -7760.00
00205           -7600.00
00206           -7600.00
00207           -7680.00
00208           -7600.00
00209           -7760.00
00210           -7600.00
00211           -7680.00
00212           -7760.00
00213           -7600.00
00214           -7600.00
00215           -7600.00
00216           -7600.00
00217           -7680.00
00218           -7600.00
00219           -7600.00
00220           -7600.00
00221           -7600.00
00222           -7600.00
00223           -7600.00
00224           -7600.00
00225           -7600.00
00226           -7600.00
00227           -7600.00
00228           -7600.00
00229           -7520.00
00230           -7600.00
00231           -7600.00
00232           -7600.00
00233           -7600.00
00234           -7520.00
00235           -7520.00
00236           -7600.00
00237           -7520.00
00238           -7520.00
00239           -7600.00
00240           -7520.00
00241           -7520.00
00242           -7520.00
00243           -7520.00
00244           -7520.00
00245           -7520.00
00246           -7520.00
00247           -7440.00
00248           -7520.00
00249           -7440.00
00250           -7440.00
00251           -7360.00
00252           -7280.00
00253           -7280.00
00254           -7360.00
00255           -7280.00
00256           -7280.00
00257           -7280.00
00258           -7200.00
00259           -7200.00
00260           -7200.00
00261           -7200.00
00262           -7200.00
00263           -7200.00
00264           -7200.00
00265           -7200.00
00266           -7200.00
00267           -7120.00
00268           -7120.00
00269           -6960.00
00270           -7040.00
00271           -6960.00
00272           -6960.00
00273           -6960.00
00274           -6960.00
00275           -6960.00
00276           -6880.00
00277           -6880.00
00278           -6880.00
00279           -6880.00
00280           -6880.00
00281           -6880.00
00282           -6880.00
00283           -6880.00
00284           -6800.00
00285           -6720.00
00286           -6640.00
00287           -6640.00
00288           -6640.00
00289           -6640.00
00290           -6640.00
00291           -6640.00
00292           -6560.00
00293           -6560.00
00294           -6560.00
00295           -6480.00
00296           -6480.00
00297           -6480.00
00298           -6320.00
00299           -6480.00
00300           -6480.00
00301           -6320.00
00302           -6320.00
00303           -6240.00
00304           -6320.00
00305           -6240.00
00306           -6240.00
00307           -6160.00
00308           -6240.00
00309           -6160.00
00310           -6160.00
00311           -6000.00
00312           -6000.00
00313           -6000.00
00314           -6000.00
00315           -5920.00
00316           -5920.00
00317           -5920.00
00318           -5920.00
00319           -5840.00
00320           -5840.00
00321           -5680.00
00322           -5680.00
00323           -5680.00
00324           -5680.00
00325           -5600.00
00326           -5600.00
00327           -5600.00
00328           -5520.00
00329           -5520.00
00330           -5440.00
00331           -5520.00
00332           -5360.00
00333           -5360.00
00334           -5360.00
00335           -5280.00
00336           -5280.00
00337           -5200.00
00338           -5200.00
00339           -5200.00
00340           -5040.00
00341           -5040.00
00342           -5040.00
00343           -5040.00
00344           -5040.00
00345           -4960.00
00346           -4960.00
00347           -4880.00
00348           -4880.00
00349           -4880.00
00350           -4720.00
00351           -4720.00
00352           -4720.00
00353           -4640.00
00354           -4640.00
00355           -4560.00
00356           -4560.00
00357           -4400.00
00358           -4400.00
00359           -4400.00
00360           -4400.00
00361           -4400.00
00362           -4240.00
00363           -4320.00
00364           -4240.00
00365           -4240.00
00366           -4080.00
00367           -4160.00
00368           -4080.00
00369           -4080.00
00370           -4000.00
00371           -4000.00
00372           -3920.00
00373           -3920.00
00374           -3920.00
00375           -3760.00
00376           -3760.00
00377           -3680.00
00378           -3680.00
00379           -3680.00
00380           -3680.00
00381           -3600.00
00382           -3440.00
00383           -3440.00
00384           -3440.00
00385           -3440.00
00386           -3360.00
00387           -3360.00
00388           -3360.00
00389           -3120.00
00390           -3120.00
00391           -3120.00
00392           -3040.00
00393           -3040.00
00394           -3040.00
00395           -2960.00
00396           -2960.00
00397           -2880.00
00398           -2800.00
00399           -2800.00
00400           -2720.00
00401           -2720.00
00402           -2640.00
00403           -2640.00
00404           -2560.00
00405           -2400.00
00406           -2480.00
00407           -2400.00
00408           -2400.00
00409           -2400.00
00410           -2320.00
00411           -2320.00
00412           -2160.00
00413           -2160.00
00414           -2160.00
00415           -2080.00
00416           -2000.00
00417           -2000.00
00418           -1840.00
00419           -1840.00
00420           -1760.00
00421           -1760.00
00422           -1760.00
00423           -1680.00
00424           -1680.00
00425           -1600.00
00426           -1520.00
00427           -1520.00
00428           -1440.00
00429           -1440.00
00430           -1440.00
00431           -1360.00
00432           -1280.00
00433           -1200.00
00434           -1120.00
00435           -1120.00
00436           -1120.00
00437           -1120.00
00438           -1040.00
00439           -1040.00
00440            -880.00
00441            -880.00
00442            -880.00
00443            -880.00
00444            -800.00
00445            -720.00
00446            -560.00
00447            -560.00
00448            -560.00
00449            -560.00
00450            -480.00
00451            -400.00
00452            -400.00
00453            -240.00
00454            -240.00
00455            -240.00
00456            -160.00
00457             -80.00
00458             -80.00
00459             -80.00
00460              80.00
00461              80.00
00462              80.00
00463              80.00
00464             160.00
00465             160.00
00466             320.00
00467             400.00
00468             400.00
00469             480.00
00470             560.00
00471             560.00
00472             560.00
00473             560.00
00474             720.00
00475             800.00
00476             800.00
00477             800.00
00478             800.00
00479            1040.00
00480            1040.00
00481            1040.00
00482            1120.00
00483            1120.00
00484            1200.00
00485            1200.00
00486            1360.00
00487            1280.00
00488            1360.00
00489            1440.00
00490            1440.00
00491            1440.00
00492            1520.00
00493            1520.00
00494            1680.00
00495            1680.00
00496            1680.00
00497            1760.00
00498            1840.00
00499            1840.00
00500            1840.00
00501            2000.00
00502            2000.00
00503            2080.00
00504            2080.00
00505            2080.00
00506            2160.00
00507            2160.00
00508            2160.00
00509            2320.00
00510            2320.00
00511            2400.00
00512            2480.00
00513            2480.00
00514            2640.00
00515            2640.00
00516            2640.00
00517            2720.00
00518            2720.00
00519            2800.00
00520            2800.00
00521            2960.00
00522            2960.00
00523            2960.00
00524            3040.00
00525            3040.00
00526            3040.00
00527            3040.00
00528            3200.00
00529            3200.00
00530            3280.00
00531            3360.00
00532            3360.00
00533            3360.00
00534            3440.00
00535            3520.00
00536            3520.00
00537            3600.00
00538            3600.00
00539            3680.00
00540            3680.00
00541            3760.00
00542            3760.00
00543            3840.00
00544            3840.00
00545            3920.00
00546            3920.00
00547            4000.00
00548            4080.00
00549            4080.00
00550            4080.00
00551            4160.00
00552            4240.00
00553            4240.00
00554            4240.00
00555            4320.00
00556            4400.00
00557            4400.00
00558            4400.00
00559            4480.00
00560            4480.00
00561            4560.00
00562            4560.00
00563            4640.00
00564            4640.00
00565            4720.00
00566            4720.00
00567            4720.00
00568            4720.00
00569            4880.00
00570            4880.00
00571            4880.00
00572            4960.00
00573            4960.00
00574            5040.00
00575            5040.00
00576            5040.00
00577            5200.00
00578            5200.00
00579            5200.00
00580            5200.00
00581            5280.00
00582            5280.00
00583            5360.00
00584            5280.00
00585            5440.00
00586            5440.00
00587            5520.00
00588            5520.00
00589            5600.00
00590            5600.00
00591            5680.00
00592            5680.00
00593            5680.00
00594            5760.00
00595            5680.00
00596            5840.00
00597            5840.00
00598            5840.00
00599            5920.00
00600            5920.00
00601            6000.00
00602            6000.00
00603            6000.00
00604            6000.00
00605            6080.00
00606            6080.00
00607            6160.00
00608            6160.00
00609            6160.00
00610            6160.00
00611            6240.00
00612            6320.00
00613            6240.00
00614            6320.00
00615            6320.00
00616            6400.00
00617            6480.00
00618            6480.00
00619            6480.00
00620            6480.00
00621            6560.00
00622            6480.00
00623            6480.00
00624            6560.00
00625            6560.00
00626            6560.00
00627            6560.00
00628            6640.00
00629            6640.00
00630            6640.00
00631            6720.00
00632            6800.00
00633            6800.00
00634            6800.00
00635            6800.00
00636            6880.00
00637            6800.00
00638            6880.00
00639            6880.00
00640            6880.00
00641            6880.00
00642            6960.00
00643            6960.00
00644            6960.00
00645            7120.00
00646            7040.00
00647            7120.00
00648            7120.00
00649            7200.00
00650            7120.00
00651            7200.00
00652            7200.00
00653            7200.00
00654            7200.00
00655            7200.00
00656            7280.00
00657            7200.00
00658            7280.00
00659            7280.00
00660            7280.00
00661            7280.00
00662            7440.00
00663            7440.00
00664            7440.00
00665            7440.00
00666            7440.00
00667            7440.00
00668            7440.00
00669            7440.00
00670            7440.00
00671            7440.00
00672            7440.00
00673            7440.00
00674            7520.00
00675            7520.00
00676            7520.00
00677            7520.00
00678            7520.00
00679            7520.00
00680            7520.00
00681            7520.00
00682            7600.00
00683            7600.00
00684            7600.00
00685            7600.00
00686            7520.00
00687            7600.00
00688            7600.00
00689            7600.00
00690            7600.00
00691            7600.00
00692            7600.00
00693            7600.00
00694            7600.00
00695            7680.00
00696            7680.00
00697            7600.00
00698            7600.00
00699            7760.00
00700            7680.00
00701            7760.00
00702            7600.00
00703            7680.00
00704            7760.00
00705            7680.00
00706            7600.00
00707            7680.00
00708            7760.00
00709            7760.00
00710            7680.00
00711            7760.00
00712            7760.00
00713            7760.00
00714            7760.00
00715            7760.00
00716            7760.00
00717            7760.00
00718            7760.00
00719            7760.00
00720            7760.00
00721            7760.00
00722            7760.00
00723            7760.00
00724            7600.00
00725            7760.00
00726            7680.00
00727            7760.00
00728            7760.00
00729            7760.00
00730            7680.00
00731            7600.00
00732            7760.00
00733            7680.00
00734            7680.00
00735            7600.00
00736            7680.00
00737            7600.00
00738            7600.00
00739            7600.00
00740            7600.00
00741            7600.00
00742            7600.00
00743            7600.00
00744            7600.00
00745            7520.00
00746            7600.00
00747            7520.00
00748            7520.00
00749            7520.00
00750            7520.00
00751            7520.00
00752            7440.00
00753            7520.00
00754            7440.00
00755            7440.00
00756            7440.00
00757            7440.00
00758            7360.00
00759            7440.00
00760            7440.00
00761            7360.00
00762            7280.00
00763            7360.00
00764            7360.00
00765            7280.00
00766            7360.00
00767            7280.00
00768            7280.00
00769            7200.00
00770            7200.00
00771            7200.00
00772            7200.00
00773            7200.00
00774            7200.00
00775            7200.00
00776            7120.00
00777            7200.00
00778            7120.00
00779            7040.00
00780            7120.00
00781            7120.00
00782            6960.00
00783            7040.00
00784            6880.00
00785            6960.00
00786            6960.00
00787            6880.00
00788            6880.00
00789            6880.00
00790            6880.00
00791            6800.00
00792            6880.00
00793            6800.00
00794            6880.00
00795            6800.00
00796            6800.00
00797            6800.00
00798            6720.00
00799            6640.00
00800            6640.00
00801            6640.00
00802            6560.00
00803            6560.00
00804            6640.00
00805            6560.00
00806            6480.00
00807            6480.00
00808            6480.00
00809            6480.00
00810            6480.00
00811            6320.00
00812            6320.00
00813            6320.00
00814            6320.00
00815            6240.00
00816            6240.00
00817            6160.00
00818            6160.00
00819            6160.00
00820            6080.00
00821            6080.00
00822            6000.00
00823            6080.00
00824            5920.00
00825            5920.00
00826            5920.00
00827            5920.00
00828            5840.00
00829            5840.00
00830            5760.00
00831            5760.00
00832            5680.00
00833            5680.00
00834            5680.00
00835            5600.00
00836            5600.00
00837            5520.00
00838            5520.00
00839            5520.00
00840            5440.00
00841            5360.00
00842            5360.00
00843            5360.00
00844            5280.00
00845            5280.00
00846            5280.00
00847            5200.00
00848            5200.00
00849            5200.00
00850            5120.00
00851            5040.00
00852            5040.00
00853            5040.00
00854            4960.00
00855            4960.00
00856            4880.00
00857            4880.00
00858            4880.00
00859            4880.00
00860            4800.00
00861            4720.00
00862            4640.00
00863            4640.00
00864            4640.00
00865            4640.00
00866            4560.00
00867            4560.00
00868            4560.00
00869            4400.00
00870            4400.00
00871            4320.00
00872            4320.00
00873            4240.00
00874            4240.00
00875            4240.00
00876            4160.00
00877            4240.00
00878            4080.00
00879            4080.00
00880            4000.00
00881            4000.00
00882            3920.00
00883            3920.00
00884            3840.00
00885            3760.00
00886            3760.00
00887            3760.00
00888            3680.00
00889            3600.00
00890            3600.00
00891            3600.00
00892            3440.00
00893            3520.00
00894            3360.00
00895            3360.00
00896            3360.00
00897            3360.00
00898            3280.00
00899            3280.00
00900            3120.00
00901            3120.00
00902            3040.00
00903            3040.00
00904            2960.00
00905            2960.00
00906            2960.00
00907            2880.00
00908            2720.00
00909            2800.00
00910            2720.00
00911            2720.00
00912            2640.00
00913            2640.00
00914            2640.00
00915            2480.00
00916            2400.00
00917            2400.00
00918            2400.00
00919            2320.00
00920            2320.00
00921            2240.00
00922            2320.00
00923            2240.00
00924            2080.00
00925            2080.00
00926            2080.00
00927            2080.00
00928            2000.00
00929            1920.00
00930            1840.00
00931            1760.00
00932            1760.00
00933            1680.00
00934            1680.00
00935            1680.00
00936            1600.00
00937            1520.00
00938            1440.00
00939            1440.00
00940            1440.00
00941            1360.00
00942            1280.00
00943            1200.00
00944            1200.00
00945            1200.00
00946            1120.00
00947            1120.00
00948            1040.00
00949            1040.00
00950             880.00
00951             880.00
00952             800.00
00953             800.00
00954             720.00
00955             720.00
00956             640.00
00957             560.00
00958             560.00
00959             560.00
00960             480.00
00961             400.00
00962             400.00
00963             240.00
00964             240.00
00965             160.00
00966             160.00
00967              80.00
00968              80.00
00969              80.00
00970             -80.00
00971               0.00
00972            -160.00
00973            -240.00
00974            -160.00
00975            -320.00
00976            -240.00
00977            -400.00
00978            -240.00
00979            -480.00
00980            -480.00
00981            -560.00
00982            -560.00
00983            -560.00
00984            -720.00
00985            -720.00
00986            -800.00
00987            -880.00
00988            -880.00
00989            -880.00
00990            -880.00
00991           -1040.00
00992           -1120.00
00993           -1120.00
00994           -1120.00
00995           -1120.00
00996           -1200.00
00997           -1360.00
00998           -1360.00
00999           -1360.00
01000           -1440.00
01001           -1520.00
01002           -1520.00
01003           -1520.00
01004           -1680.00
01005           -1680.00
01006           -1760.00
01007           -1760.00
01008           -1760.00
01009           -1840.00
01010           -1840.00
01011           -2000.00
01012           -2080.00
01013           -2080.00
01014           -2080.00
01015           -2160.00
01016           -2240.00
01017           -2160.00
01018           -2320.00
01019           -2320.00
01020           -2400.00
01021           -2400.00
01022           -2480.00
01023           -2480.00
01024           -2560.00
01025           -2640.00
01026           -2720.00
01027           -2720.00
01028           -2720.00
01029           -2800.00
01030           -2800.00
01031           -2880.00
01032           -2960.00
01033           -2960.00
01034           -3040.00
01035           -3040.00
01036           -3120.00
01037           -3120.00
01038           -3120.00
01039           -3120.00
01040           -3280.00
01041           -3360.00
01042           -3360.00
01043           -3440.00
01044           -3440.00
01045           -3520.00
01046           -3440.00
01047           -3600.00
01048           -3600.00
01049           -3680.00
01050           -3680.00
01051           -3760.00
01052           -3680.00
01053           -3760.00
01054           -3760.00
01055           -3920.00
01056           -4000.00
01057           -3920.00
01058           -4000.00
01059           -4080.00
01060           -4000.00
01061           -4080.00
01062           -4080.00
01063           -4240.00
01064           -4240.00
01065           -4320.00
01066           -4320.00
01067           -4320.00
01068           -4400.00
01069           -4400.00
01070           -4400.00
01071           -4560.00
01072           -4560.00
01073           -4560.00
01074           -4640.00
01075           -4720.00
01076           -4720.00
01077           -4720.00
01078           -4800.00
01079           -4880.00
01080           -4880.00
01081           -4960.00
01082           -4960.00
01083           -5040.00
01084           -5040.00
01085           -5040.00
01086           -5040.00
01087           -5200.00
01088           -5200.00
01089           -5200.00
01090           -5280.00
01091           -5280.00
01092           -5360.00
01093           -5360.00
01094           -5360.00
01095           -5440.00
01096           -5520.00
01097           -5520.00
01098           -5520.00
01099           -5600.00
01100           -5600.00
01101           -5600.00
01102           -5680.00
01103           -5600.00
01104           -5680.00
01105           -5840.00
01106           -5680.00
01107           -5840.00
01108           -5840.00
01109           -5840.00
01110           -5920.00
01111           -5920.00
01112           -5920.00
01113           -6000.00
01114           -6000.00
01115           -6000.00
01116           -6000.00
01117           -6080.00
01118           -6160.00
01119           -6160.00
01120           -6160.00
01121           -6160.00
01122           -6240.00
01123           -6240.00
01124           -6240.00
01125           -6320.00
01126           -6320.00
01127           -6320.00
01128           -6320.00
01129           -6400.00
01130           -6480.00
01131           -6480.00
01132           -6480.00
01133           -6560.00
01134           -6560.00
01135           -6480.00
01136           -6640.00
01137           -6640.00
01138           -6640.00
01139           -6640.00
01140           -6800.00
01141           -6800.00
01142           -6720.00
01143           -6800.00
01144           -6800.00
01145           -6800.00
01146           -6880.00
01147           -6880.00
01148           -6880.00
01149           -6960.00
01150           -6880.00
01151           -6880.00
01152           -6960.00
01153           -6960.00
01154           -6960.00
01155           -6960.00
01156           -6960.00
01157           -7120.00
01158           -7120.00
01159           -7120.00
01160           -7200.00
01161           -7120.00
01162           -7200.00
01163           -7200.00
01164           -7200.00
01165           -7200.00
01166           -7280.00
01167           -7280.00
01168           -7280.00
01169           -7280.00
01170           -7280.00
01171           -7280.00
01172           -7280.00
01173           -7280.00
01174           -7280.00
01175           -7280.00
01176           -7360.00
01177           -7440.00
01178           -7520.00
01179           -7440.00
01180           -7440.00
01181           -7440.00
01182           -7520.00
01183           -7440.00
01184           -7440.00
01185           -7520.00
01186           -7520.00
01187           -7520.00
01188           -7440.00
01189           -7520.00
01190           -7520.00
01191           -7520.00
01192           -7520.00
01193           -7520.00
01194           -7600.00
01195           -7600.00
01196           -7600.00
01197           -7600.00
01198           -7600.00
01199           -7600.00
01200           -7600.00
01201           -7600.00
01202           -7600.00
01203           -7600.00
01204           -7600.00
01205           -7600.00
01206           -7680.00
01207           -7600.00
01208           -7600.00
01209           -7600.00
01210           -7680.00
01211           -7600.00
01212           -7760.00
01213           -7680.00
01214           -7600.00
01215           -7600.00
01216           -7760.00
01217           -7680.00
01218           -7760.00
01219           -7760.00
01220           -7760.00
01221           -7680.00
01222           -7760.00
01223           -7600.00
01224           -7760.00
01225           -7600.00
01226           -7680.00
01227           -7760.00
01228           -7760.00
01229           -7760.00
01230           -7680.00
01231           -7760.00
01232           -7680.00
01233           -7600.00
01234           -7760.00
01235           -7600.00
01236           -7680.00
01237           -7600.00
01238           -7760.00
01239           -7760.00
01240           -7600.00
01241           -7600.00
01242           -7600.00
01243           -7600.00
01244           -7600.00
01245           -7600.00
01246           -7600.00
01247           -7520.00
01248           -7600.00
01249           -7520.00
01250           -7520.00
01251           -7520.00
01252           -7520.00
01253           -7520.00
01254           -7520.00
01255           -7520.00
01256           -7520.00
01257           -7520.00
01258           -7520.00
01259           -7520.00
01260           -7520.00
01261           -7520.00
01262           -7440.00
01263           -7440.00
01264           -7440.00
01265           -7440.00
01266           -7440.00
01267           -7440.00
01268           -7440.00
01269           -7440.00
01270           -7360.00
01271           -7280.00
01272           -7360.00
01273           -7280.00
01274           -7280.00
01275           -7280.00
01276           -7280.00
01277           -7280.00
01278           -7280.00
01279           -7280.00
01280           -7280.00
01281           -7200.00
01282           -7200.00
01283           -7200.00
01284           -7200.00
01285           -7120.00
01286           -7120.00
01287           -7120.00
01288           -7120.00
01289           -7040.00
01290           -6960.00
01291           -6960.00
01292           -6960.00
01293           -7040.00
01294           -6880.00
01295           -6960.00
01296           -6880.00
01297           -6960.00
01298           -6880.00
01299           -6880.00
01300           -6800.00
01301           -6880.00
01302           -6880.00
01303           -6800.00
01304           -6640.00
01305           -6640.00
01306           -6720.00
01307           -6640.00
01308           -6640.00
01309           -6640.00
01310           -6560.00
01311           -6560.00
01312           -6560.00
01313           -6560.00
01314           -6560.00
01315           -6480.00
01316           -6480.00
01317           -6400.00
01318           -6480.00
01319           -6320.00
01320           -6320.00
01321           -6240.00
01322           -6240.00
01323           -6240.00
01324           -6240.00
01325           -6160.00
01326           -6240.00
01327           -6160.00
01328           -6080.00
01329           -6160.00
01330           -6000.00
01331           -6000.00
01332           -6000.00
01333           -6000.00
01334           -5920.00
01335           -5920.00
01336           -5920.00
01337           -5840.00
01338           -5840.00
01339           -5840.00
01340           -5760.00
01341           -5680.00
01342           -5680.00
01343           -5680.00
01344           -5600.00
01345           -5600.00
01346           -5600.00
01347           -5600.00
01348           -5600.00
01349           -5520.00
01350           -5520.00
01351           -5440.00
01352           -5360.00
01353           -5360.00
01354           -5360.00
01355           -5280.00
01356           -5280.00
01357           -5200.00
01358           -5280.00
01359           -5200.00
01360           -5040.00
01361           -5040.00
01362           -5040.00
01363           -4960.00
01364           -4960.00
01365           -4960.00
01366           -4960.00
01367           -4880.00
01368           -4880.00
01369           -4720.00
01370           -4720.00
01371           -4720.00
01372           -4720.00
01373           -4640.00
01374           -4640.00
01375           -4560.00
01376           -4400.00
01377           -4560.00
01378           -4400.00
01379           -4400.00
01380           -4320.00
01381           -4320.00
01382           -4320.00
01383           -4240.00
01384           -4080.00
01385           -4160.00
01386           -4080.00
01387           -4080.00
01388           -4080.00
01389           -4000.00
01390           -4000.00
01391           -4000.00
01392           -3920.00
01393           -3760.00
01394           -3760.00
01395           -3760.00
01396           -3680.00
01397           -3680.00
01398           -3680.00
01399           -3600.00
01400           -3520.00
01401           -3440.00
01402           -3440.00
01403           -3440.00
01404           -3440.00
01405           -3360.00
01406           -3360.00
01407           -3280.00
01408           -3280.00
01409           -3280.00
01410           -3120.00
01411           -3120.00
01412           -3040.00
01413           -3040.00
01414           -3040.00
01415           -2960.00
01416           -2960.00
01417           -2880.00
01418           -2800.00
01419           -2800.00
01420           -2720.00
01421           -2720.00
01422           -2640.00
01423           -2640.00
01424           -2480.00
01425           -2480.00
01426           -2480.00
01427           -2400.00
01428           -2400.00
01429           -2400.00
01430           -2320.00
01431           -2160.00
01432           -2160.00
01433           -2160.00
01434           -2080.00
01435           -2080.00
01436           -2000.00
01437           -2000.00
01438           -1920.00
01439           -1840.00
01440           -1840.00
01441           -1760.00
01442           -1760.00
01443           -1760.00
01444           -1520.00
01445           -1600.00
01446           -1520.00
01447           -1520.00
01448           -1440.00
01449           -1360.00
01450           -1280.00
01451           -1360.00
01452           -1200.00
01453           -1200.00
01454           -1120.00
01455           -1120.00
01456           -1040.00
01457           -1040.00
01458           -1040.00
01459            -880.00
01460            -880.00
01461            -800.00
01462            -800.00
01463            -800.00
01464            -720.00
01465            -720.00
01466            -560.00
01467            -480.00
01468            -480.00
01469            -480.00
01470            -400.00
01471            -400.00
01472            -320.00
01473            -240.00
01474            -240.00
01475            -240.00
01476            -160.00
01477             -80.00
01478             -80.00
01479             -80.00
01480              80.00
01481              80.00
01482             160.00
01483             160.00
01484             240.00
01485             240.00
01486             320.00
01487             400.00
01488             400.00
01489             480.00
01490             560.00
01491             560.00
01492             560.00
01493             560.00
01494             720.00
01495             800.00
01496             720.00
01497             800.00
01498             880.00
01499             880.00
01500            1040.00
01501            1040.00
01502            1120.00
01503            1120.00
01504            1120.00
01505            1360.00
01506            1360.00
01507            1200.00
01508            1360.00
01509            1440.00
01510            1440.00
01511            1520.00
01512            1520.00
01513            1680.00
01514            1680.00
01515            1760.00
01516            1760.00
01517            1760.00
01518            1840.00
01519            1920.00
01520            2000.00
01521            2000.00
01522            2080.00
01523            2080.00
01524            2160.00
01525            2160.00
01526            2240.00
01527            2320.00
01528            2320.00
01529            2400.00
01530            2400.00
01531            2480.00
01532            2480.00
01533            2640.00
01534            2640.00
01535            2640.00
01536            2720.00
01537            2720.00
01538            2720.00
01539            2720.00
01540            2800.00
01541            2880.00
01542            2960.00
01543            2960.00
01544            3040.00
01545            3040.00
01546            3040.00
01547            3120.00
01548            3120.00
01549            3280.00
01550            3360.00
01551            3360.00
01552            3360.00
01553            3360.00
01554            3440.00
01555            3520.00
01556            3440.00
01557            3600.00
01558            3600.00
01559            3680.00
01560            3680.00
01561            3760.00
01562            3760.00
01563            3920.00
01564            3920.00
01565            3920.00
01566            4000.00
01567            4000.00
01568            4000.00
01569            4000.00
01570            4080.00
01571            4240.00
01572            4240.00
01573            4240.00
01574            4320.00
01575            4320.00
01576            4400.00
01577            4400.00
01578            4400.00
01579            4560.00
01580            4480.00
01581            4560.00
01582            4640.00
01583            4640.00
01584            4640.00
01585            4720.00
01586            4800.00
01587            4880.00
01588            4880.00
01589            4880.00
01590            4960.00
01591            4960.00
01592            4960.00
01593            5040.00
01594            5040.00
01595            5040.00
01596            5200.00
01597            5200.00
01598            5200.00
01599            5280.00
01600            5280.00
01601            5280.00
01602            5280.00
01603            5280.00
01604            5360.00
01605            5360.00
01606            5520.00
01607            5520.00
01608            5520.00
01609            5600.00
01610            5600.00
01611            5600.00
01612            5680.00
01613            5680.00
01614            5680.00
01615            5840.00
01616            5840.00
01617            5840.00
01618            5920.00
01619            5920.00
01620            5920.00
01621            5920.00
01622            6000.00
01623            6000.00
01624            6080.00
01625            6000.00
01626            6160.00
01627            6160.00
01628            6160.00
01629            6240.00
01630            6240.00
01631            6240.00
01632            6240.00
01633            6320.00
01634            6320.00
01635            6320.00
01636            6480.00
01637            6400.00
01638            6480.00
01639            6480.00
01640            6560.00
01641            6560.00
01642            6560.00
01643            6560.00
01644            6640.00
01645            6560.00
01646            6640.00
01647            6640.00
01648            6640.00
01649            6800.00
01650            6800.00
01651            6800.00
01652            6800.00
01653            6800.00
01654            6800.00
01655            6800.00
01656            6880.00
01657            6880.00
01658            6960.00
01659            6880.00
01660            6960.00
01661            6960.00
01662            6960.00
01663            6960.00
01664            7040.00
01665            7040.00
01666            7120.00
01667            7120.00
01668            7120.00
01669            7200.00
01670            7120.00
01671            7200.00
01672            7200.00
01673            7200.00
01674            7200.00
01675            7200.00
01676            7200.00
01677            7280.00
01678            7280.00
01679            7280.00
01680            7360.00
01681            7280.00
01682            7360.00
01683            7440.00
01684            7360.00
01685            7440.00
01686            7440.00
01687            7440.00
01688            7440.00
01689            7440.00
01690            7440.00
01691            7520.00
01692            7440.00
01693            7440.00
01694            7520.00
01695            7440.00
01696            7520.00
01697            7520.00
01698            7520.00
01699            7520.00
01700            7600.00
01701            7520.00
01702            7600.00
01703            7520.00
01704            7600.00
01705            7600.00
01706            7600.00
01707            7600.00
01708            7600.00
01709            7600.00
01710            7600.00
01711            7760.00
01712            7680.00
01713            7600.00
01714            7680.00
01715            7680.00
01716            7760.00
01717            7600.00
01718            7760.00
01719            7680.00
01720            7600.00
01721            7760.00
01722            7760.00
01723            7760.00
01724            7760.00
01725            7680.00
01726            7760.00
01727            7760.00
01728            7760.00
01729            7760.00
01730            7680.00
01731            7760.00
01732            7760.00
01733            7760.00
01734            7760.00
01735            7680.00
01736            7760.00
01737            7760.00
01738            7600.00
01739            7680.00
01740            7680.00
01741            7680.00
01742            7680.00
01743            7760.00
01744            7760.00
01745            7600.00
01746            7760.00
01747            7760.00
01748            7680.00
01749            7600.00
01750            7600.00
01751            7600.00
01752            7600.00
01753            7680.00
01754            7600.00
01755            7600.00
01756            7600.00
01757            7600.00
01758            7600.00
01759            7600.00
01760            7600.00
01761            7600.00
01762            7600.00
01763            7600.00
01764            7520.00
01765            7520.00
01766            7520.00
01767            7520.00
01768            7520.00
01769            7520.00
01770            7440.00
01771            7440.00
01772            7520.00
01773            7440.00
01774            7520.00
01775            7440.00
01776            7440.00
01777            7440.00
01778            7440.00
01779            7440.00
01780            7440.00
01781            7280.00
01782            7440.00
01783            7360.00
01784            7280.00
01785            7280.00
01786            7280.00
01787            7280.00
01788            7280.00
01789            7280.00
01790            7200.00
01791            7280.00
01792            7200.00
01793            7200.00
01794            7120.00
01795            7200.00
01796            7200.00
01797            7200.00
01798            7120.00
01799            7040.00
01800            6960.00
01801            6960.00
01802            6960.00
01803            6960.00
01804            6960.00
01805            6960.00
01806            6880.00
01807            6880.00
01808            6880.00
01809            6880.00
01810            6800.00
01811            6800.00
01812            6800.00
01813            6800.00
01814            6800.00
01815            6800.00
01816            6720.00
01817            6640.00
01818            6640.00
01819            6560.00
01820            6560.00
01821            6560.00
01822            6560.00
01823            6560.00
01824            6560.00
01825            6480.00
01826            6480.00
01827            6480.00
01828            6480.00
01829            6320.00
01830            6320.00
01831            6320.00
01832            6240.00
01833            6240.00
01834            6240.00
01835            6240.00
01836            6160.00
01837            6160.00
01838            6160.00
01839            6160.00
01840            6160.00
01841            6000.00
01842            6000.00
01843            6000.00
01844            5920.00
01845            6000.00
01846            5920.00
01847            5920.00
01848            5920.00
01849            5840.00
01850            5840.00
01851            5840.00
01852            5760.00
01853            5680.00
01854            5680.00
01855            5600.00
01856            5600.00
01857            5600.00
01858            5600.00
01859            5520.00
01860            5440.00
01861            5360.00
01862            5360.00
01863            5360.00
01864            5280.00
01865            5280.00
01866            5280.00
01867            5200.00
01868            5200.00
01869            5200.00
01870            5200.00
01871            5040.00
01872            5040.00
01873            4960.00
01874            4880.00
01875            4880.00
01876            4880.00
01877            4880.00
01878            4880.00
01879            4800.00
01880            4720.00
01881            4720.00
01882            4640.00
01883            4640.00
01884            4560.00
01885            4560.00
01886            4560.00
01887            4400.00
01888            4400.00
01889            4400.00
01890            4320.00
01891            4320.00
01892            4240.00
01893            4240.00
01894            4240.00
01895            4240.00
01896            4160.00
01897            4080.00
01898            4000.00
01899            4000.00
01900            4000.00
01901            4000.00
01902            3920.00
01903            3920.00
01904            3840.00
01905            3760.00
01906            3760.00
01907            3680.00
01908            3680.00
01909            3600.00
01910            3600.00
01911            3440.00
01912            3440.00
01913            3440.00
01914            3440.00
01915            3360.00
01916            3360.00
01917            3280.00
01918            3280.00
01919            3280.00
01920            3120.00
01921            3040.00
01922            3040.00
01923            3040.00
01924            2960.00
01925            2960.00
01926            2800.00
01927            2800.00
01928            2720.00
01929            2720.00
01930            2720.00
01931            2640.00
01932            2640.00
01933            2480.00
01934            2480.00
01935            2400.00
01936            2400.00
01937            2320.00
01938            2320.00
01939            2320.00
01940            2320.00
01941            2240.00
01942            2160.00
01943            2080.00
01944            2080.00
01945            2080.00
01946            2000.00
01947            1920.00
01948            1840.00
01949            1760.00
01950            1760.00
01951            1680.00
01952            1680.00
01953            1680.00
01954            1600.00
01955            1520.00
01956            1520.00
01957            1520.00
01958            1440.00
01959            1360.00
01960            1360.00
01961            1360.00
01962            1200.00
01963            1200.00
01964            1120.00
01965            1120.00
01966            1120.00
01967            1040.00
01968            1040.00
01969             960.00
01970             880.00
01971             880.00
01972             800.00
01973             720.00
01974             720.00
01975             720.00
01976             560.00
01977             560.00
01978             480.00
01979             480.00
01980             480.00
01981             400.00
01982             400.00
01983             240.00
01984             240.00
01985             160.00
01986             160.00
01987             160.00
01988              80.00
01989               0.00
01990             -80.00
01991            -160.00
01992            -160.00
01993            -240.00
01994            -240.00
01995            -240.00
01996            -320.00
01997            -400.00
01998            -400.00
01999            -480.00
02000            -640.00
02001            -640.00
02002            -720.00
02003            -560.00
02004            -800.00
02005            -800.00
02006            -880.00
02007            -880.00
02008            -880.00
02009            -880.00
02010           -1040.00
02011           -1120.00
02012           -1120.00
02013           -1120.00
02014           -1200.00
02015           -1200.00
02016           -1360.00
02017           -1360.00
02018           -1360.00
02019           -1440.00
02020           -1520.00
02021           -1520.00
02022           -1520.00
02023           -1520.00
02024           -1680.00
02025           -1680.00
02026           -1760.00
02027           -1760.00
02028           -1840.00
02029           -1840.00
02030           -1920.00
02031           -2000.00
02032           -2000.00
02033           -2080.00
02034           -2160.00
02035           -2160.00
02036           -2160.00
02037           -2160.00
02038           -2320.00
02039           -2400.00
02040           -2400.00
02041           -2480.00
02042           -2480.00
02043           -2480.00
02044           -2560.00
02045           -2640.00
02046           -2720.00
02047           -2720.00
02048           -2800.00
02049           -2720.00
02050           -2800.00
02051           -2880.00
02052           -2960.00
02053           -2960.00
02054           -3040.00
02055           -3040.00
02056           -3120.00
02057           -3120.00
02058           -3120.00
02059           -3280.00
02060           -3360.00
02061           -3360.00
02062           -3360.00
02063           -3440.00
02064           -3440.00
02065           -3440.00
02066           -3600.00
02067           -3600.00
02068           -3680.00
02069           -3680.00
02070           -3760.00
02071           -3760.00
02072           -3760.00
02073           -3840.00
02074           -3840.00
02075           -4000.00
02076           -4000.00
02077           -4000.00
02078           -4080.00
02079           -4080.00
02080           -4080.00
02081           -4240.00
02082           -4080.00
02083           -4320.00
02084           -4320.00
02085           -4320.00
02086           -4320.00
02087           -4400.00
02088           -4400.00
02089           -4400.00
02090           -4560.00
02091           -4640.00
02092           -4640.00
02093           -4560.00
02094           -4720.00
02095           -4720.00
02096           -4720.00
02097           -4720.00
02098           -4800.00
02099           -4880.00
02100           -4960.00
02101           -4880.00
02102           -4960.00
02103           -4960.00
02104           -5040.00
02105           -5040.00
02106           -5120.00
02107           -5200.00
02108           -5200.00
02109           -5280.00
02110           -5280.00
02111           -5280.00
02112           -5280.00
02113           -5360.00
02114           -5360.00
02115           -5520.00
02116           -5440.00
02117           -5520.00
02118           -5520.00
02119           -5600.00
02120           -5600.00
02121           -5600.00
02122           -5680.00
02123           -5680.00
02124           -5760.00
02125           -5760.00
02126           -5760.00
02127           -5840.00
02128           -5840.00
02129           -5920.00
02130           -5920.00
02131           -6000.00
02132           -6000.00
02133           -6000.00
02134           -6000.00
02135           -6000.00
02136           -6160.00
02137           -6160.00
02138           -6160.00
02139           -6240.00
02140           -6240.00
02141           -6240.00
02142           -6320.00
02143           -6320.00
02144           -6320.00
02145           -6320.00
02146           -6400.00
02147           -6400.00
02148           -6560.00
02149           -6480.00
02150           -6560.00
02151           -6480.00
02152           -6560.00
02153           -6560.00
02154           -6640.00
02155           -6560.00
02156           -6640.00
02157           -6640.00
02158           -6640.00
02159           -6640.00
02160           -6720.00
02161           -6720.00
02162           -6800.00
02163           -6800.00
02164           -6800.00
02165           -6800.00
02166           -6880.00
02167           -6880.00
02168           -6880.00
02169           -6960.00
02170           -6880.00
02171           -6880.00
02172           -6960.00
02173           -6960.00
02174           -6960.00
02175           -6960.00
02176           -7040.00
02177           -7120.00
02178           -7120.00
02179           -7120.00
02180           -7120.00
02181           -7120.00
02182           -7120.00
02183           -7200.00
02184           -7200.00
02185           -7200.00
02186           -7280.00
02187           -7280.00
02188           -7280.00
02189           -7280.00
02190           -7280.00
02191           -7280.00
02192           -7280.00
02193           -7360.00
02194           -7440.00
02195           -7360.00
02196           -7440.00
02197           -7440.00
02198           -7440.00
02199           -7520.00
02200           -7440.00
02201           -7520.00
02202           -7440.00
02203           -7520.00
02204           -7520.00
02205           -7520.00
02206           -7520.00
02207           -7520.00
02208           -7520.00
02209           -7520.00
02210           -7600.00
02211           -7520.00
02212           -7520.00
02213           -7520.00
02214           -7520.00
02215           -7600.00
02216           -7600.00
02217           -7600.00
02218           -7600.00
02219           -7600.00
02220           -7600.00
02221           -7600.00
02222           -7600.00
02223           -7600.00
02224           -7600.00
02225           -7600.00
02226           -7680.00
02227           -7600.00
02228           -7600.00
02229           -7600.00
02230           -7680.00
02231           -7600.00
02232           -7600.00
02233           -7600.00
02234           -7680.00
02235           -7680.00
02236           -7680.00
02237           -7600.00
02238           -7760.00
02239           -7600.00
02240           -7600.00
02241           -7600.00
02242           -7680.00
02243           -7600.00
02244           -7600.00
02245           -7600.00
02246           -7680.00
02247           -7600.00
02248           -7680.00
02249           -7680.00
02250           -7600.00
02251           -7600.00
02252           -7600.00
02253           -7760.00
02254           -7680.00
02255           -7600.00
02256           -7600.00
02257           -7600.00
02258           -7600.00
02259           -7600.00
02260           -7680.00
02261           -7600.00
02262           -7600.00
02263           -7600.00
02264           -7600.00
02265           -7600.00
02266           -7600.00
02267           -7600.00
02268           -7600.00
02269           -7520.00
02270           -7600.00
02271           -7600.00
02272           -7600.00
02273           -7520.00
02274           -7520.00
02275           -7520.00
02276           -7520.00
02277           -7520.00
02278           -7520.00
02279           -7520.00
02280           -7520.00
02281           -7440.00
02282           -7440.00
02283           -7520.00
02284           -7440.00
02285           -7440.00
02286           -7440.00
02287           -7440.00
02288           -7440.00
02289           -7360.00
02290           -7280.00
02291           -7360.00
02292           -7280.00
02293           -7280.00
02294           -7280.00
02295           -7280.00
02296           -7280.00
02297           -7200.00
02298           -7200.00
02299           -7200.00
02300           -7200.00
02301           -7200.00
02302           -7200.00
02303           -7200.00
02304           -7200.00
02305           -7120.00
02306           -7120.00
02307           -7040.00
02308           -7120.00
02309           -6960.00
02310           -7040.00
02311           -6960.00
02312           -6960.00
02313           -6960.00
02314           -6880.00
02315           -6880.00
02316           -6880.00
02317           -6880.00
02318           -6880.00
02319           -6880.00
02320           -6800.00
02321           -6800.00
02322           -6800.00
02323           -6800.00
02324           -6800.00
02325           -6720.00
02326           -6720.00
02327           -6640.00
02328           -6640.00
02329           -6640.00
02330           -6640.00
02331           -6560.00
02332           -6560.00
02333           -6560.00
02334           -6560.00
02335           -6480.00
02336           -6480.00
02337           -6480.00
02338           -6320.00
02339           -6320.00
02340           -6320.00
02341           -6320.00
02342           -6240.00
02343           -6240.00
02344           -6240.00
02345           -6240.00
02346           -6160.00
02347           -6160.00
02348           -6000.00
02349           -6160.00
02350           -6000.00
02351           -6000.00
02352           -6000.00
02353           -6000.00
02354           -5920.00
02355           -5920.00
02356           -5840.00
02357           -5840.00
02358           -5840.00
02359           -5680.00
02360           -5680.00
02361           -5680.00
02362           -5600.00
02363           -5600.00
02364           -5600.00
02365           -5600.00
02366           -5600.00
02367           -5440.00
02368           -5440.00
02369           -5440.00
02370           -5360.00
02371           -5360.00
02372           -5360.00
02373           -5360.00
02374           -5280.00
02375           -5280.00
02376           -5200.00
02377           -5120.00
02378           -5200.00
02379           -5040.00
02380           -5040.00
02381           -5040.00
02382           -4960.00
02383           -4960.00
02384           -4960.00
02385           -4880.00
02386           -4880.00
02387           -4880.00
02388           -4800.00
02389           -4720.00
02390           -4720.00
02391           -4640.00
02392           -4640.00
02393           -4640.00
02394           -4560.00
02395           -4560.00
02396           -4560.00
02397           -4400.00
02398           -4400.00
02399           -4320.00
02400           -4400.00
02401           -4320.00
02402           -4240.00
02403           -4240.00
02404           -4240.00
02405           -4080.00
02406           -4080.00
02407           -4000.00
02408           -4080.00
02409           -4000.00
02410           -4000.00
02411           -3920.00
02412           -3840.00
02413           -3760.00
02414           -3760.00
02415           -3680.00
02416           -3680.00
02417           -3680.00
02418           -3600.00
02419           -3600.00
02420           -3600.00
02421           -3440.00
02422           -3440.00
02423           -3360.00
02424           -3360.00
02425           -3360.00
02426           -3280.00
02427           -3200.00
02428           -3120.00
02429           -3040.00
02430           -3040.00
02431           -3040.00
02432           -3040.00
02433           -2960.00
02434           -2960.00
02435           -2800.00
02436           -2800.00
02437           -2800.00
02438           -2800.00
02439           -2720.00
02440           -2640.00
02441           -2640.00
02442           -2560.00
02443           -2480.00
02444           -2480.00
02445           -2400.00
02446           -2400.00
02447           -2400.00
02448           -2400.00
02449           -2320.00
02450           -2320.00
02451           -2160.00
02452           -2160.00
02453           -2080.00
02454           -2080.00
02455           -2000.00
02456           -2000.00
02457           -1840.00
02458           -1840.00
02459           -1840.00
02460           -1760.00
02461           -1760.00
02462           -1760.00
02463           -1680.00
02464           -1680.00
02465           -1520.00
02466           -1520.00
02467           -1440.00
02468           -1440.00
02469           -1440.00
02470           -1360.00
02471           -1360.00
02472           -1200.00
02473           -1200.00
02474           -1120.00
02475           -1120.00
02476           -1040.00
02477            -960.00
02478            -880.00
02479            -880.00
02480            -880.00
02481            -800.00
02482            -800.00
02483            -720.00
02484            -720.00
02485            -560.00
02486            -480.00
02487            -480.00
02488            -400.00
02489            -480.00
02490            -320.00
02491            -240.00
02492            -240.00
02493            -240.00
02494            -240.00
02495            -160.00
02496             -80.00
02497             -80.00
02498               0.00
02499              80.00
02500              80.00
02501             160.00
02502             160.00
02503             240.00
02504             240.00
02505             240.00
02506             400.00
02507             400.00
02508             480.00
02509             480.00
02510             560.00
02511             560.00
02512             560.00
02513             720.00
02514             800.00
02515             800.00
02516             800.00
02517             880.00
02518            1040.00
02519            1040.00
02520            1040.00
02521            1040.00
02522            1040.00
02523            1200.00
02524            1200.00
02525            1200.00
02526            1360.00
02527            1360.00
02528            1440.00
02529            1440.00
02530            1440.00
02531            1440.00
02532            1520.00
02533            1680.00
02534            1680.00
02535            1680.00
02536            1760.00
02537            1760.00
02538            1840.00
02539            1840.00
02540            2000.00
02541            2000.00
02542            2080.00
02543            2160.00
02544            2160.00
02545            2160.00
02546            2240.00
02547            2320.00
02548            2320.00
02549            2400.00
02550            2400.00
02551            2480.00
02552            2560.00
02553            2560.00
02554            2640.00
02555            2720.00
02556            2720.00
02557            2720.00
02558            2800.00
02559            2880.00
02560            2800.00
02561            2960.00
02562            2960.00
02563            3040.00
02564            3120.00
02565            3120.00
02566            3120.00
02567            3280.00
02568            3360.00
02569            3360.00
02570            3360.00
02571            3360.00
02572            3440.00
02573            3440.00
02574            3440.00
02575            3600.00
02576            3520.00
02577            3600.00
02578            3680.00
02579            3680.00
02580            3760.00
02581            3760.00
02582            3920.00
02583            3920.00
02584            3920.00
02585            3920.00
02586            4000.00
02587            4000.00
02588            4000.00
02589            4080.00
02590            4080.00
02591            4240.00
02592            4240.00
02593            4320.00
02594            4320.00
02595            4320.00
02596            4320.00
02597            4400.00
02598            4400.00
02599            4560.00
02600            4560.00
02601            4640.00
02602            4640.00
02603            4640.00
02604            4720.00
02605            4720.00
02606            4720.00
02607            4880.00
02608            4880.00
02609            4880.00
02610            4880.00
02611            4960.00
02612            4960.00
02613            5040.00
02614            5040.00
02615            5200.00
02616            5200.00
02617            5200.00
02618            5280.00
02619            5280.00
02620            5280.00
02621            5360.00
02622            5360.00
02623            5520.00
02624            5360.00
02625            5520.00
02626            5520.00
02627            5600.00
02628            5520.00
02629            5600.00
02630            5600.00
02631            5680.00
02632            5680.00
02633            5680.00
02634            5840.00
02635            5840.00
02636            5840.00
02637            5840.00
02638            5920.00
02639            5920.00
02640            6000.00
02641            6000.00
02642            5920.00
02643            6000.00
02644            6000.00
02645            6160.00
02646            6160.00
02647            6160.00
02648            6160.00
02649            6240.00
02650            6160.00
02651            6240.00
02652            6240.00
02653            6320.00
02654            6320.00
02655            6320.00
02656            6320.00
02657            6480.00
02658            6480.00
02659            6480.00
02660            6480.00
02661            6560.00
02662            6480.00
02663            6560.00
02664            6560.00
02665            6560.00
02666            6560.00
02667            6720.00
02668            6640.00
02669            6800.00
02670            6720.00
02671            6800.00
02672            6800.00
02673            6800.00
02674            6800.00
02675            6880.00
02676            6880.00
02677            6880.00
02678            6880.00
02679            6880.00
02680            6960.00
02681            6960.00
02682            7040.00
02683            6960.00
02684            7120.00
02685            7120.00
02686            7120.00
02687            7120.00
02688            7120.00
02689            7120.00
02690            7200.00
02691            7200.00
02692            7200.00
02693            7200.00
02694            7280.00
02695            7200.00
02696            7280.00
02697            7280.00
02698            7360.00
02699            7280.00
02700            7440.00
02701            7280.00
02702            7360.00
02703            7440.00
02704            7360.00
02705            7440.00
02706            7440.00
02707            7440.00
02708            7440.00
02709            7440.00
02710            7440.00
02711            7440.00
02712            7440.00
02713            7520.00
02714            7520.00
02715            7440.00
02716            7520.00
02717            7520.00
02718            7520.00
02719            7520.00
02720            7520.00
02721            7600.00
02722            7520.00
02723            7520.00
02724            7600.00
02725            7600.00
02726            7600.00
02727            7600.00
02728            7600.00
02729            7600.00
02730            7600.00
02731            7600.00
02732            7600.00
02733            7600.00
02734            7680.00
02735            7760.00
02736            7600.00
02737            7680.00
02738            7760.00
02739            7760.00
02740            7680.00
02741            7760.00
02742            7680.00
02743            7680.00
02744            7680.00
02745            7760.00
02746            7760.00
02747            7760.00
02748            7760.00
02749            7760.00
02750            7760.00
02751            7760.00
02752            7760.00
02753            7760.00
02754            7760.00
02755            7760.00
02756            7760.00
02757            7760.00
02758            7760.00
02759            7760.00
02760            7760.00
02761            7760.00
02762            7760.00
02763            7760.00
02764            7760.00
02765            7760.00
02766            7760.00
02767            7680.00
02768            7680.00
02769            7760.00
02770            7680.00
02771            7760.00
02772            7680.00
02773            7680.00
02774            7600.00
02775            7600.00
02776            7600.00
02777            7600.00
02778            7600.00
02779            7600.00
02780            7600.00
02781            7520.00
02782            7600.00
02783            7520.00
02784            7520.00
02785            7520.00
02786            7520.00
02787            7520.00
02788            7440.00
02789            7440.00
02790            7440.00
02791            7520.00
02792            7520.00
02793            7440.00
02794            7440.00
02795            7440.00
02796            7440.00
02797            7440.00
02798            7440.00
02799            7440.00
02800            7440.00
02801            7280.00
02802            7440.00
02803            7280.00
02804            7280.00
02805            7280.00
02806            7280.00
02807            7280.00
02808            7200.00
02809            7200.00
02810            7200.00
02811            7200.00
02812            7200.00
02813            7200.00
02814            7200.00
02815            7120.00
02816            7120.00
02817            7120.00
02818            7120.00
02819            6960.00
02820            6960.00
02821            6960.00
02822            6960.00
02823            6960.00
02824            6960.00
02825            6880.00
02826            6960.00
02827            6880.00
02828            6880.00
02829            6800.00
02830            6800.00
02831            6800.00
02832            6800.00
02833            6800.00
02834            6800.00
02835            6720.00
02836            6720.00
02837            6640.00
02838            6640.00
02839            6560.00
02840            6560.00
02841            6560.00
02842            6560.00
02843            6480.00
02844            6480.00
02845            6480.00
02846            6400.00
02847            6320.00
02848            6320.00
02849            6400.00
02850            6320.00
02851            6320.00
02852            6240.00
02853            6160.00
02854            6240.00
02855            6160.00
02856            6160.00
02857            6160.00
02858            6160.00
02859            6000.00
02860            6000.00
02861            6000.00
02862            6000.00
02863            5920.00
02864            5920.00
02865            5920.00
02866            5920.00
02867            5840.00
02868            5840.00
02869            5840.00
02870            5760.00
02871            5680.00
02872            5680.00
02873            5600.00
02874            5600.00
02875            5600.00
02876            5600.00
02877            5520.00
02878            5520.00
02879            5520.00
02880            5520.00
02881            5360.00
02882            5360.00
02883            5360.00
02884            5280.00
02885            5280.00
02886            5200.00
02887            5200.00
02888            5200.00
02889            5200.00
02890            5040.00
02891            5040.00
02892            5040.00
02893            4960.00
02894            4960.00
02895            4880.00
02896            4880.00
02897            4880.00
02898            4880.00
02899            4800.00
02900            4720.00
02901            4720.00
02902            4640.00
02903            4640.00
02904            4560.00
02905            4560.00
02906            4560.00
02907            4400.00
02908            4400.00
02909            4320.00
02910            4320.00
02911            4240.00
02912            4240.00
02913            4240.00
02914            4080.00
02915            4080.00
02916            4080.00
02917            4000.00
02918            4000.00
02919            4000.00
02920            3920.00
02921            4000.00
02922            3760.00
02923            3760.00
02924            3760.00
02925            3680.00
02926            3680.00
02927            3680.00
02928            3600.00
02929            3600.00
02930            3600.00
02931            3440.00
02932            3440.00
02933            3360.00
02934            3360.00
02935            3360.00
02936            3360.00
02937            3280.00
02938            3120.00
02939            3120.00
02940            3040.00
02941            3120.00
02942            3040.00
02943            3040.00
02944            2960.00
02945            2960.00
02946            2800.00
02947            2800.00
02948            2720.00
02949            2720.00
02950            2640.00
02951            2640.00
02952            2640.00
02953            2480.00
02954            2560.00
02955            2400.00
02956            2400.00
02957            2400.00
02958            2320.00
02959            2320.00
02960            2240.00
02961            2160.00
02962            2080.00
02963            2160.00
02964            2080.00
02965            2000.00
02966            2000.00
02967            1840.00
02968            1840.00
02969            1840.00
02970            1760.00
02971            1680.00
02972            1680.00
02973            1520.00
02974            1520.00
02975            1440.00
02976            1440.00
02977            1440.00
02978            1440.00
02979            1360.00
02980            1360.00
02981            1200.00
02982            1200.00
02983            1120.00
02984            1040.00
02985            1040.00
02986            1040.00
02987             880.00
02988             880.00
02989             880.00
02990             800.00
02991             800.00
02992             720.00
02993             720.00
02994             640.00
02995             640.00
02996             560.00
02997             480.00
02998             480.00
02999             480.00
03000             400.00
03001             320.00
03002             240.00
03003             160.00
03004             160.00
03005             160.00
03006              80.00
03007              80.00
03008              80.00
03009             -80.00
03010             -80.00
03011            -160.00
03012            -160.00
03013            -160.00
03014            -240.00
03015            -320.00
03016            -400.00
03017            -400.00
03018            -480.00
03019            -560.00
03020            -560.00
03021            -560.00
03022            -560.00
03023            -720.00
03024            -800.00
03025            -880.00
03026            -800.00
03027            -880.00
03028            -880.00
03029            -960.00
03030           -1120.00
03031           -1120.00
03032           -1120.00
03033           -1120.00
03034           -1200.00
03035           -1200.00
03036           -1360.00
03037           -1360.00
03038           -1440.00
03039           -1520.00
03040           -1520.00
03041           -1520.00
03042           -1520.00
03043           -1680.00
03044           -1680.00
03045           -1760.00
03046           -1760.00
03047           -1840.00
03048           -1840.00
03049           -2000.00
03050           -2000.00
03051           -2000.00
03052           -2080.00
03053           -2080.00
03054           -2160.00
03055           -2240.00
03056           -2160.00
03057           -2320.00
03058           -2400.00
03059           -2400.00
03060           -2480.00
03061           -2480.00
03062           -2480.00
03063           -2640.00
03064           -2640.00
03065           -2640.00
03066           -2720.00
03067           -2720.00
03068           -2800.00
03069           -2800.00
03070           -2960.00
03071           -2880.00
03072           -2960.00
03073           -3040.00
03074           -3040.00
03075           -3040.00
03076           -3120.00
03077           -3120.00
03078           -3280.00
03079           -3280.00
03080           -3360.00
03081           -3280.00
03082           -3360.00
03083           -3440.00
03084           -3440.00
03085           -3440.00
03086           -3600.00
03087           -3680.00
03088           -3680.00
03089           -3680.00
03090           -3680.00
03091           -3760.00
03092           -3760.00
03093           -3760.00
03094           -3920.00
03095           -4000.00
03096           -3920.00
03097           -4000.00
03098           -4080.00
03099           -4080.00
03100           -4080.00
03101           -4240.00
03102           -4240.00
03103           -4320.00
03104           -4320.00
03105           -4320.00
03106           -4400.00
03107           -4400.00
03108           -4400.00
03109           -4560.00
03110           -4560.00
03111           -4640.00
03112           -4640.00
03113           -4720.00
03114           -4720.00
03115           -4720.00
03116           -4720.00
03117           -4880.00
03118           -4880.00
03119           -4960.00
03120           -4880.00
03121           -4960.00
03122           -5040.00
03123           -5040.00
03124           -5040.00
03125           -5040.00
03126           -5200.00
03127           -5200.00
03128           -5200.00
03129           -5280.00
03130           -5280.00
03131           -5360.00
03132           -5360.00
03133           -5360.00
03134           -5360.00
03135           -5440.00
03136           -5360.00
03137           -5520.00
03138           -5520.00
03139           -5600.00
03140           -5600.00
03141           -5680.00
03142           -5680.00
03143           -5680.00
03144           -5680.00
03145           -5840.00
03146           -5840.00
03147           -5840.00
03148           -5920.00
03149           -5920.00
03150           -5920.00
03151           -5920.00
03152           -5920.00
03153           -6000.00
03154           -6000.00
03155           -6080.00
03156           -6080.00
03157           -6160.00
03158           -6160.00
03159           -6160.00
03160           -6240.00
03161           -6240.00
03162           -6240.00
03163           -6240.00
03164           -6320.00
03165           -6320.00
03166           -6320.00
03167           -6480.00
03168           -6480.00
03169           -6560.00
03170           -6560.00
03171           -6480.00
03172           -6480.00
03173           -6560.00
03174           -6640.00
03175           -6640.00
03176           -6640.00
03177           -6640.00
03178           -6720.00
03179           -6720.00
03180           -6800.00
03181           -6800.00
03182           -6800.00
03183           -6880.00
03184           -6880.00
03185           -6800.00
03186           -6880.00
03187           -6880.00
03188           -6880.00
03189           -6960.00
03190           -6960.00
03191           -6960.00
03192           -6960.00
03193           -6960.00
03194           -6960.00
03195           -7120.00
03196           -7040.00
03197           -7040.00
03198           -7120.00
03199           -7120.00
03200           -7120.00
03201           -7200.00
03202           -7200.00
03203           -7200.00
03204           -7200.00
03205           -7280.00
03206           -7280.00
03207           -7200.00
03208           -7200.00
03209           -7280.00
03210           -7280.00
03211           -7280.00
03212           -7280.00
03213           -7280.00
03214           -7360.00
03215           -7360.00
03216           -7360.00
03217           -7440.00
03218           -7440.00
03219           -7440.00
03220           -7440.00
03221           -7440.00
03222           -7520.00
03223           -7520.00
03224           -7520.00
03225           -7520.00
03226           -7520.00
03227           -7520.00
03228           -7520.00
03229           -7600.00
03230           -7520.00
03231           -7600.00
03232           -7600.00
03233           -7600.00
03234           -7600.00
03235           -7600.00
03236           -7600.00
03237           -7600.00
03238           -7600.00
03239           -7680.00
03240           -7600.00
03241           -7600.00
03242           -7600.00
03243           -7680.00
03244           -7600.00
03245           -7680.00
03246           -7600.00
03247           -7680.00
03248           -7680.00
03249           -7600.00
03250           -7600.00
03251           -7600.00
03252           -7760.00
03253           -7760.00
03254           -7760.00
03255           -7760.00
03256           -7680.00
03257           -7600.00
03258           -7600.00
03259           -7680.00
03260           -7600.00
03261           -7600.00
03262           -7680.00
03263           -7760.00
03264           -7760.00
03265           -7760.00
03266           -7600.00
03267           -7760.00
03268           -7680.00
03269           -7600.00
03270           -7600.00
03271           -7600.00
03272           -7680.00
03273           -7600.00
03274           -7680.00
03275           -7600.00
03276           -7600.00
03277           -7600.00
03278           -7600.00
03279           -7600.00
03280           -7600.00
03281           -7520.00
03282           -7600.00
03283           -7600.00
03284           -7600.00
03285           -7600.00
03286           -7520.00
03287           -7600.00
03288           -7600.00
03289           -7520.00
03290           -7520.00
03291           -7520.00
03292           -7520.00
03293           -7520.00
03294           -7520.00
03295           -7520.00
03296           -7520.00
03297           -7520.00
03298           -7520.00
03299           -7520.00
03300           -7440.00
03301           -7520.00
03302           -7520.00
03303           -7440.00
03304           -7440.00
03305           -7520.00
03306           -7440.00
03307           -7440.00
03308           -7280.00
03309           -7280.00
03310           -7440.00
03311           -7280.00
03312           -7280.00
03313           -7280.00
03314           -7360.00
03315           -7280.00
03316           -7200.00
03317           -7280.00
03318           -7200.00
03319           -7200.00
03320           -7200.00
03321           -7200.00
03322           -7200.00
03323           -7120.00
03324           -7120.00
03325           -7120.00
03326           -6960.00
03327           -7120.00
03328           -6960.00
03329           -7040.00
03330           -6960.00
03331           -6880.00
03332           -6960.00
03333           -6880.00
03334           -6880.00
03335           -6880.00
03336           -6880.00
03337           -6880.00
03338           -6800.00
03339           -6880.00
03340           -6800.00
03341           -6720.00
03342           -6800.00
03343           -6720.00
03344           -6640.00
03345           -6640.00
03346           -6640.00
03347           -6640.00
03348           -6640.00
03349           -6640.00
03350           -6560.00
03351           -6480.00
03352           -6480.00
03353           -6480.00
03354           -6480.00
03355           -6400.00
03356           -6320.00
03357           -6320.00
03358           -6320.00
03359           -6320.00
03360           -6320.00
03361           -6320.00
03362           -6240.00
03363           -6240.00
03364           -6240.00
03365           -6160.00
03366           -6160.00
03367           -6160.00
03368           -6080.00
03369           -6080.00
03370           -6000.00
03371           -6000.00
03372           -6000.00
03373           -5920.00
03374           -5920.00
03375           -5920.00
03376           -5840.00
03377           -5920.00
03378           -5680.00
03379           -5840.00
03380           -5680.00
03381           -5680.00
03382           -5600.00
03383           -5680.00
03384           -5600.00
03385           -5600.00
03386           -5520.00
03387           -5520.00
03388           -5520.00
03389           -5360.00
03390           -5360.00
03391           -5360.00
03392           -5360.00
03393           -5280.00
03394           -5280.00
03395           -5280.00
03396           -5200.00
03397           -5200.00
03398           -5120.00
03399           -5040.00
03400           -5040.00
03401           -4960.00
03402           -4960.00
03403           -4960.00
03404           -4880.00
03405           -4880.00
03406           -4880.00
03407           -4800.00
03408           -4720.00
03409           -4720.00
03410           -4640.00
03411           -4640.00
03412           -4640.00
03413           -4560.00
03414           -4560.00
03415           -4400.00
03416           -4400.00
03417           -4400.00
03418           -4320.00
03419           -4320.00
03420           -4320.00
03421           -4240.00
03422           -4160.00
03423           -4080.00
03424           -4080.00
03425           -4080.00
03426           -4080.00
03427           -4000.00
03428           -4000.00
03429           -4000.00
03430           -4000.00
03431           -3920.00
03432           -3760.00
03433           -3760.00
03434           -3760.00
03435           -3680.00
03436           -3680.00
03437           -3680.00
03438           -3600.00
03439           -3600.00
03440           -3440.00
03441           -3440.00
03442           -3440.00
03443           -3360.00
03444           -3360.00
03445           -3360.00
03446           -3280.00
03447           -3280.00
03448           -3120.00
03449           -3120.00
03450           -3120.00
03451           -3040.00
03452           -2960.00
03453           -2960.00
03454           -2880.00
03455           -2800.00
03456           -2800.00
03457           -2800.00
03458           -2720.00
03459           -2720.00
03460           -2640.00
03461           -2640.00
03462           -2560.00
03463           -2480.00
03464           -2400.00
03465           -2400.00
03466           -2400.00
03467           -2400.00
03468           -2320.00
03469           -2160.00
03470           -2160.00
03471           -2160.00
03472           -2080.00
03473           -2000.00
03474           -2000.00
03475           -1920.00
03476           -1840.00
03477           -1840.00
03478           -1760.00
03479           -1760.00
03480           -1760.00
03481           -1680.00
03482           -1600.00
03483           -1520.00
03484           -1600.00
03485           -1520.00
03486           -1440.00
03487           -1440.00
03488           -1440.00
03489           -1360.00
03490           -1200.00
03491           -1280.00
03492           -1200.00
03493           -1120.00
03494           -1120.00
03495           -1120.00
03496           -1040.00
03497            -960.00
03498            -880.00
03499            -880.00
03500            -880.00
03501            -800.00
03502            -720.00
03503            -720.00
03504            -560.00
03505            -560.00
03506            -560.00
03507            -480.00
03508            -480.00
03509            -400.00
03510            -400.00
03511            -400.00
03512            -240.00
03513            -240.00
03514            -160.00
03515            -160.00
03516             -80.00
03517             -80.00
03518              80.00
03519              80.00
03520             160.00
03521             160.00
03522             240.00
03523             240.00
03524             240.00
03525             400.00
03526             400.00
03527             480.00
03528             480.00
03529             640.00
03530             640.00
03531             720.00
03532             720.00
03533             800.00
03534             800.00
03535             800.00
03536             800.00
03537             880.00
03538            1040.00
03539            1040.00
03540            1040.00
03541            1120.00
03542            1200.00
03543            1200.00
03544            1360.00
03545            1280.00
03546            1360.00
03547            1440.00
03548            1520.00
03549            1440.00
03550            1520.00
03551            1520.00
03552            1680.00
03553            1680.00
03554            1680.00
03555            1760.00
03556            1840.00
03557            1840.00
03558            1840.00
03559            2000.00
03560            2000.00
03561            2080.00
03562            2080.00
03563            2160.00
03564            2160.00
03565            2160.00
03566            2320.00
03567            2320.00
03568            2320.00
03569            2400.00
03570            2480.00
03571            2480.00
03572            2640.00
03573            2640.00
03574            2640.00
03575            2720.00
03576            2720.00
03577            2720.00
03578            2800.00
03579            2800.00
03580            2960.00
03581            2960.00
03582            2960.00
03583            3040.00
03584            3040.00
03585            3120.00
03586            3120.00
03587            3280.00
03588            3280.00
03589            3360.00
03590            3360.00
03591            3440.00
03592            3440.00
03593            3440.00
03594            3600.00
03595            3600.00
03596            3600.00
03597            3680.00
03598            3680.00
03599            3760.00
03600            3760.00
03601            3760.00
03602            3920.00
03603            3920.00
03604            3920.00
03605            4000.00
03606            4000.00
03607            4080.00
03608            4080.00
03609            4160.00
03610            4240.00
03611            4240.00
03612            4240.00
03613            4320.00
03614            4400.00
03615            4400.00
03616            4400.00
03617            4560.00
03618            4560.00
03619            4560.00
03620            4640.00
03621            4640.00
03622            4640.00
03623            4640.00
03624            4720.00
03625            4720.00
03626            4800.00
03627            4880.00
03628            4880.00
03629            4880.00
03630            4960.00
03631            4960.00
03632            4960.00
03633            5040.00
03634            5040.00
03635            5120.00
03636            5200.00
03637            5200.00
03638            5200.00
03639            5280.00
03640            5280.00
03641            5360.00
03642            5360.00
03643            5360.00
03644            5440.00
03645            5440.00
03646            5520.00
03647            5520.00
03648            5520.00
03649            5600.00
03650            5600.00
03651            5680.00
03652            5760.00
03653            5840.00
03654            5760.00
03655            5840.00
03656            5840.00
03657            5920.00
03658            5920.00
03659            5920.00
03660            5920.00
03661            6000.00
03662            6000.00
03663            6000.00
03664            6080.00
03665            6160.00
03666            6160.00
03667            6160.00
03668            6240.00
03669            6240.00
03670            6240.00
03671            6320.00
03672            6320.00
03673            6400.00
03674            6400.00
03675            6320.00
03676            6480.00
03677            6480.00
03678            6480.00
03679            6560.00
03680            6560.00
03681            6560.00
03682            6560.00
03683            6640.00
03684            6640.00
03685            6640.00
03686            6640.00
03687            6640.00
03688            6640.00
03689            6800.00
03690            6800.00
03691            6800.00
03692            6800.00
03693            6800.00
03694            6800.00
03695            6880.00
03696            6880.00
03697            6800.00
03698            6960.00
03699            6880.00
03700            6960.00
03701            6960.00
03702            6960.00
03703            6960.00
03704            7040.00
03705            6960.00
03706            7120.00
03707            7120.00
03708            7120.00
03709            7200.00
03710            7200.00
03711            7200.00
03712            7200.00
03713            7200.00
03714            7280.00
03715            7200.00
03716            7280.00
03717            7280.00
03718            7280.00
03719            7440.00
03720            7280.00
03721            7360.00
03722            7440.00
03723            7440.00
03724            7440.00
03725            7440.00
03726            7440.00
03727            7440.00
03728            7440.00
03729            7440.00
03730            7440.00
03731            7520.00
03732            7520.00
03733            7520.00
03734            7520.00
03735            7520.00
03736            7520.00
03737            7520.00
03738            7520.00
03739            7600.00
03740            7600.00
03741            7600.00
03742            7600.00
03743            7600.00
03744            7600.00
03745            7600.00
03746            7600.00
03747            7600.00
03748            7600.00
03749            7600.00
03750            7680.00
03751            7600.00
03752            7600.00
03753            7600.00
03754            7600.00
03755            7760.00
03756            7600.00
03757            7600.00
03758            7600.00
03759            7680.00
03760            7760.00
03761            7600.00
03762            7680.00
03763            7760.00
03764            7760.00
03765            7760.00
03766            7760.00
03767            7680.00
03768            7760.00
03769            7760.00
03770            7760.00
03771            7760.00
03772            7680.00
03773            7760.00
03774            7760.00
03775            7760.00
03776            7680.00
03777            7600.00
03778            7760.00
03779            7760.00
03780            7760.00
03781            7680.00
03782            7760.00
03783            7760.00
03784            7680.00
03785            7600.00
03786            7760.00
03787            7600.00
03788            7680.00
03789            7680.00
03790            7600.00
03791            7600.00
03792            7760.00
03793            7680.00
03794            7600.00
03795            7600.00
03796            7600.00
03797            7600.00
03798            7600.00
03799            7600.00
03800            7600.00
03801            7600.00
03802            7600.00
03803            7520.00
03804            7520.00
03805            7520.00
03806            7520.00
03807            7520.00
03808            7520.00
03809            7440.00
03810            7520.00
03811            7440.00
03812            7440.00
03813            7440.00
03814            7440.00
03815            7440.00
03816            7440.00
03817            7440.00
03818            7440.00
03819            7280.00
03820            7280.00
03821            7280.00
03822            7280.00
03823            7280.00
03824            7280.00
03825            7280.00
03826            7200.00
03827            7200.00
03828            7200.00
03829            7200.00
03830            7200.00
03831            7200.00
03832            7200.00
03833            7120.00
03834            7120.00
03835            7120.00
03836            7120.00
03837            7120.00
03838            6960.00
03839            6960.00
03840            6960.00
03841            6960.00
03842            6960.00
03843            6960.00
03844            6880.00
03845            6960.00
03846            6880.00
03847            6880.00
03848            6880.00
03849            6880.00
03850            6800.00
03851            6800.00
03852            6800.00
03853            6800.00
03854            6800.00
03855            6720.00
03856            6640.00
03857            6640.00
03858            6640.00
03859            6560.00
03860            6560.00
03861            6560.00
03862            6560.00
03863            6560.00
03864            6560.00
03865            6480.00
03866            6400.00
03867            6400.00
03868            6320.00
03869            6320.00
03870            6400.00
03871            6320.00
03872            6240.00
03873            6240.00
03874            6160.00
03875            6240.00
03876            6160.00
03877            6160.00
03878            6160.00
03879            6080.00
03880            6000.00
03881            6000.00
03882            5920.00
03883            5920.00
03884            5920.00
03885            5920.00
03886            5840.00
03887            5840.00
03888            5840.00
03889            5680.00
03890            5840.00
03891            5680.00
03892            5680.00
03893            5600.00
03894            5600.00
03895            5520.00
03896            5520.00
03897            5520.00
03898            5520.00
03899            5360.00
03900            5440.00
03901            5360.00
03902            5280.00
03903            5280.00
03904            5280.00
03905            5200.00
03906            5200.00
03907            5200.00
03908            5200.00
03909            5040.00
03910            5040.00
03911            4960.00
03912            4960.00
03913            4960.00
03914            4960.00
03915            4880.00
03916            4880.00
03917            4720.00
03918            4800.00
03919            4720.00
03920            4720.00
03921            4640.00
03922            4640.00
03923            4640.00
03924            4560.00
03925            4560.00
03926            4400.00
03927            4400.00
03928            4400.00
03929            4320.00
03930            4320.00
03931            4240.00
03932            4240.00
03933            4240.00
03934            4240.00
03935            4080.00
03936            4080.00
03937            4080.00
03938            4000.00
03939            4000.00
03940            3920.00
03941            3920.00
03942            3920.00
03943            3760.00
03944            3680.00
03945            3760.00
03946            3680.00
03947            3600.00
03948            3600.00
03949            3520.00
03950            3440.00
03951            3440.00
03952            3440.00
03953            3280.00
03954            3280.00
03955            3280.00
03956            3280.00
03957            3120.00
03958            3120.00
03959            3040.00
03960            3040.00
03961            3040.00
03962            2960.00
03963            2960.00
03964            2800.00
03965            2800.00
03966            2800.00
03967            2720.00
03968            2720.00
03969            2720.00
03970            2640.00
03971            2560.00
03972            2480.00
03973            2480.00
03974            2480.00
03975            2400.00
03976            2320.00
03977            2320.00
03978            2320.00
03979            2160.00
03980            2160.00
03981            2160.00
03982            2160.00
03983            2080.00
03984            2080.00
03985            2000.00
03986            1920.00
03987            1840.00
03988            1840.00
03989            1760.00
03990            1680.00
03991            1760.00
03992            1680.00
03993            1680.00
03994            1520.00
03995            1520.00
03996            1440.00
03997            1440.00
03998            1440.00
03999            1360.00
04000            1360.00
04001            1200.00
04002            1120.00
04003            1200.00
04004            1120.00
04005            1040.00
04006            1040.00
04007             960.00
04008             880.00
04009             880.00
04010             800.00
04011             720.00
04012             720.00
04013             720.00
04014             560.00
04015             560.00
04016             480.00
04017             480.00
04018             400.00
04019             400.00
04020             400.00
04021             240.00
04022             160.00
04023             240.00
04024             160.00
04025             160.00
04026              80.00
04027              80.00
04028               0.00
04029            -160.00
04030            -160.00
04031            -160.00
04032            -160.00
04033            -240.00
04034            -320.00
04035            -240.00
04036            -480.00
04037            -480.00
04038            -560.00
04039            -640.00
04040            -640.00
04041            -560.00
04042            -640.00
04043            -800.00
04044            -880.00
04045            -880.00
04046            -880.00
04047            -880.00
04048            -960.00
04049           -1040.00
04050           -1120.00
04051           -1120.00
04052           -1120.00
04053           -1200.00
04054           -1360.00
04055           -1280.00
04056           -1360.00
04057           -1440.00
04058           -1440.00
04059           -1520.00
04060           -1520.00
04061           -1520.00
04062           -1680.00
04063           -1680.00
04064           -1760.00
04065           -1760.00
04066           -1760.00
04067           -1840.00
04068           -1840.00
04069           -1920.00
04070           -2000.00
04071           -2080.00
04072           -2080.00
04073           -2080.00
04074           -2160.00
04075           -2160.00
04076           -2320.00
04077           -2320.00
04078           -2400.00
04079           -2480.00
04080           -2480.00
04081           -2480.00
04082           -2640.00
04083           -2560.00
04084           -2640.00
04085           -2720.00
04086           -2720.00
04087           -2800.00
04088           -2880.00
04089           -2800.00
04090           -2960.00
04091           -2960.00
04092           -3040.00
04093           -3040.00
04094           -3120.00
04095           -3120.00
04096           -3280.00
04097           -3280.00
04098           -3360.00
04099           -3360.00
04100           -3360.00
04101           -3440.00
04102           -3440.00
04103           -3440.00
04104           -3600.00
04105           -3600.00
04106           -3680.00
04107           -3680.00
04108           -3680.00
04109           -3680.00
04110           -3760.00
04111           -3840.00
04112           -3920.00
04113           -3920.00
04114           -4000.00
04115           -4000.00
04116           -4080.00
04117           -4080.00
04118           -4080.00
04119           -4080.00
04120           -4240.00
04121           -4240.00
04122           -4320.00
04123           -4320.00
04124           -4320.00
04125           -4400.00
04126           -4400.00
04127           -4400.00
04128           -4560.00
04129           -4560.00
04130           -4560.00
04131           -4640.00
04132           -4640.00
04133           -4720.00
04134           -4720.00
04135           -4720.00
04136           -4800.00
04137           -4800.00
04138           -4960.00
04139           -4880.00
04140           -4960.00
04141           -5040.00
04142           -4960.00
04143           -5040.00
04144           -5040.00
04145           -5200.00
04146           -5200.00
04147           -5200.00
04148           -5200.00
04149           -5280.00
04150           -5280.00
04151           -5360.00
04152           -5360.00
04153           -5360.00
04154           -5440.00
04155           -5520.00
04156           -5520.00
04157           -5520.00
04158           -5600.00
04159           -5600.00
04160           -5600.00
04161           -5680.00
04162           -5680.00
04163           -5680.00
04164           -5840.00
04165           -5840.00
04166           -5920.00
04167           -5920.00
04168           -5920.00
04169           -5920.00
04170           -6000.00
04171           -6000.00
04172           -6000.00
04173           -6080.00
04174           -6000.00
04175           -6000.00
04176           -6160.00
04177           -6160.00
04178           -6240.00
04179           -6240.00
04180           -6240.00
04181           -6240.00
04182           -6320.00
04183           -6320.00
04184           -6320.00
04185           -6320.00
04186           -6400.00
04187           -6320.00
04188           -6480.00
04189           -6480.00
04190           -6480.00
04191           -6560.00
04192           -6480.00
04193           -6560.00
04194           -6640.00
04195           -6640.00
04196           -6640.00
04197           -6640.00
04198           -6720.00
04199           -6800.00
04200           -6800.00
04201           -6800.00
04202           -6800.00
04203           -6880.00
04204           -6880.00
04205           -6880.00
04206           -6880.00
04207           -6880.00
04208           -6880.00
04209           -6960.00
04210           -6960.00
04211           -6960.00
04212           -6960.00
04213           -7040.00
04214           -6960.00
04215           -7040.00
04216           -7120.00
04217           -7120.00
04218           -7120.00
04219           -7120.00
04220           -7200.00
04221           -7200.00
04222           -7200.00
04223           -7200.00
04224           -7200.00
04225           -7280.00
04226           -7280.00
04227           -7280.00
04228           -7280.00
04229           -7280.00
04230           -7280.00
04231           -7280.00
04232           -7360.00
04233           -7440.00
04234           -7360.00
04235           -7440.00
04236           -7440.00
04237           -7440.00
04238           -7440.00
04239           -7440.00
04240           -7520.00
04241           -7520.00
04242           -7520.00
04243           -7520.00
04244           -7520.00
04245           -7520.00
04246           -7440.00
04247           -7520.00
04248           -7520.00
04249           -7520.00
04250           -7520.00
04251           -7520.00
04252           -7520.00
04253           -7520.00
04254           -7520.00
04255           -7600.00
04256           -7600.00
04257           -7600.00
04258           -7600.00
04259           -7600.00
04260           -7600.00
04261           -7600.00
04262           -7600.00
04263           -7600.00
04264           -7600.00
04265           -7600.00
04266           -7600.00
04267           -7600.00
04268           -7600.00
04269           -7600.00
04270           -7600.00
04271           -7600.00
04272           -7600.00
04273           -7600.00
04274           -7760.00
04275           -7760.00
04276           -7760.00
04277           -7600.00
04278           -7680.00
04279           -7760.00
04280           -7600.00
04281           -7760.00
04282           -7760.00
04283           -7760.00
04284           -7760.00
04285           -7680.00
04286           -7680.00
04287           -7600.00
04288           -7760.00
04289           -7680.00
04290           -7600.00
04291           -7600.00
04292           -7600.00
04293           -7600.00
04294           -7680.00
04295           -7680.00
04296           -7600.00
04297           -7600.00
04298           -7600.00
04299           -7600.00
04300           -7600.00
04301           -7600.00
04302           -7600.00
04303           -7600.00
04304           -7600.00
04305           -7600.00
04306           -7600.00
04307           -7600.00
04308           -7600.00
04309           -7600.00
04310           -7520.00
04311           -7520.00
04312           -7520.00
04313           -7520.00
04314           -7520.00
04315           -7520.00
04316           -7520.00
04317           -7520.00
04318           -7440.00
04319           -7520.00
04320           -7440.00
04321           -7440.00
04322           -7440.00
04323           -7440.00
04324           -7440.00
04325           -7440.00
04326           -7280.00
04327           -7440.00
04328           -7360.00
04329           -7360.00
04330           -7280.00
04331           -7280.00
04332           -7280.00
04333           -7280.00
04334           -7280.00
04335           -7200.00
04336           -7200.00
04337           -7200.00
04338           -7200.00
04339           -7200.00
04340           -7200.00
04341           -7200.00
04342           -7200.00
04343           -7120.00
04344           -7120.00
04345           -7120.00
04346           -7120.00
04347           -6960.00
04348           -7040.00
04349           -7040.00
04350           -6960.00
04351           -6960.00
04352           -6960.00
04353           -6880.00
04354           -6880.00
04355           -6880.00
04356           -6880.00
04357           -6880.00
04358           -6880.00
04359           -6880.00
04360           -6800.00
04361           -6800.00
04362           -6800.00
04363           -6800.00
04364           -6640.00
04365           -6640.00
04366           -6800.00
04367           -6640.00
04368           -6560.00
04369           -6560.00
04370           -6560.00
04371           -6560.00
04372           -6480.00
04373           -6480.00
04374           -6480.00
04375           -6320.00
04376           -6480.00
04377           -6320.00
04378           -6240.00
04379           -6320.00
04380           -6240.00
04381           -6240.00
04382           -6240.00
04383           -6240.00
04384           -6160.00
04385           -6160.00
04386           -6080.00
04387           -6080.00
04388           -6000.00
04389           -6000.00
04390           -6000.00
04391           -5920.00
04392           -5920.00
04393           -5920.00
04394           -5920.00
04395           -5920.00
04396           -5840.00
04397           -5760.00
04398           -5680.00
04399           -5680.00
04400           -5600.00
04401           -5680.00
04402           -5600.00
04403           -5600.00
04404           -5600.00
04405           -5520.00
04406           -5520.00
04407           -5440.00
04408           -5440.00
04409           -5440.00
04410           -5360.00
04411           -5360.00
04412           -5360.00
04413           -5280.00
04414           -5280.00
04415           -5200.00
04416           -5200.00
04417           -5200.00
04418           -5200.00
04419           -5040.00
04420           -5040.00
04421           -5040.00
04422           -4960.00
04423           -4960.00
04424           -4960.00
04425           -4880.00
04426           -4800.00
04427           -4800.00
04428           -4720.00
04429           -4720.00
04430           -4640.00
04431           -4640.00
04432           -4640.00
04433           -4560.00
04434           -4560.00
04435           -4480.00
04436           -4400.00
04437           -4400.00
04438           -4320.00
04439           -4320.00
04440           -4320.00
04441           -4240.00
04442           -4160.00
04443           -4080.00
04444           -4080.00
04445           -4080.00
04446           -4000.00
04447           -4000.00
04448           -3920.00
04449           -3920.00
04450           -3920.00
04451           -3760.00
04452           -3760.00
04453           -3760.00
04454           -3680.00
04455           -3600.00
04456           -3680.00
04457           -3600.00
04458           -3600.00
04459           -3520.00
04460           -3440.00
04461           -3440.00
04462           -3360.00
04463           -3360.00
04464           -3360.00
04465           -3280.00
04466           -3280.00
04467           -3120.00
04468           -3120.00
04469           -3040.00
04470           -3040.00
04471           -3040.00
04472           -2960.00
04473           -2960.00
04474           -2960.00
04475           -2800.00
04476           -2800.00
04477           -2720.00
04478           -2720.00
04479           -2720.00
04480           -2640.00
04481           -2640.00
04482           -2480.00
04483           -2480.00
04484           -2400.00
04485           -2400.00
04486           -2400.00
04487           -2400.00
04488           -2320.00
04489           -2320.00
04490           -2160.00
04491           -2160.00
04492           -2080.00
04493           -2080.00
04494           -2000.00
04495           -2000.00
04496           -1840.00
04497           -1840.00
04498           -1760.00
04499           -1760.00
04500           -1760.00
04501           -1680.00
04502           -1600.00
04503           -1520.00
04504           -1520.00
04505           -1520.00
04506           -1440.00
04507           -1360.00
04508           -1360.00
04509           -1360.00
04510           -1200.00
04511           -1200.00
04512           -1120.00
04513           -1120.00
04514           -1120.00
04515           -1040.00
04516            -880.00
04517            -880.00
04518            -880.00
04519            -800.00
04520            -800.00
04521            -720.00
04522            -720.00
04523            -560.00
04524            -560.00
04525            -560.00
04526            -480.00
04527            -480.00
04528            -400.00
04529            -400.00
04530            -400.00
04531            -240.00
04532            -240.00
04533            -160.00
04534            -160.00
04535             -80.00
04536             -80.00
04537              80.00
04538              80.00
04539              80.00
04540             160.00
04541             160.00
04542             240.00
04543             240.00
04544             240.00
04545             400.00
04546             480.00
04547             480.00
04548             480.00
04549             640.00
04550             560.00
04551             640.00
04552             800.00
04553             800.00
04554             800.00
04555             720.00
04556            1040.00
04557             960.00
04558            1040.00
04559            1040.00
04560            1040.00
04561            1120.00
04562            1200.00
04563            1360.00
04564            1360.00
04565            1360.00
04566            1440.00
04567            1440.00
04568            1440.00
04569            1520.00
04570            1520.00
04571            1680.00
04572            1680.00
04573            1680.00
04574            1760.00
04575            1840.00
04576            1840.00
04577            2000.00
04578            2000.00
04579            2000.00
04580            2080.00
04581            2080.00
04582            2160.00
04583            2080.00
04584            2160.00
04585            2320.00
04586            2320.00
04587            2320.00
04588            2400.00
04589            2400.00
04590            2560.00
04591            2640.00
04592            2640.00
04593            2640.00
04594            2720.00
04595            2720.00
04596            2800.00
04597            2800.00
04598            2800.00
04599            2960.00
04600            2960.00
04601            2960.00
04602            3040.00
04603            3040.00
04604            3120.00
04605            3120.00
04606            3200.00
04607            3280.00
04608            3280.00
04609            3280.00
04610            3360.00
04611            3360.00
04612            3440.00
04613            3440.00
04614            3520.00
04615            3600.00
04616            3600.00
04617            3680.00
04618            3680.00
04619            3760.00
04620            3760.00
04621            3760.00
04622            3840.00
04623            4000.00
04624            3920.00
04625            4000.00
04626            4000.00
04627            4080.00
04628            4160.00
04629            4240.00
04630            4240.00
04631            4320.00
04632            4320.00
04633            4320.00
04634            4320.00
04635            4480.00
04636            4400.00
04637            4560.00
04638            4560.00
04639            4640.00
04640            4560.00
04641            4640.00
04642            4640.00
04643            4720.00
04644            4800.00
04645            4880.00
04646            4880.00
04647            4880.00
04648            4960.00
04649            4960.00
04650            5040.00
04651            5040.00
04652            5040.00
04653            5040.00
04654            5200.00
04655            5200.00
04656            5280.00
04657            5280.00
04658            5280.00
04659            5280.00
04660            5360.00
04661            5360.00
04662            5360.00
04663            5360.00
04664            5520.00
04665            5520.00
04666            5520.00
04667            5600.00
04668            5600.00
04669            5680.00
04670            5680.00
04671            5680.00
04672            5840.00
04673            5840.00
04674            5760.00
04675            5920.00
04676            5840.00
04677            5920.00
04678            5920.00
04679            5920.00
04680            6000.00
04681            6000.00
04682            6080.00
04683            6000.00
04684            6080.00
04685            6160.00
04686            6160.00
04687            6160.00
04688            6160.00
04689            6240.00
04690            6320.00
04691            6240.00
04692            6320.00
04693            6400.00
04694            6480.00
04695            6320.00
04696            6480.00
04697            6480.00
04698            6560.00
04699            6560.00
04700            6560.00
04701            6560.00
04702            6640.00
04703            6640.00
04704            6640.00
04705            6640.00
04706            6800.00
04707            6720.00
04708            6800.00
04709            6800.00
04710            6800.00
04711            6800.00
04712            6880.00
04713            6800.00
04714            6880.00
04715            6880.00
04716            6880.00
04717            6960.00
04718            6960.00
04719            6960.00
04720            6960.00
04721            6960.00
04722            7120.00
04723            7120.00
04724            7120.00
04725            7200.00
04726            7120.00
04727            7120.00
04728            7200.00
04729            7120.00
04730            7200.00
04731            7200.00
04732            7200.00
04733            7200.00
04734            7200.00
04735            7280.00
04736            7200.00
04737            7280.00
04738            7280.00
04739            7280.00
04740            7280.00
04741            7280.00
04742            7360.00
04743            7360.00
04744            7440.00
04745            7440.00
04746            7440.00
04747            7440.00
04748            7440.00
04749            7440.00
04750            7520.00
04751            7440.00
04752            7440.00
04753            7440.00
04754            7520.00
04755            7520.00
04756            7520.00
04757            7520.00
04758            7600.00
04759            7520.00
04760            7600.00
04761            7600.00
04762            7600.00
04763            7680.00
04764            7600.00
04765            7600.00
04766            7600.00
04767            7680.00
04768            7600.00
04769            7760.00
04770            7600.00
04771            7680.00
04772            7600.00
04773            7760.00
04774            7600.00
04775            7760.00
04776            7680.00
04777            7760.00
04778            7600.00
04779            7760.00
04780            7760.00
04781            7760.00
04782            7680.00
04783            7760.00
04784            7760.00
04785            7760.00
04786            7760.00
04787            7760.00
04788            7760.00
04789            7760.00
04790            7760.00
04791            7760.00
04792            7680.00
04793            7760.00
04794            7600.00
04795            7680.00
04796            7760.00
04797            7680.00
04798            7600.00
04799            7760.00
04800            7600.00
04801            7600.00
04802            7600.00
04803            7680.00
04804            7600.00
04805            7600.00
04806            7600.00
04807            7600.00
04808            7600.00
04809            7600.00
04810            7600.00
04811            7520.00
04812            7600.00
04813            7600.00
04814            7600.00
04815            7600.00
04816            7600.00
04817            7600.00
04818            7600.00
04819            7600.00
04820            7520.00
04821            7520.00
04822            7520.00
04823            7600.00
04824            7520.00
04825            7520.00
04826            7440.00
04827            7440.00
04828            7440.00
04829            7440.00
04830            7440.00
04831            7440.00
04832            7440.00
04833            7440.00
04834            7440.00
04835            7440.00
04836            7440.00
04837            7440.00
04838            7360.00
04839            7280.00
04840            7440.00
04841            7360.00
04842            7280.00
04843            7280.00
04844            7280.00
04845            7280.00
04846            7280.00
04847            7200.00
04848            7200.00
04849            7280.00
04850            7200.00
04851            7200.00
04852            7200.00
04853            7120.00
04854            7120.00
04855            7200.00
04856            7120.00
04857            7120.00
04858            7120.00
04859            6960.00
04860            6960.00
04861            6960.00
04862            6880.00
04863            6880.00
04864            6880.00
04865            6800.00
04866            6880.00
04867            6800.00
04868            6800.00
04869            6800.00
04870            6800.00
04871            6800.00
04872            6800.00
04873            6800.00
04874            6720.00
04875            6640.00
04876            6640.00
04877            6560.00
04878            6560.00
04879            6560.00
04880            6560.00
04881            6480.00
04882            6480.00
04883            6480.00
04884            6480.00
04885            6480.00
04886            6400.00
04887            6320.00
04888            6320.00
04889            6320.00
04890            6320.00
04891            6240.00
04892            6240.00
04893            6240.00
04894            6240.00
04895            6240.00
04896            6160.00
04897            6160.00
04898            6160.00
04899            6000.00
04900            6000.00
04901            6000.00
04902            6000.00
04903            5920.00
04904            5920.00
04905            5920.00
04906            5840.00
04907            5840.00
04908            5840.00
04909            5760.00
04910            5680.00
04911            5680.00
04912            5680.00
04913            5600.00
04914            5520.00
04915            5520.00
04916            5520.00
04917            5520.00
04918            5520.00
04919            5360.00
04920            5360.00
04921            5360.00
04922            5360.00
04923            5280.00
04924            5280.00
04925            5200.00
04926            5200.00
04927            5200.00
04928            5040.00
04929            5040.00
04930            4960.00
04931            4960.00
04932            4880.00
04933            4880.00
04934            4880.00
04935            4880.00
04936            4880.00
04937            4720.00
04938            4640.00
04939            4720.00
04940            4640.00
04941            4640.00
04942            4560.00
04943            4560.00
04944            4480.00
04945            4400.00
04946            4400.00
04947            4320.00
04948            4320.00
04949            4320.00
04950            4240.00
04951            4240.00
04952            4240.00
04953            4160.00
04954            4080.00
04955            4080.00
04956            4000.00
04957            4000.00
04958            4000.00
04959            3920.00
04960            3920.00
04961            3840.00
04962            3760.00
04963            3760.00
04964            3680.00
04965            3680.00
04966            3680.00
04967            3600.00
04968            3600.00
04969            3600.00
04970            3440.00
04971            3440.00
04972            3360.00
04973            3360.00
04974            3360.00
04975            3360.00
04976            3280.00
04977            3200.00
04978            3040.00
04979            3040.00
04980            3040.00
04981            3040.00
04982            3040.00
04983            2960.00
04984            2960.00
04985            2800.00
04986            2800.00
04987            2720.00
04988            2720.00
04989            2720.00
04990            2640.00
04991            2480.00
04992            2480.00
04993            2480.00
04994            2400.00
04995            2400.00
04996            2320.00
04997            2320.00
04998            2160.00
04999            2240.00
05000            2080.00
