Unit:(mV)
                     CH1
Frequency    300.960 kHz
00001            1400.00
00002            1200.00
00003            1000.00
00004             600.00
00005             200.00
00006            -200.00
00007            -400.00
00008           -1000.00
00009           -1000.00
00010           -1400.00
00011           -1800.00
00012           -2000.00
00013           -2200.00
00014           -2600.00
00015           -2800.00
00016           -3600.00
00017           -4200.00
00018           -4200.00
00019           -4200.00
00020           -4400.00
00021           -5000.00
00022           -5200.00
00023           -5400.00
00024           -6000.00
00025           -6200.00
00026           -6200.00
00027           -7000.00
00028           -7000.00
00029           -7400.00
00030           -7800.00
00031           -8000.00
00032           -8400.00
00033           -8600.00
00034           -9000.00
00035           -9400.00
00036           -9400.00
00037           -9800.00
00038          -10200.00
00039          -10200.00
00040          -10600.00
00041          -10800.00
00042          -11000.00
00043          -11600.00
00044          -11600.00
00045          -12200.00
00046          -12200.00
00047          -12600.00
00048          -12600.00
00049          -13000.00
00050          -13200.00
00051          -13400.00
00052          -13600.00
00053          -13800.00
00054          -14200.00
00055          -14200.00
00056          -14600.00
00057          -14800.00
00058          -15000.00
00059          -15000.00
00060          -15200.00
00061          -15400.00
00062          -15600.00
00063          -15800.00
00064          -15800.00
00065          -16000.00
00066          -16200.00
00067          -16400.00
00068          -16400.00
00069          -16600.00
00070          -16600.00
00071          -16600.00
00072          -16800.00
00073          -17000.00
00074          -17200.00
00075          -17200.00
00076          -17200.00
00077          -17400.00
00078          -17400.00
00079          -17600.00
00080          -17400.00
00081          -17600.00
00082          -17400.00
00083          -17800.00
00084          -17800.00
00085          -17800.00
00086          -17800.00
00087          -17600.00
00088          -17800.00
00089          -17600.00
00090          -17800.00
00091          -17800.00
00092          -17800.00
00093          -17600.00
00094          -17800.00
00095          -17600.00
00096          -17600.00
00097          -17400.00
00098          -17400.00
00099          -17400.00
00100          -17400.00
00101          -17200.00
00102          -17200.00
00103          -17200.00
00104          -17200.00
00105          -17000.00
00106          -17000.00
00107          -16800.00
00108          -16600.00
00109          -16600.00
00110          -16400.00
00111          -16200.00
00112          -16200.00
00113          -15800.00
00114          -15800.00
00115          -15600.00
00116          -15600.00
00117          -15200.00
00118          -15000.00
00119          -15000.00
00120          -14800.00
00121          -14800.00
00122          -14200.00
00123          -14000.00
00124          -14000.00
00125          -13800.00
00126          -13600.00
00127          -13200.00
00128          -13000.00
00129          -13000.00
00130          -12600.00
00131          -12400.00
00132          -12000.00
00133          -11800.00
00134          -11600.00
00135          -11000.00
00136          -11000.00
00137          -10800.00
00138          -10600.00
00139          -10200.00
00140          -10000.00
00141           -9600.00
00142           -9400.00
00143           -9200.00
00144           -9000.00
00145           -8600.00
00146           -8200.00
00147           -8000.00
00148           -7600.00
00149           -7400.00
00150           -7000.00
00151           -6800.00
00152           -6200.00
00153           -6000.00
00154           -5800.00
00155           -5400.00
00156           -5000.00
00157           -4600.00
00158           -4400.00
00159           -4400.00
00160           -3800.00
00161           -3400.00
00162           -3000.00
00163           -2800.00
00164           -2600.00
00165           -2000.00
00166           -1800.00
00167           -1400.00
00168           -1200.00
00169            -800.00
00170            -600.00
00171            -400.00
00172             200.00
00173             400.00
00174             600.00
00175            1000.00
00176            1200.00
00177            1600.00
00178            2000.00
00179            2200.00
00180            2600.00
00181            2800.00
00182            3400.00
00183            3800.00
00184            4200.00
00185            4200.00
00186            4400.00
00187            4600.00
00188            5200.00
00189            5400.00
00190            5800.00
00191            6200.00
00192            6400.00
00193            6800.00
00194            7000.00
00195            7400.00
00196            7600.00
00197            7800.00
00198            8400.00
00199            8600.00
00200            9000.00
00201            9200.00
00202            9400.00
00203            9800.00
00204           10000.00
00205           10200.00
00206           10600.00
00207           11000.00
00208           11400.00
00209           11600.00
00210           11600.00
00211           11800.00
00212           12200.00
00213           12400.00
00214           12800.00
00215           13000.00
00216           13200.00
00217           13200.00
00218           13800.00
00219           13800.00
00220           14000.00
00221           14200.00
00222           14600.00
00223           14800.00
00224           14800.00
00225           15000.00
00226           15400.00
00227           15400.00
00228           15600.00
00229           15800.00
00230           15800.00
00231           16000.00
00232           16400.00
00233           16400.00
00234           16400.00
00235           16600.00
00236           16600.00
00237           16800.00
00238           17000.00
00239           17000.00
00240           17000.00
00241           17200.00
00242           17200.00
00243           17200.00
00244           17200.00
00245           17400.00
00246           17400.00
00247           17800.00
00248           17800.00
00249           17600.00
00250           17800.00
00251           17800.00
00252           17800.00
00253           17800.00
00254           17800.00
00255           18000.00
00256           17800.00
00257           17800.00
00258           17800.00
00259           17800.00
00260           17800.00
00261           17800.00
00262           17600.00
00263           17600.00
00264           17400.00
00265           17400.00
00266           17400.00
00267           17200.00
00268           17200.00
00269           17200.00
00270           17200.00
00271           17000.00
00272           17000.00
00273           17000.00
00274           16800.00
00275           16600.00
00276           16400.00
00277           16400.00
00278           16200.00
00279           16000.00
00280           15800.00
00281           15600.00
00282           15400.00
00283           15400.00
00284           15200.00
00285           15000.00
00286           14800.00
00287           14600.00
00288           14600.00
00289           14200.00
00290           14000.00
00291           13800.00
00292           13600.00
00293           13400.00
00294           13200.00
00295           13000.00
00296           12600.00
00297           12400.00
00298           12200.00
00299           11800.00
00300           11600.00
00301           11400.00
00302           11000.00
00303           11000.00
00304           10600.00
00305           10200.00
00306           10000.00
00307            9800.00
00308            9400.00
00309            9200.00
00310            9000.00
00311            8600.00
00312            8200.00
00313            7800.00
00314            7600.00
00315            7400.00
00316            7000.00
00317            6800.00
00318            6200.00
00319            6000.00
00320            6000.00
00321            5400.00
00322            5200.00
00323            5000.00
00324            4400.00
00325            4200.00
00326            3800.00
00327            3600.00
00328            3400.00
00329            2800.00
00330            2600.00
00331            2400.00
00332            2000.00
00333            1800.00
00334            1200.00
00335            1000.00
00336             600.00
00337             200.00
00338               0.00
00339            -400.00
00340            -600.00
00341           -1000.00
00342           -1200.00
00343           -1400.00
00344           -2000.00
00345           -2200.00
00346           -2400.00
00347           -2800.00
00348           -3400.00
00349           -3800.00
00350           -4200.00
00351           -4200.00
00352           -4200.00
00353           -5000.00
00354           -5200.00
00355           -5400.00
00356           -5800.00
00357           -6000.00
00358           -6200.00
00359           -6800.00
00360           -7000.00
00361           -7400.00
00362           -7800.00
00363           -7800.00
00364           -8400.00
00365           -8600.00
00366           -8600.00
00367           -9200.00
00368           -9400.00
00369           -9800.00
00370          -10200.00
00371          -10200.00
00372          -10600.00
00373          -10800.00
00374          -11000.00
00375          -11400.00
00376          -11600.00
00377          -12000.00
00378          -12200.00
00379          -12400.00
00380          -12600.00
00381          -13000.00
00382          -13200.00
00383          -13400.00
00384          -13600.00
00385          -13800.00
00386          -14000.00
00387          -14200.00
00388          -14600.00
00389          -14600.00
00390          -14800.00
00391          -15000.00
00392          -15000.00
00393          -15400.00
00394          -15600.00
00395          -15600.00
00396          -15800.00
00397          -15800.00
00398          -16200.00
00399          -16400.00
00400          -16600.00
00401          -16600.00
00402          -16600.00
00403          -16600.00
00404          -17000.00
00405          -17000.00
00406          -17000.00
00407          -17200.00
00408          -17200.00
00409          -17400.00
00410          -17400.00
00411          -17400.00
00412          -17400.00
00413          -17600.00
00414          -17400.00
00415          -17800.00
00416          -17600.00
00417          -17800.00
00418          -17800.00
00419          -17800.00
00420          -17600.00
00421          -17800.00
00422          -17800.00
00423          -17800.00
00424          -17800.00
00425          -17800.00
00426          -17800.00
00427          -17400.00
00428          -17400.00
00429          -17400.00
00430          -17400.00
00431          -17800.00
00432          -17400.00
00433          -17400.00
00434          -17200.00
00435          -17200.00
00436          -17200.00
00437          -17000.00
00438          -17000.00
00439          -16800.00
00440          -16600.00
00441          -16600.00
00442          -16400.00
00443          -16400.00
00444          -16000.00
00445          -15800.00
00446          -15800.00
00447          -15600.00
00448          -15600.00
00449          -15400.00
00450          -15000.00
00451          -15000.00
00452          -14800.00
00453          -14600.00
00454          -14600.00
00455          -14200.00
00456          -14000.00
00457          -13800.00
00458          -13400.00
00459          -13400.00
00460          -13000.00
00461          -12800.00
00462          -12600.00
00463          -12400.00
00464          -12200.00
00465          -12000.00
00466          -11600.00
00467          -11600.00
00468          -11000.00
00469          -10800.00
00470          -10600.00
00471          -10200.00
00472          -10200.00
00473           -9800.00
00474           -9400.00
00475           -9200.00
00476           -9000.00
00477           -8600.00
00478           -8400.00
00479           -8200.00
00480           -7800.00
00481           -7400.00
00482           -7000.00
00483           -6800.00
00484           -6600.00
00485           -6200.00
00486           -5800.00
00487           -5400.00
00488           -5200.00
00489           -5000.00
00490           -4600.00
00491           -4200.00
00492           -3800.00
00493           -3600.00
00494           -3400.00
00495           -3000.00
00496           -2800.00
00497           -2200.00
00498           -2000.00
00499           -1600.00
00500           -1200.00
00501           -1200.00
00502            -600.00
00503            -400.00
00504               0.00
00505             400.00
00506             600.00
00507            1000.00
00508            1200.00
00509            1600.00
00510            2000.00
00511            2200.00
00512            2200.00
00513            2800.00
00514            3400.00
00515            3800.00
00516            4200.00
00517            4200.00
00518            4400.00
00519            4600.00
00520            5200.00
00521            5400.00
00522            5800.00
00523            6000.00
00524            6200.00
00525            6800.00
00526            7000.00
00527            7400.00
00528            7600.00
00529            8000.00
00530            8400.00
00531            8600.00
00532            9000.00
00533            9000.00
00534            9400.00
00535            9800.00
00536           10000.00
00537           10200.00
00538           10600.00
00539           10800.00
00540           11000.00
00541           11400.00
00542           11600.00
00543           11800.00
00544           12200.00
00545           12400.00
00546           12600.00
00547           13000.00
00548           13200.00
00549           13200.00
00550           13800.00
00551           13800.00
00552           14000.00
00553           14200.00
00554           14400.00
00555           14800.00
00556           14800.00
00557           15000.00
00558           15400.00
00559           15400.00
00560           15400.00
00561           15600.00
00562           15800.00
00563           16000.00
00564           16200.00
00565           16200.00
00566           16400.00
00567           16400.00
00568           16600.00
00569           16800.00
00570           17000.00
00571           17000.00
00572           17000.00
00573           17200.00
00574           17200.00
00575           17200.00
00576           17400.00
00577           17400.00
00578           17400.00
00579           17800.00
00580           17800.00
00581           17600.00
00582           17800.00
00583           17800.00
00584           17800.00
00585           17800.00
00586           17800.00
00587           18000.00
00588           18000.00
00589           17800.00
00590           18000.00
00591           17800.00
00592           17800.00
00593           17800.00
00594           17800.00
00595           17600.00
00596           17400.00
00597           17400.00
00598           17400.00
00599           17400.00
00600           17200.00
00601           17200.00
00602           17000.00
00603           17000.00
00604           17000.00
00605           16800.00
00606           16600.00
00607           16600.00
00608           16400.00
00609           16200.00
00610           16200.00
00611           16200.00
00612           15800.00
00613           15800.00
00614           15600.00
00615           15400.00
00616           15400.00
00617           15000.00
00618           14800.00
00619           14800.00
00620           14600.00
00621           14200.00
00622           14000.00
00623           13800.00
00624           13600.00
00625           13200.00
00626           13000.00
00627           13000.00
00628           12600.00
00629           12400.00
00630           12200.00
00631           12200.00
00632           11600.00
00633           11400.00
00634           11000.00
00635           10800.00
00636           10800.00
00637           10400.00
00638           10000.00
00639            9800.00
00640            9600.00
00641            9200.00
00642            9000.00
00643            8600.00
00644            8400.00
00645            8200.00
00646            7600.00
00647            7400.00
00648            7200.00
00649            6800.00
00650            6600.00
00651            6200.00
00652            6000.00
00653            5800.00
00654            5400.00
00655            5000.00
00656            4600.00
00657            4400.00
00658            4200.00
00659            3600.00
00660            3400.00
00661            3000.00
00662            2800.00
00663            2200.00
00664            2000.00
00665            1800.00
00666            1400.00
00667            1000.00
00668             800.00
00669             400.00
00670             200.00
00671            -200.00
00672            -600.00
00673            -800.00
00674           -1200.00
00675           -1400.00
00676           -2000.00
00677           -2000.00
00678           -2200.00
00679           -2800.00
00680           -3000.00
00681           -3800.00
00682           -4200.00
00683           -4400.00
00684           -4200.00
00685           -4600.00
00686           -5200.00
00687           -5400.00
00688           -5600.00
00689           -6000.00
00690           -6200.00
00691           -6800.00
00692           -7000.00
00693           -7000.00
00694           -7600.00
00695           -8000.00
00696           -8200.00
00697           -8600.00
00698           -8800.00
00699           -9000.00
00700           -9400.00
00701           -9600.00
00702          -10200.00
00703          -10200.00
00704          -10600.00
00705          -10800.00
00706          -11000.00
00707          -11400.00
00708          -11600.00
00709          -11800.00
00710          -12200.00
00711          -12400.00
00712          -12600.00
00713          -13000.00
00714          -13200.00
00715          -13400.00
00716          -13600.00
00717          -14000.00
00718          -14000.00
00719          -14200.00
00720          -14200.00
00721          -14600.00
00722          -14800.00
00723          -14800.00
00724          -15000.00
00725          -15400.00
00726          -15400.00
00727          -15600.00
00728          -15800.00
00729          -15800.00
00730          -16000.00
00731          -16200.00
00732          -16400.00
00733          -16400.00
00734          -16600.00
00735          -16600.00
00736          -16800.00
00737          -17000.00
00738          -17200.00
00739          -17200.00
00740          -17200.00
00741          -17200.00
00742          -17400.00
00743          -17400.00
00744          -17400.00
00745          -17600.00
00746          -17800.00
00747          -17600.00
00748          -17800.00
00749          -17800.00
00750          -17800.00
00751          -17800.00
00752          -17800.00
00753          -17800.00
00754          -17800.00
00755          -17800.00
00756          -17800.00
00757          -17800.00
00758          -17800.00
00759          -17400.00
00760          -17600.00
00761          -17400.00
00762          -17400.00
00763          -17400.00
00764          -17400.00
00765          -17400.00
00766          -17200.00
00767          -17200.00
00768          -17200.00
00769          -17200.00
00770          -17000.00
00771          -16600.00
00772          -16600.00
00773          -16600.00
00774          -16400.00
00775          -16200.00
00776          -16200.00
00777          -15800.00
00778          -15800.00
00779          -15600.00
00780          -15600.00
00781          -15200.00
00782          -15200.00
00783          -15000.00
00784          -14800.00
00785          -14600.00
00786          -14400.00
00787          -14200.00
00788          -14000.00
00789          -14000.00
00790          -13800.00
00791          -13400.00
00792          -13200.00
00793          -13000.00
00794          -12600.00
00795          -12400.00
00796          -12200.00
00797          -11800.00
00798          -11800.00
00799          -11400.00
00800          -11000.00
00801          -11000.00
00802          -10600.00
00803          -10600.00
00804          -10200.00
00805           -9800.00
00806           -9400.00
00807           -9400.00
00808           -9000.00
00809           -8600.00
00810           -8400.00
00811           -8200.00
00812           -7800.00
00813           -7600.00
00814           -7200.00
00815           -6800.00
00816           -6800.00
00817           -6200.00
00818           -6000.00
00819           -5600.00
00820           -5200.00
00821           -5000.00
00822           -4600.00
00823           -4400.00
00824           -3800.00
00825           -3800.00
00826           -3400.00
00827           -3000.00
00828           -2800.00
00829           -2400.00
00830           -2200.00
00831           -1800.00
00832           -1200.00
00833           -1200.00
00834            -800.00
00835            -400.00
00836            -200.00
00837             200.00
00838             400.00
00839            1000.00
00840            1200.00
00841            1400.00
00842            1800.00
00843            2000.00
00844            2200.00
00845            2600.00
00846            3000.00
00847            3400.00
00848            3800.00
00849            4200.00
00850            4400.00
00851            4600.00
00852            5200.00
00853            5400.00
00854            5800.00
00855            6000.00
00856            6200.00
00857            6600.00
00858            7000.00
00859            7400.00
00860            7600.00
00861            7800.00
00862            8200.00
00863            8600.00
00864            8600.00
00865            9000.00
00866            9200.00
00867            9800.00
00868           10000.00
00869           10200.00
00870           10200.00
00871           10800.00
00872           11000.00
00873           11400.00
00874           11600.00
00875           11800.00
00876           12200.00
00877           12200.00
00878           12600.00
00879           13000.00
00880           13000.00
00881           13200.00
00882           13800.00
00883           13800.00
00884           14000.00
00885           14000.00
00886           14200.00
00887           14600.00
00888           14800.00
00889           14800.00
00890           15000.00
00891           15400.00
00892           15400.00
00893           15600.00
00894           15800.00
00895           15800.00
00896           16200.00
00897           16400.00
00898           16400.00
00899           16600.00
00900           16600.00
00901           16600.00
00902           16800.00
00903           17000.00
00904           17000.00
00905           17000.00
00906           17200.00
00907           17200.00
00908           17400.00
00909           17400.00
00910           17400.00
00911           17400.00
00912           17800.00
00913           17600.00
00914           17800.00
00915           17800.00
00916           17800.00
00917           17800.00
00918           17800.00
00919           18000.00
00920           18000.00
00921           17800.00
00922           17800.00
00923           17800.00
00924           17800.00
00925           17800.00
00926           17800.00
00927           17800.00
00928           17600.00
00929           17400.00
00930           17400.00
00931           17200.00
00932           17400.00
00933           17200.00
00934           17200.00
00935           17000.00
00936           17000.00
00937           17000.00
00938           16800.00
00939           16600.00
00940           16400.00
00941           16400.00
00942           16200.00
00943           16200.00
00944           15800.00
00945           16000.00
00946           15600.00
00947           15400.00
00948           15400.00
00949           15400.00
00950           14800.00
00951           14800.00
00952           14600.00
00953           14200.00
00954           14000.00
00955           13800.00
00956           13800.00
00957           13400.00
00958           13000.00
00959           13000.00
00960           12800.00
00961           12400.00
00962           12200.00
00963           12000.00
00964           11600.00
00965           11600.00
00966           11000.00
00967           10800.00
00968           10600.00
00969           10600.00
00970           10000.00
00971            9800.00
00972            9600.00
00973            9200.00
00974            9000.00
00975            8600.00
00976            8400.00
00977            8400.00
00978            7800.00
00979            7600.00
00980            7400.00
00981            7000.00
00982            6600.00
00983            6200.00
00984            6000.00
00985            5800.00
00986            5400.00
00987            5200.00
00988            4800.00
00989            4400.00
00990            4200.00
00991            3600.00
00992            3600.00
00993            3000.00
00994            2800.00
00995            2600.00
00996            2200.00
00997            1800.00
00998            1400.00
00999            1200.00
01000            1000.00
01001             400.00
01002             400.00
01003            -200.00
01004            -400.00
01005           -1000.00
01006           -1200.00
01007           -1400.00
01008           -1800.00
01009           -2200.00
01010           -2200.00
01011           -2600.00
01012           -3000.00
01013           -3600.00
01014           -4200.00
01015           -4400.00
01016           -4200.00
01017           -4400.00
01018           -5000.00
01019           -5200.00
01020           -5600.00
01021           -6000.00
01022           -6200.00
01023           -6600.00
01024           -7000.00
01025           -7000.00
01026           -7600.00
01027           -7800.00
01028           -8200.00
01029           -8600.00
01030           -8600.00
01031           -9000.00
01032           -9200.00
01033           -9600.00
01034          -10000.00
01035          -10200.00
01036          -10400.00
01037          -10800.00
01038          -11000.00
01039          -11400.00
01040          -11600.00
01041          -11800.00
01042          -12200.00
01043          -12400.00
01044          -12400.00
01045          -12600.00
01046          -13000.00
01047          -13200.00
01048          -13400.00
01049          -13800.00
01050          -14000.00
01051          -14000.00
01052          -14200.00
01053          -14600.00
01054          -14800.00
01055          -15000.00
01056          -15000.00
01057          -15000.00
01058          -15400.00
01059          -15600.00
01060          -15600.00
01061          -15800.00
01062          -15800.00
01063          -16200.00
01064          -16400.00
01065          -16400.00
01066          -16600.00
01067          -16800.00
01068          -16800.00
01069          -17000.00
01070          -17200.00
01071          -17200.00
01072          -17200.00
01073          -17400.00
01074          -17200.00
01075          -17400.00
01076          -17400.00
01077          -17400.00
01078          -17400.00
01079          -17800.00
01080          -17800.00
01081          -17600.00
01082          -17800.00
01083          -17800.00
01084          -17800.00
01085          -18000.00
01086          -18000.00
01087          -18000.00
01088          -17800.00
01089          -17800.00
01090          -17800.00
01091          -17800.00
01092          -17800.00
01093          -17600.00
01094          -17400.00
01095          -17400.00
01096          -17400.00
01097          -17400.00
01098          -17200.00
01099          -17400.00
01100          -17200.00
01101          -17200.00
01102          -17000.00
01103          -17000.00
01104          -16800.00
01105          -16600.00
01106          -16400.00
01107          -16200.00
01108          -16400.00
01109          -16200.00
01110          -15800.00
01111          -15600.00
01112          -15600.00
01113          -15600.00
01114          -15000.00
01115          -15000.00
01116          -14800.00
01117          -14800.00
01118          -14600.00
01119          -14200.00
01120          -14000.00
01121          -14000.00
01122          -13400.00
01123          -13400.00
01124          -13200.00
01125          -13000.00
01126          -12800.00
01127          -12400.00
01128          -12400.00
01129          -12200.00
01130          -11800.00
01131          -11400.00
01132          -11400.00
01133          -11000.00
01134          -10800.00
01135          -10600.00
01136          -10200.00
01137          -10000.00
01138           -9400.00
01139           -9400.00
01140           -9000.00
01141           -9000.00
01142           -8400.00
01143           -8200.00
01144           -7800.00
01145           -7600.00
01146           -7400.00
01147           -7000.00
01148           -6800.00
01149           -6600.00
01150           -6200.00
01151           -5800.00
01152           -5400.00
01153           -5200.00
01154           -4800.00
01155           -4400.00
01156           -4200.00
01157           -3800.00
01158           -3600.00
01159           -3000.00
01160           -2800.00
01161           -2600.00
01162           -2200.00
01163           -2000.00
01164           -1400.00
01165           -1200.00
01166           -1000.00
01167            -600.00
01168            -200.00
01169             200.00
01170             400.00
01171            1000.00
01172            1200.00
01173            1400.00
01174            1800.00
01175            2200.00
01176            2200.00
01177            2600.00
01178            3000.00
01179            3400.00
01180            3800.00
01181            4200.00
01182            4200.00
01183            4600.00
01184            5000.00
01185            5200.00
01186            5800.00
01187            6000.00
01188            6200.00
01189            6600.00
01190            6800.00
01191            7000.00
01192            7400.00
01193            7800.00
01194            8200.00
01195            8400.00
01196            8600.00
01197            9000.00
01198            9200.00
01199            9600.00
01200            9800.00
01201           10200.00
01202           10600.00
01203           10600.00
01204           11000.00
01205           11200.00
01206           11400.00
01207           11800.00
01208           12200.00
01209           12200.00
01210           12400.00
01211           12800.00
01212           13000.00
01213           13200.00
01214           13200.00
01215           13800.00
01216           13800.00
01217           14000.00
01218           14200.00
01219           14600.00
01220           14600.00
01221           15000.00
01222           15000.00
01223           15400.00
01224           15400.00
01225           15600.00
01226           15600.00
01227           15800.00
01228           16200.00
01229           16400.00
01230           16400.00
01231           16400.00
01232           16600.00
01233           16600.00
01234           16800.00
01235           17000.00
01236           17000.00
01237           17000.00
01238           17200.00
01239           17200.00
01240           17400.00
01241           17400.00
01242           17400.00
01243           17400.00
01244           17800.00
01245           17800.00
01246           17800.00
01247           17800.00
01248           18000.00
01249           18000.00
01250           17800.00
01251           17800.00
01252           18000.00
01253           18000.00
01254           17800.00
01255           17800.00
01256           17800.00
01257           17800.00
01258           17800.00
01259           17800.00
01260           17600.00
01261           17800.00
01262           17400.00
01263           17400.00
01264           17200.00
01265           17200.00
01266           17000.00
01267           17000.00
01268           17000.00
01269           17000.00
01270           16600.00
01271           16600.00
01272           16400.00
01273           16400.00
01274           16400.00
01275           16200.00
01276           15800.00
01277           15800.00
01278           15600.00
01279           15400.00
01280           15400.00
01281           15200.00
01282           15000.00
01283           14600.00
01284           14600.00
01285           14400.00
01286           14200.00
01287           14000.00
01288           13800.00
01289           13400.00
01290           13200.00
01291           13000.00
01292           13000.00
01293           12600.00
01294           12200.00
01295           12200.00
01296           11800.00
01297           11600.00
01298           11400.00
01299           11000.00
01300           10800.00
01301           10600.00
01302           10200.00
01303           10000.00
01304            9800.00
01305            9400.00
01306            9200.00
01307            8800.00
01308            8800.00
01309            8400.00
01310            7800.00
01311            7600.00
01312            7400.00
01313            7000.00
01314            6800.00
01315            6600.00
01316            6200.00
01317            6000.00
01318            5400.00
01319            5400.00
01320            5000.00
01321            4400.00
01322            4200.00
01323            3800.00
01324            3600.00
01325            3400.00
01326            2800.00
01327            2600.00
01328            2400.00
01329            1800.00
01330            1800.00
01331            1200.00
01332            1000.00
01333             600.00
01334             400.00
01335               0.00
01336            -400.00
01337            -600.00
01338           -1000.00
01339           -1400.00
01340           -1600.00
01341           -1800.00
01342           -2200.00
01343           -2600.00
01344           -2800.00
01345           -3600.00
01346           -3800.00
01347           -4200.00
01348           -4400.00
01349           -4400.00
01350           -5000.00
01351           -5400.00
01352           -5400.00
01353           -6000.00
01354           -6200.00
01355           -6400.00
01356           -7000.00
01357           -7000.00
01358           -7400.00
01359           -7800.00
01360           -7800.00
01361           -8600.00
01362           -8600.00
01363           -9000.00
01364           -9200.00
01365           -9400.00
01366           -9800.00
01367          -10200.00
01368          -10200.00
01369          -10600.00
01370          -10800.00
01371          -11000.00
01372          -11400.00
01373          -11600.00
01374          -11800.00
01375          -12200.00
01376          -12600.00
01377          -12600.00
01378          -12600.00
01379          -13200.00
01380          -13400.00
01381          -13800.00
01382          -13800.00
01383          -14000.00
01384          -14200.00
01385          -14400.00
01386          -14800.00
01387          -15000.00
01388          -15000.00
01389          -15000.00
01390          -15400.00
01391          -15600.00
01392          -15600.00
01393          -15800.00
01394          -15800.00
01395          -16200.00
01396          -16200.00
01397          -16400.00
01398          -16600.00
01399          -16600.00
01400          -16600.00
01401          -16800.00
01402          -17000.00
01403          -17200.00
01404          -17200.00
01405          -17400.00
01406          -17400.00
01407          -17400.00
01408          -17400.00
01409          -17800.00
01410          -17600.00
01411          -17600.00
01412          -17800.00
01413          -17800.00
01414          -17800.00
01415          -17800.00
01416          -18000.00
01417          -17800.00
01418          -17800.00
01419          -17800.00
01420          -18000.00
01421          -17800.00
01422          -17800.00
01423          -17800.00
01424          -17800.00
01425          -17800.00
01426          -17400.00
01427          -17400.00
01428          -17400.00
01429          -17400.00
01430          -17400.00
01431          -17200.00
01432          -17200.00
01433          -17000.00
01434          -17000.00
01435          -16600.00
01436          -16600.00
01437          -16600.00
01438          -16600.00
01439          -16400.00
01440          -16200.00
01441          -16200.00
01442          -15800.00
01443          -15800.00
01444          -15600.00
01445          -15400.00
01446          -15400.00
01447          -15000.00
01448          -14800.00
01449          -14800.00
01450          -14600.00
01451          -14200.00
01452          -14000.00
01453          -14000.00
01454          -13800.00
01455          -13400.00
01456          -13200.00
01457          -13200.00
01458          -12600.00
01459          -12600.00
01460          -12400.00
01461          -12000.00
01462          -11800.00
01463          -11600.00
01464          -11400.00
01465          -11000.00
01466          -10800.00
01467          -10600.00
01468          -10200.00
01469          -10000.00
01470           -9800.00
01471           -9400.00
01472           -9200.00
01473           -9000.00
01474           -8600.00
01475           -8400.00
01476           -7800.00
01477           -7600.00
01478           -7400.00
01479           -7000.00
01480           -6800.00
01481           -6600.00
01482           -6000.00
01483           -6000.00
01484           -5600.00
01485           -5200.00
01486           -5000.00
01487           -4600.00
01488           -4400.00
01489           -3800.00
01490           -3600.00
01491           -3400.00
01492           -3000.00
01493           -2800.00
01494           -2200.00
01495           -2000.00
01496           -1800.00
01497           -1200.00
01498           -1000.00
01499            -600.00
01500            -400.00
01501               0.00
01502             400.00
01503             600.00
01504            1000.00
01505            1400.00
01506            1800.00
01507            2000.00
01508            2200.00
01509            2600.00
01510            2800.00
01511            3400.00
01512            3600.00
01513            4200.00
01514            4200.00
01515            4600.00
01516            5000.00
01517            5200.00
01518            5400.00
01519            5800.00
01520            6200.00
01521            6600.00
01522            6800.00
01523            7000.00
01524            7400.00
01525            7800.00
01526            7800.00
01527            8400.00
01528            8600.00
01529            9000.00
01530            9200.00
01531            9400.00
01532            9800.00
01533           10000.00
01534           10200.00
01535           10600.00
01536           10800.00
01537           11000.00
01538           11400.00
01539           11600.00
01540           11800.00
01541           12200.00
01542           12400.00
01543           12600.00
01544           13000.00
01545           13200.00
01546           13200.00
01547           13800.00
01548           13800.00
01549           14000.00
01550           14200.00
01551           14600.00
01552           14600.00
01553           14800.00
01554           15000.00
01555           15200.00
01556           15400.00
01557           15600.00
01558           15600.00
01559           15800.00
01560           16000.00
01561           16200.00
01562           16400.00
01563           16400.00
01564           16400.00
01565           16800.00
01566           17000.00
01567           17000.00
01568           17000.00
01569           17200.00
01570           17200.00
01571           17200.00
01572           17400.00
01573           17400.00
01574           17800.00
01575           17400.00
01576           17600.00
01577           17800.00
01578           18000.00
01579           18000.00
01580           18000.00
01581           17800.00
01582           18000.00
01583           18000.00
01584           17800.00
01585           18000.00
01586           17800.00
01587           18000.00
01588           17800.00
01589           17800.00
01590           17800.00
01591           17800.00
01592           17800.00
01593           17800.00
01594           17400.00
01595           17400.00
01596           17400.00
01597           17200.00
01598           17200.00
01599           17200.00
01600           17000.00
01601           17000.00
01602           16600.00
01603           16600.00
01604           16600.00
01605           16400.00
01606           16400.00
01607           16200.00
01608           16200.00
01609           15800.00
01610           15800.00
01611           15400.00
01612           15400.00
01613           15000.00
01614           15000.00
01615           14600.00
01616           14600.00
01617           14200.00
01618           14200.00
01619           14000.00
01620           13800.00
01621           13800.00
01622           13400.00
01623           13200.00
01624           13000.00
01625           12600.00
01626           12400.00
01627           12200.00
01628           12200.00
01629           11600.00
01630           11400.00
01631           11000.00
01632           11000.00
01633           10600.00
01634           10200.00
01635           10000.00
01636            9800.00
01637            9400.00
01638            9200.00
01639            9000.00
01640            8800.00
01641            8400.00
01642            8200.00
01643            7800.00
01644            7600.00
01645            7200.00
01646            6800.00
01647            6600.00
01648            6200.00
01649            6000.00
01650            5800.00
01651            5400.00
01652            5000.00
01653            4600.00
01654            4200.00
01655            4200.00
01656            3600.00
01657            3400.00
01658            3000.00
01659            2600.00
01660            2400.00
01661            2000.00
01662            1800.00
01663            1400.00
01664            1000.00
01665             600.00
01666             200.00
01667               0.00
01668            -400.00
01669            -800.00
01670           -1000.00
01671           -1400.00
01672           -1600.00
01673           -2000.00
01674           -2200.00
01675           -2600.00
01676           -2800.00
01677           -3400.00
01678           -3800.00
01679           -4400.00
01680           -4200.00
01681           -4400.00
01682           -4600.00
01683           -5200.00
01684           -5400.00
01685           -6000.00
01686           -6000.00
01687           -6200.00
01688           -6800.00
01689           -7000.00
01690           -7400.00
01691           -7600.00
01692           -7800.00
01693           -8200.00
01694           -8600.00
01695           -8800.00
01696           -9000.00
01697           -9400.00
01698           -9600.00
01699          -10200.00
01700          -10200.00
01701          -10400.00
01702          -10800.00
01703          -11000.00
01704          -11400.00
01705          -11600.00
01706          -11800.00
01707          -12200.00
01708          -12200.00
01709          -12600.00
01710          -12800.00
01711          -13200.00
01712          -13400.00
01713          -13400.00
01714          -14000.00
01715          -14000.00
01716          -14000.00
01717          -14200.00
01718          -14800.00
01719          -14800.00
01720          -15000.00
01721          -15000.00
01722          -15400.00
01723          -15400.00
01724          -15600.00
01725          -15800.00
01726          -15800.00
01727          -16200.00
01728          -16400.00
01729          -16400.00
01730          -16600.00
01731          -16600.00
01732          -17000.00
01733          -16800.00
01734          -17000.00
01735          -17200.00
01736          -17200.00
01737          -17400.00
01738          -17400.00
01739          -17400.00
01740          -17400.00
01741          -17800.00
01742          -17400.00
01743          -17800.00
01744          -17800.00
01745          -17800.00
01746          -17800.00
01747          -18000.00
01748          -18000.00
01749          -18000.00
01750          -17800.00
01751          -18000.00
01752          -17800.00
01753          -18000.00
01754          -17800.00
01755          -17800.00
01756          -17800.00
01757          -17600.00
01758          -17400.00
01759          -17400.00
01760          -17400.00
01761          -17400.00
01762          -17200.00
01763          -17200.00
01764          -17200.00
01765          -17200.00
01766          -17000.00
01767          -17000.00
01768          -16600.00
01769          -16600.00
01770          -16600.00
01771          -16400.00
01772          -16200.00
01773          -16000.00
01774          -15800.00
01775          -15800.00
01776          -15600.00
01777          -15600.00
01778          -15400.00
01779          -15000.00
01780          -15000.00
01781          -14800.00
01782          -14600.00
01783          -14200.00
01784          -14200.00
01785          -14000.00
01786          -13800.00
01787          -13400.00
01788          -13400.00
01789          -13000.00
01790          -12800.00
01791          -12600.00
01792          -12400.00
01793          -12200.00
01794          -11800.00
01795          -11600.00
01796          -11400.00
01797          -11200.00
01798          -10800.00
01799          -10800.00
01800          -10200.00
01801          -10200.00
01802           -9800.00
01803           -9400.00
01804           -9400.00
01805           -9000.00
01806           -8600.00
01807           -8600.00
01808           -8200.00
01809           -7800.00
01810           -7600.00
01811           -7000.00
01812           -7000.00
01813           -6800.00
01814           -6200.00
01815           -6000.00
01816           -5800.00
01817           -5400.00
01818           -5000.00
01819           -4600.00
01820           -4400.00
01821           -4200.00
01822           -3800.00
01823           -3400.00
01824           -3000.00
01825           -2600.00
01826           -2200.00
01827           -2000.00
01828           -1800.00
01829           -1200.00
01830           -1000.00
01831            -600.00
01832            -400.00
01833            -200.00
01834             200.00
01835             600.00
01836            1000.00
01837            1200.00
01838            1800.00
01839            2000.00
01840            2200.00
01841            2600.00
01842            2800.00
01843            3200.00
01844            3600.00
01845            4000.00
01846            4200.00
01847            4400.00
01848            4600.00
01849            5200.00
01850            5400.00
01851            5800.00
01852            6000.00
01853            6200.00
01854            6800.00
01855            7000.00
01856            7400.00
01857            7600.00
01858            7800.00
01859            8400.00
01860            8600.00
01861            8600.00
01862            9000.00
01863            9400.00
01864            9800.00
01865           10000.00
01866           10200.00
01867           10600.00
01868           10800.00
01869           11000.00
01870           11400.00
01871           11600.00
01872           11800.00
01873           12200.00
01874           12400.00
01875           12600.00
01876           12600.00
01877           13200.00
01878           13200.00
01879           13400.00
01880           13800.00
01881           14000.00
01882           14200.00
01883           14200.00
01884           14800.00
01885           14800.00
01886           15000.00
01887           15200.00
01888           15400.00
01889           15600.00
01890           15600.00
01891           15600.00
01892           16200.00
01893           16200.00
01894           16400.00
01895           16400.00
01896           16600.00
01897           16600.00
01898           17000.00
01899           17000.00
01900           17000.00
01901           17200.00
01902           17200.00
01903           17200.00
01904           17200.00
01905           17400.00
01906           17400.00
01907           17600.00
01908           17800.00
01909           17800.00
01910           17800.00
01911           17800.00
01912           17800.00
01913           18000.00
01914           18000.00
01915           18000.00
01916           18000.00
01917           18000.00
01918           18000.00
01919           17800.00
01920           18000.00
01921           18000.00
01922           17800.00
01923           17800.00
01924           17800.00
01925           17600.00
01926           17600.00
01927           17400.00
01928           17200.00
01929           17200.00
01930           17200.00
01931           17000.00
01932           17000.00
01933           17000.00
01934           16800.00
01935           16600.00
01936           16600.00
01937           16400.00
01938           16400.00
01939           16200.00
01940           16000.00
01941           15800.00
01942           15600.00
01943           15400.00
01944           15400.00
01945           15200.00
01946           15000.00
01947           14800.00
01948           14800.00
01949           14600.00
01950           14400.00
01951           14000.00
01952           13800.00
01953           13400.00
01954           13400.00
01955           13200.00
01956           13000.00
01957           12600.00
01958           12400.00
01959           12200.00
01960           12200.00
01961           11800.00
01962           11400.00
01963           11000.00
01964           10800.00
01965           10600.00
01966           10600.00
01967           10200.00
01968           10000.00
01969            9800.00
01970            9200.00
01971            9000.00
01972            9000.00
01973            8400.00
01974            8200.00
01975            8000.00
01976            7600.00
01977            7400.00
01978            7000.00
01979            6600.00
01980            6600.00
01981            6000.00
01982            5800.00
01983            5400.00
01984            5200.00
01985            4600.00
01986            4400.00
01987            4200.00
01988            3600.00
01989            3400.00
01990            3000.00
01991            2800.00
01992            2600.00
01993            2000.00
01994            1800.00
01995            1400.00
01996            1200.00
01997            1000.00
01998             400.00
01999             200.00
02000            -400.00
02001            -600.00
02002           -1000.00
02003           -1200.00
02004           -1400.00
02005           -1800.00
02006           -2000.00
02007           -2200.00
02008           -2600.00
02009           -3000.00
02010           -3800.00
02011           -4200.00
02012           -4400.00
02013           -4200.00
02014           -4600.00
02015           -5200.00
02016           -5400.00
02017           -5400.00
02018           -6200.00
02019           -6200.00
02020           -6600.00
02021           -7000.00
02022           -7000.00
02023           -7600.00
02024           -7800.00
02025           -8200.00
02026           -8600.00
02027           -8800.00
02028           -9000.00
02029           -9200.00
02030           -9400.00
02031          -10000.00
02032          -10200.00
02033          -10600.00
02034          -10800.00
02035          -11000.00
02036          -11400.00
02037          -11600.00
02038          -11800.00
02039          -12000.00
02040          -12400.00
02041          -12600.00
02042          -12600.00
02043          -13000.00
02044          -13200.00
02045          -13400.00
02046          -13400.00
02047          -14000.00
02048          -14000.00
02049          -14200.00
02050          -14600.00
02051          -14800.00
02052          -15000.00
02053          -15000.00
02054          -15400.00
02055          -15400.00
02056          -15600.00
02057          -15800.00
02058          -16000.00
02059          -16200.00
02060          -16200.00
02061          -16400.00
02062          -16600.00
02063          -16600.00
02064          -16800.00
02065          -17000.00
02066          -17200.00
02067          -17000.00
02068          -17200.00
02069          -17200.00
02070          -17400.00
02071          -17400.00
02072          -17400.00
02073          -17400.00
02074          -17800.00
02075          -17800.00
02076          -17800.00
02077          -17600.00
02078          -17800.00
02079          -17800.00
02080          -17800.00
02081          -17800.00
02082          -17800.00
02083          -17800.00
02084          -17800.00
02085          -17800.00
02086          -17600.00
02087          -17800.00
02088          -17600.00
02089          -17800.00
02090          -17800.00
02091          -17400.00
02092          -17400.00
02093          -17400.00
02094          -17200.00
02095          -17200.00
02096          -17200.00
02097          -17200.00
02098          -17000.00
02099          -17000.00
02100          -16600.00
02101          -16600.00
02102          -16600.00
02103          -16400.00
02104          -16400.00
02105          -16200.00
02106          -16000.00
02107          -15800.00
02108          -15600.00
02109          -15600.00
02110          -15400.00
02111          -15200.00
02112          -15000.00
02113          -14800.00
02114          -14600.00
02115          -14200.00
02116          -14200.00
02117          -14000.00
02118          -13800.00
02119          -13800.00
02120          -13400.00
02121          -13200.00
02122          -13000.00
02123          -12600.00
02124          -12600.00
02125          -12400.00
02126          -12000.00
02127          -11800.00
02128          -11600.00
02129          -11200.00
02130          -11000.00
02131          -10800.00
02132          -10400.00
02133          -10200.00
02134          -10000.00
02135           -9400.00
02136           -9400.00
02137           -9200.00
02138           -8600.00
02139           -8600.00
02140           -8200.00
02141           -7800.00
02142           -7600.00
02143           -7400.00
02144           -7000.00
02145           -6600.00
02146           -6200.00
02147           -6000.00
02148           -5800.00
02149           -5400.00
02150           -5000.00
02151           -4600.00
02152           -4400.00
02153           -4200.00
02154           -3800.00
02155           -3400.00
02156           -3000.00
02157           -2800.00
02158           -2600.00
02159           -2200.00
02160           -1800.00
02161           -1400.00
02162           -1200.00
02163            -600.00
02164            -400.00
02165            -200.00
02166             400.00
02167             600.00
02168             800.00
02169            1200.00
02170            1600.00
02171            1800.00
02172            2000.00
02173            2400.00
02174            2600.00
02175            3200.00
02176            3600.00
02177            3800.00
02178            4200.00
02179            4400.00
02180            4600.00
02181            5000.00
02182            5400.00
02183            5400.00
02184            6000.00
02185            6200.00
02186            6600.00
02187            6800.00
02188            7000.00
02189            7400.00
02190            7800.00
02191            8000.00
02192            8400.00
02193            8600.00
02194            9000.00
02195            9200.00
02196            9600.00
02197           10000.00
02198           10000.00
02199           10600.00
02200           10600.00
02201           10800.00
02202           11400.00
02203           11400.00
02204           11800.00
02205           12000.00
02206           12200.00
02207           12400.00
02208           12600.00
02209           13000.00
02210           13200.00
02211           13400.00
02212           13800.00
02213           14000.00
02214           14000.00
02215           14600.00
02216           14600.00
02217           14800.00
02218           14800.00
02219           15400.00
02220           15400.00
02221           15600.00
02222           15600.00
02223           15600.00
02224           15800.00
02225           16200.00
02226           16200.00
02227           16400.00
02228           16400.00
02229           17000.00
02230           16800.00
02231           17000.00
02232           17000.00
02233           17000.00
02234           17200.00
02235           17200.00
02236           17400.00
02237           17400.00
02238           17400.00
02239           17600.00
02240           17800.00
02241           17800.00
02242           17800.00
02243           17800.00
02244           18000.00
02245           18000.00
02246           17800.00
02247           17800.00
02248           18000.00
02249           18000.00
02250           17800.00
02251           17800.00
02252           18000.00
02253           18000.00
02254           18000.00
02255           17800.00
02256           17600.00
02257           17600.00
02258           17400.00
02259           17400.00
02260           17400.00
02261           17000.00
02262           17200.00
02263           17200.00
02264           17000.00
02265           17000.00
02266           16600.00
02267           17000.00
02268           16600.00
02269           16400.00
02270           16400.00
02271           16200.00
02272           16200.00
02273           16000.00
02274           15800.00
02275           15600.00
02276           15400.00
02277           15400.00
02278           15000.00
02279           14800.00
02280           14800.00
02281           14600.00
02282           14400.00
02283           14200.00
02284           13800.00
02285           13800.00
02286           13400.00
02287           13200.00
02288           13200.00
02289           13000.00
02290           12600.00
02291           12400.00
02292           12200.00
02293           11800.00
02294           11600.00
02295           11400.00
02296           11000.00
02297           10800.00
02298           10600.00
02299           10400.00
02300           10000.00
02301            9800.00
02302            9400.00
02303            9200.00
02304            9000.00
02305            8600.00
02306            8400.00
02307            8200.00
02308            7600.00
02309            7400.00
02310            7000.00
02311            6800.00
02312            6600.00
02313            6200.00
02314            5800.00
02315            5400.00
02316            5200.00
02317            5000.00
02318            4400.00
02319            4200.00
02320            3800.00
02321            3400.00
02322            3000.00
02323            2800.00
02324            2600.00
02325            2000.00
02326            1800.00
02327            1400.00
02328            1200.00
02329             800.00
02330             400.00
02331             200.00
02332            -200.00
02333            -600.00
02334            -800.00
02335           -1200.00
02336           -1400.00
02337           -1800.00
02338           -2000.00
02339           -2200.00
02340           -2600.00
02341           -2800.00
02342           -3600.00
02343           -4200.00
02344           -4400.00
02345           -4400.00
02346           -4400.00
02347           -5000.00
02348           -5200.00
02349           -5400.00
02350           -6000.00
02351           -6200.00
02352           -6400.00
02353           -6800.00
02354           -7200.00
02355           -7600.00
02356           -7800.00
02357           -8000.00
02358           -8400.00
02359           -8600.00
02360           -8800.00
02361           -9200.00
02362           -9400.00
02363           -9800.00
02364          -10200.00
02365          -10200.00
02366          -10600.00
02367          -11000.00
02368          -11000.00
02369          -11400.00
02370          -11800.00
02371          -11800.00
02372          -12400.00
02373          -12400.00
02374          -12800.00
02375          -13000.00
02376          -13200.00
02377          -13400.00
02378          -13800.00
02379          -13800.00
02380          -14000.00
02381          -14200.00
02382          -14600.00
02383          -14600.00
02384          -15000.00
02385          -15000.00
02386          -15400.00
02387          -15600.00
02388          -15600.00
02389          -15800.00
02390          -15800.00
02391          -16200.00
02392          -16400.00
02393          -16400.00
02394          -16600.00
02395          -16600.00
02396          -16600.00
02397          -17000.00
02398          -17000.00
02399          -17200.00
02400          -17200.00
02401          -17200.00
02402          -17400.00
02403          -17400.00
02404          -17600.00
02405          -17600.00
02406          -17800.00
02407          -17600.00
02408          -17800.00
02409          -17800.00
02410          -18000.00
02411          -17800.00
02412          -17800.00
02413          -18000.00
02414          -17800.00
02415          -17800.00
02416          -18000.00
02417          -17800.00
02418          -17800.00
02419          -17800.00
02420          -17800.00
02421          -17800.00
02422          -17400.00
02423          -17400.00
02424          -17400.00
02425          -17400.00
02426          -17400.00
02427          -17400.00
02428          -17200.00
02429          -17200.00
02430          -17200.00
02431          -17000.00
02432          -17000.00
02433          -16600.00
02434          -16600.00
02435          -16400.00
02436          -16400.00
02437          -16400.00
02438          -16000.00
02439          -15800.00
02440          -15800.00
02441          -15600.00
02442          -15600.00
02443          -15400.00
02444          -15000.00
02445          -15000.00
02446          -14800.00
02447          -14600.00
02448          -14400.00
02449          -14200.00
02450          -14000.00
02451          -13800.00
02452          -13600.00
02453          -13200.00
02454          -13200.00
02455          -12600.00
02456          -12600.00
02457          -12400.00
02458          -12200.00
02459          -11800.00
02460          -11600.00
02461          -11400.00
02462          -11000.00
02463          -10800.00
02464          -10600.00
02465          -10200.00
02466          -10000.00
02467           -9800.00
02468           -9400.00
02469           -9200.00
02470           -8800.00
02471           -8600.00
02472           -8400.00
02473           -7800.00
02474           -7600.00
02475           -7400.00
02476           -7000.00
02477           -6600.00
02478           -6200.00
02479           -6000.00
02480           -5800.00
02481           -5400.00
02482           -5200.00
02483           -4600.00
02484           -4400.00
02485           -4200.00
02486           -3800.00
02487           -3400.00
02488           -3000.00
02489           -2800.00
02490           -2600.00
02491           -2200.00
02492           -1800.00
02493           -1400.00
02494           -1200.00
02495            -800.00
02496            -600.00
02497            -200.00
02498             200.00
02499             400.00
02500            1000.00
02501            1000.00
02502            1400.00
02503            1800.00
02504            2000.00
02505            2200.00
02506            2600.00
02507            3000.00
02508            3400.00
02509            3800.00
02510            4200.00
02511            4400.00
02512            4600.00
02513            5000.00
02514            5200.00
02515            5400.00
02516            5800.00
02517            6000.00
02518            6600.00
02519            6800.00
02520            7000.00
02521            7400.00
02522            7600.00
02523            8200.00
02524            8200.00
02525            8800.00
02526            9000.00
02527            9200.00
02528            9400.00
02529            9800.00
02530           10000.00
02531           10200.00
02532           10600.00
02533           10800.00
02534           11000.00
02535           11400.00
02536           11600.00
02537           11800.00
02538           12200.00
02539           12400.00
02540           12600.00
02541           12800.00
02542           13200.00
02543           13400.00
02544           13600.00
02545           13800.00
02546           14000.00
02547           14400.00
02548           14600.00
02549           14800.00
02550           14800.00
02551           15000.00
02552           15400.00
02553           15400.00
02554           15600.00
02555           15800.00
02556           15800.00
02557           16200.00
02558           16200.00
02559           16400.00
02560           16400.00
02561           16600.00
02562           16800.00
02563           16800.00
02564           17000.00
02565           17200.00
02566           17200.00
02567           17200.00
02568           17400.00
02569           17400.00
02570           17400.00
02571           17800.00
02572           17800.00
02573           17800.00
02574           17600.00
02575           17800.00
02576           17800.00
02577           18000.00
02578           18000.00
02579           18000.00
02580           17800.00
02581           18000.00
02582           17800.00
02583           17800.00
02584           17800.00
02585           17800.00
02586           17600.00
02587           17800.00
02588           17800.00
02589           17600.00
02590           17400.00
02591           17400.00
02592           17400.00
02593           17400.00
02594           17200.00
02595           17000.00
02596           17000.00
02597           17000.00
02598           17000.00
02599           16600.00
02600           16600.00
02601           16400.00
02602           16400.00
02603           16200.00
02604           16200.00
02605           16000.00
02606           15800.00
02607           15600.00
02608           15600.00
02609           15400.00
02610           15400.00
02611           15000.00
02612           14800.00
02613           14600.00
02614           14400.00
02615           14200.00
02616           14000.00
02617           14000.00
02618           13400.00
02619           13200.00
02620           13200.00
02621           13000.00
02622           12600.00
02623           12200.00
02624           12200.00
02625           11800.00
02626           11600.00
02627           11600.00
02628           11000.00
02629           10800.00
02630           10600.00
02631           10600.00
02632           10000.00
02633            9800.00
02634            9400.00
02635            9200.00
02636            9000.00
02637            8600.00
02638            8400.00
02639            8200.00
02640            7800.00
02641            7400.00
02642            7000.00
02643            6800.00
02644            6600.00
02645            6200.00
02646            5800.00
02647            5400.00
02648            5200.00
02649            4800.00
02650            4600.00
02651            4200.00
02652            4000.00
02653            3400.00
02654            3200.00
02655            3000.00
02656            2600.00
02657            2200.00
02658            2000.00
02659            1600.00
02660            1200.00
02661            1000.00
02662             400.00
02663             200.00
02664            -200.00
02665            -400.00
02666            -600.00
02667           -1200.00
02668           -1200.00
02669           -1600.00
02670           -2000.00
02671           -2200.00
02672           -2400.00
02673           -2800.00
02674           -3400.00
02675           -3800.00
02676           -4200.00
02677           -4200.00
02678           -4400.00
02679           -4600.00
02680           -5200.00
02681           -5400.00
02682           -6000.00
02683           -6200.00
02684           -6200.00
02685           -6800.00
02686           -7000.00
02687           -7400.00
02688           -7600.00
02689           -7800.00
02690           -8400.00
02691           -8600.00
02692           -8800.00
02693           -9200.00
02694           -9400.00
02695           -9800.00
02696          -10000.00
02697          -10200.00
02698          -10600.00
02699          -10800.00
02700          -11000.00
02701          -11400.00
02702          -11600.00
02703          -11800.00
02704          -12200.00
02705          -12400.00
02706          -12600.00
02707          -13000.00
02708          -13200.00
02709          -13400.00
02710          -13800.00
02711          -13800.00
02712          -14000.00
02713          -14200.00
02714          -14600.00
02715          -14600.00
02716          -15000.00
02717          -15000.00
02718          -15400.00
02719          -15400.00
02720          -15600.00
02721          -15600.00
02722          -15800.00
02723          -16000.00
02724          -16200.00
02725          -16400.00
02726          -16400.00
02727          -16600.00
02728          -16600.00
02729          -16600.00
02730          -17000.00
02731          -17200.00
02732          -17200.00
02733          -17200.00
02734          -17200.00
02735          -17200.00
02736          -17400.00
02737          -17600.00
02738          -17400.00
02739          -17400.00
02740          -17800.00
02741          -17800.00
02742          -17800.00
02743          -17800.00
02744          -18000.00
02745          -17800.00
02746          -17800.00
02747          -17800.00
02748          -17800.00
02749          -17800.00
02750          -17800.00
02751          -17800.00
02752          -17800.00
02753          -17600.00
02754          -17400.00
02755          -17400.00
02756          -17400.00
02757          -17600.00
02758          -17200.00
02759          -17200.00
02760          -17200.00
02761          -17200.00
02762          -17200.00
02763          -17000.00
02764          -17000.00
02765          -16600.00
02766          -16600.00
02767          -16400.00
02768          -16200.00
02769          -16200.00
02770          -16000.00
02771          -15800.00
02772          -15600.00
02773          -15600.00
02774          -15400.00
02775          -15200.00
02776          -15400.00
02777          -15000.00
02778          -14800.00
02779          -14600.00
02780          -14200.00
02781          -14200.00
02782          -14000.00
02783          -13600.00
02784          -13800.00
02785          -13400.00
02786          -13200.00
02787          -12800.00
02788          -12600.00
02789          -12400.00
02790          -12400.00
02791          -12000.00
02792          -11600.00
02793          -11400.00
02794          -11200.00
02795          -10800.00
02796          -10600.00
02797          -10200.00
02798          -10000.00
02799           -9800.00
02800           -9600.00
02801           -9400.00
02802           -9000.00
02803           -8600.00
02804           -8400.00
02805           -8200.00
02806           -7600.00
02807           -7600.00
02808           -7000.00
02809           -6800.00
02810           -6400.00
02811           -6000.00
02812           -5800.00
02813           -5400.00
02814           -5200.00
02815           -5000.00
02816           -4600.00
02817           -4200.00
02818           -3800.00
02819           -3600.00
02820           -3200.00
02821           -2800.00
02822           -2600.00
02823           -2200.00
02824           -2000.00
02825           -1800.00
02826           -1200.00
02827           -1000.00
02828            -600.00
02829            -200.00
02830             200.00
02831             400.00
02832             600.00
02833            1000.00
02834            1400.00
02835            1400.00
02836            2000.00
02837            2200.00
02838            2600.00
02839            2800.00
02840            3400.00
02841            3600.00
02842            4000.00
02843            4200.00
02844            4400.00
02845            4800.00
02846            5000.00
02847            5400.00
02848            5800.00
02849            6000.00
02850            6200.00
02851            6800.00
02852            7000.00
02853            7400.00
02854            7600.00
02855            7800.00
02856            8200.00
02857            8600.00
02858            9000.00
02859            9000.00
02860            9200.00
02861            9800.00
02862           10000.00
02863           10200.00
02864           10600.00
02865           10800.00
02866           11000.00
02867           11200.00
02868           11600.00
02869           12000.00
02870           12200.00
02871           12400.00
02872           12600.00
02873           13000.00
02874           13200.00
02875           13200.00
02876           13400.00
02877           13800.00
02878           14000.00
02879           14200.00
02880           14600.00
02881           14600.00
02882           14800.00
02883           15000.00
02884           15000.00
02885           15400.00
02886           15600.00
02887           15800.00
02888           15800.00
02889           16000.00
02890           16200.00
02891           16200.00
02892           16400.00
02893           16400.00
02894           16800.00
02895           17000.00
02896           17000.00
02897           17000.00
02898           17200.00
02899           17200.00
02900           17200.00
02901           17400.00
02902           17400.00
02903           17600.00
02904           17800.00
02905           17800.00
02906           17800.00
02907           17800.00
02908           18000.00
02909           18000.00
02910           17800.00
02911           18000.00
02912           17800.00
02913           18000.00
02914           17800.00
02915           17800.00
02916           18000.00
02917           17800.00
02918           17800.00
02919           17600.00
02920           17600.00
02921           17400.00
02922           17400.00
02923           17400.00
02924           17400.00
02925           17200.00
02926           17200.00
02927           17200.00
02928           17200.00
02929           17000.00
02930           17000.00
02931           16600.00
02932           16600.00
02933           16400.00
02934           16400.00
02935           16400.00
02936           16200.00
02937           16200.00
02938           15800.00
02939           15800.00
02940           15600.00
02941           15400.00
02942           15400.00
02943           15000.00
02944           14800.00
02945           14600.00
02946           14600.00
02947           14400.00
02948           14000.00
02949           13800.00
02950           13600.00
02951           13400.00
02952           13200.00
02953           13000.00
02954           12800.00
02955           12600.00
02956           12400.00
02957           11800.00
02958           11800.00
02959           11600.00
02960           11200.00
02961           11000.00
02962           10600.00
02963           10600.00
02964           10200.00
02965            9800.00
02966            9800.00
02967            9400.00
02968            9000.00
02969            8600.00
02970            8400.00
02971            8000.00
02972            7800.00
02973            7400.00
02974            7400.00
02975            6800.00
02976            6600.00
02977            6200.00
02978            6000.00
02979            5800.00
02980            5200.00
02981            5000.00
02982            4600.00
02983            4200.00
02984            3800.00
02985            3600.00
02986            3400.00
02987            3000.00
02988            2600.00
02989            2400.00
02990            2000.00
02991            1800.00
02992            1400.00
02993            1000.00
02994             600.00
02995             400.00
02996            -200.00
02997            -200.00
02998            -600.00
02999            -800.00
03000           -1200.00
03001           -1400.00
03002           -1800.00
03003           -2200.00
03004           -2200.00
03005           -2800.00
03006           -3200.00
03007           -3800.00
03008           -4200.00
03009           -4200.00
03010           -4400.00
03011           -4400.00
03012           -5200.00
03013           -5200.00
03014           -5800.00
03015           -6200.00
03016           -6200.00
03017           -6600.00
03018           -7000.00
03019           -7400.00
03020           -7600.00
03021           -7800.00
03022           -8200.00
03023           -8600.00
03024           -8600.00
03025           -9200.00
03026           -9400.00
03027           -9400.00
03028          -10000.00
03029          -10200.00
03030          -10600.00
03031          -10800.00
03032          -11000.00
03033          -11400.00
03034          -11600.00
03035          -11800.00
03036          -12200.00
03037          -12400.00
03038          -12600.00
03039          -12800.00
03040          -13200.00
03041          -13400.00
03042          -13800.00
03043          -13800.00
03044          -14000.00
03045          -14000.00
03046          -14600.00
03047          -14800.00
03048          -14800.00
03049          -15000.00
03050          -15200.00
03051          -15400.00
03052          -15600.00
03053          -15600.00
03054          -15800.00
03055          -16200.00
03056          -16200.00
03057          -16200.00
03058          -16400.00
03059          -16600.00
03060          -16600.00
03061          -17000.00
03062          -17000.00
03063          -17200.00
03064          -17200.00
03065          -17200.00
03066          -17200.00
03067          -17400.00
03068          -17400.00
03069          -17400.00
03070          -17600.00
03071          -17400.00
03072          -17800.00
03073          -17800.00
03074          -17800.00
03075          -17800.00
03076          -17800.00
03077          -18000.00
03078          -17800.00
03079          -17800.00
03080          -17800.00
03081          -17800.00
03082          -17800.00
03083          -17800.00
03084          -17400.00
03085          -17800.00
03086          -17400.00
03087          -17600.00
03088          -17400.00
03089          -17400.00
03090          -17400.00
03091          -17400.00
03092          -17400.00
03093          -17200.00
03094          -17000.00
03095          -17000.00
03096          -17000.00
03097          -17000.00
03098          -16600.00
03099          -16600.00
03100          -16400.00
03101          -16200.00
03102          -16200.00
03103          -16000.00
03104          -15800.00
03105          -15800.00
03106          -15600.00
03107          -15400.00
03108          -15200.00
03109          -15000.00
03110          -15000.00
03111          -14800.00
03112          -14600.00
03113          -14200.00
03114          -14000.00
03115          -13800.00
03116          -13800.00
03117          -13400.00
03118          -13200.00
03119          -13000.00
03120          -12600.00
03121          -12400.00
03122          -12400.00
03123          -11800.00
03124          -11600.00
03125          -11400.00
03126          -11400.00
03127          -10800.00
03128          -10800.00
03129          -10200.00
03130          -10200.00
03131          -10000.00
03132           -9400.00
03133           -9200.00
03134           -9000.00
03135           -8600.00
03136           -8400.00
03137           -8200.00
03138           -7800.00
03139           -7600.00
03140           -7400.00
03141           -6800.00
03142           -6600.00
03143           -6200.00
03144           -6000.00
03145           -5600.00
03146           -5200.00
03147           -5000.00
03148           -4600.00
03149           -4400.00
03150           -3800.00
03151           -3800.00
03152           -3400.00
03153           -3000.00
03154           -2800.00
03155           -2200.00
03156           -2000.00
03157           -1800.00
03158           -1400.00
03159           -1000.00
03160            -600.00
03161            -400.00
03162            -200.00
03163             400.00
03164             600.00
03165            1000.00
03166            1200.00
03167            1400.00
03168            1800.00
03169            2000.00
03170            2400.00
03171            2800.00
03172            3000.00
03173            3600.00
03174            3800.00
03175            4200.00
03176            4400.00
03177            4600.00
03178            5000.00
03179            5200.00
03180            5600.00
03181            6000.00
03182            6200.00
03183            6600.00
03184            7000.00
03185            7200.00
03186            7400.00
03187            7800.00
03188            8200.00
03189            8400.00
03190            8600.00
03191            9000.00
03192            9200.00
03193            9600.00
03194            9800.00
03195           10000.00
03196           10600.00
03197           10600.00
03198           11200.00
03199           11400.00
03200           11600.00
03201           11800.00
03202           12200.00
03203           12400.00
03204           12600.00
03205           12800.00
03206           13200.00
03207           13200.00
03208           13400.00
03209           13800.00
03210           14000.00
03211           14200.00
03212           14600.00
03213           14800.00
03214           14800.00
03215           15000.00
03216           15400.00
03217           15400.00
03218           15600.00
03219           15600.00
03220           15800.00
03221           16200.00
03222           16200.00
03223           16400.00
03224           16400.00
03225           16400.00
03226           16600.00
03227           17000.00
03228           17000.00
03229           17000.00
03230           17000.00
03231           17200.00
03232           17200.00
03233           17200.00
03234           17400.00
03235           17400.00
03236           17400.00
03237           17600.00
03238           17800.00
03239           17800.00
03240           17800.00
03241           17800.00
03242           18000.00
03243           17800.00
03244           17800.00
03245           17800.00
03246           18000.00
03247           18000.00
03248           17800.00
03249           17800.00
03250           17800.00
03251           17800.00
03252           17800.00
03253           17600.00
03254           17400.00
03255           17400.00
03256           17400.00
03257           17400.00
03258           17200.00
03259           17200.00
03260           17200.00
03261           17000.00
03262           17200.00
03263           16800.00
03264           17000.00
03265           16400.00
03266           16400.00
03267           16400.00
03268           16200.00
03269           16200.00
03270           15800.00
03271           15800.00
03272           15600.00
03273           15400.00
03274           15400.00
03275           15000.00
03276           15000.00
03277           14800.00
03278           14600.00
03279           14400.00
03280           14000.00
03281           13800.00
03282           13800.00
03283           13800.00
03284           13200.00
03285           13000.00
03286           13000.00
03287           12400.00
03288           12200.00
03289           12000.00
03290           11800.00
03291           11600.00
03292           11400.00
03293           11000.00
03294           10800.00
03295           10600.00
03296           10200.00
03297           10000.00
03298            9800.00
03299            9400.00
03300            9200.00
03301            8800.00
03302            8600.00
03303            8200.00
03304            7800.00
03305            7600.00
03306            7400.00
03307            6800.00
03308            6600.00
03309            6200.00
03310            6000.00
03311            5600.00
03312            5400.00
03313            5000.00
03314            4600.00
03315            4200.00
03316            4200.00
03317            3600.00
03318            3400.00
03319            3000.00
03320            2600.00
03321            2600.00
03322            2000.00
03323            1800.00
03324            1400.00
03325            1200.00
03326            1000.00
03327             400.00
03328             200.00
03329            -400.00
03330            -600.00
03331            -800.00
03332           -1200.00
03333           -1400.00
03334           -1800.00
03335           -2000.00
03336           -2200.00
03337           -2600.00
03338           -2800.00
03339           -3600.00
03340           -4000.00
03341           -4200.00
03342           -4200.00
03343           -4400.00
03344           -5000.00
03345           -5200.00
03346           -5400.00
03347           -6000.00
03348           -6200.00
03349           -6600.00
03350           -7000.00
03351           -7000.00
03352           -7600.00
03353           -7800.00
03354           -8200.00
03355           -8600.00
03356           -8600.00
03357           -9000.00
03358           -9400.00
03359           -9400.00
03360          -10000.00
03361          -10200.00
03362          -10400.00
03363          -10800.00
03364          -11000.00
03365          -11200.00
03366          -11600.00
03367          -11600.00
03368          -12200.00
03369          -12400.00
03370          -12600.00
03371          -12800.00
03372          -13200.00
03373          -13400.00
03374          -13400.00
03375          -13800.00
03376          -14000.00
03377          -14000.00
03378          -14200.00
03379          -14600.00
03380          -14800.00
03381          -15000.00
03382          -15000.00
03383          -15400.00
03384          -15400.00
03385          -15600.00
03386          -15800.00
03387          -16000.00
03388          -16200.00
03389          -16200.00
03390          -16400.00
03391          -16400.00
03392          -16600.00
03393          -16600.00
03394          -17000.00
03395          -17000.00
03396          -17200.00
03397          -17200.00
03398          -17200.00
03399          -17400.00
03400          -17400.00
03401          -17400.00
03402          -17400.00
03403          -17800.00
03404          -17400.00
03405          -17600.00
03406          -17600.00
03407          -17800.00
03408          -17800.00
03409          -17800.00
03410          -18000.00
03411          -17800.00
03412          -17800.00
03413          -17800.00
03414          -17800.00
03415          -17800.00
03416          -17800.00
03417          -17800.00
03418          -17600.00
03419          -17400.00
03420          -17400.00
03421          -17400.00
03422          -17400.00
03423          -17400.00
03424          -17200.00
03425          -17200.00
03426          -17200.00
03427          -17000.00
03428          -17000.00
03429          -17000.00
03430          -16600.00
03431          -16600.00
03432          -16400.00
03433          -16600.00
03434          -16200.00
03435          -16000.00
03436          -15800.00
03437          -15800.00
03438          -15600.00
03439          -15600.00
03440          -15400.00
03441          -15000.00
03442          -15000.00
03443          -14800.00
03444          -14600.00
03445          -14200.00
03446          -14000.00
03447          -14000.00
03448          -13800.00
03449          -13400.00
03450          -13200.00
03451          -13200.00
03452          -12800.00
03453          -12600.00
03454          -12400.00
03455          -12000.00
03456          -11600.00
03457          -11600.00
03458          -11400.00
03459          -11000.00
03460          -10800.00
03461          -10600.00
03462          -10200.00
03463          -10000.00
03464           -9600.00
03465           -9200.00
03466           -9200.00
03467           -8600.00
03468           -8600.00
03469           -8200.00
03470           -7600.00
03471           -7600.00
03472           -7400.00
03473           -7000.00
03474           -6800.00
03475           -6200.00
03476           -6000.00
03477           -5800.00
03478           -5400.00
03479           -5200.00
03480           -4600.00
03481           -4400.00
03482           -4200.00
03483           -3800.00
03484           -3400.00
03485           -3000.00
03486           -2800.00
03487           -2600.00
03488           -2200.00
03489           -1800.00
03490           -1400.00
03491           -1200.00
03492           -1000.00
03493            -600.00
03494            -400.00
03495             200.00
03496             400.00
03497             800.00
03498            1200.00
03499            1200.00
03500            1800.00
03501            2000.00
03502            2400.00
03503            2600.00
03504            2800.00
03505            3600.00
03506            3800.00
03507            4200.00
03508            4400.00
03509            4600.00
03510            5000.00
03511            5200.00
03512            5600.00
03513            6000.00
03514            6200.00
03515            6600.00
03516            6800.00
03517            7400.00
03518            7600.00
03519            7600.00
03520            8200.00
03521            8400.00
03522            9000.00
03523            9000.00
03524            9200.00
03525            9600.00
03526            9800.00
03527           10000.00
03528           10200.00
03529           10600.00
03530           11000.00
03531           11400.00
03532           11600.00
03533           11800.00
03534           12200.00
03535           12400.00
03536           12600.00
03537           13000.00
03538           13200.00
03539           13200.00
03540           13400.00
03541           13800.00
03542           14000.00
03543           14000.00
03544           14600.00
03545           14600.00
03546           14800.00
03547           14800.00
03548           15000.00
03549           15400.00
03550           15400.00
03551           15600.00
03552           15800.00
03553           15800.00
03554           16200.00
03555           16200.00
03556           16400.00
03557           16400.00
03558           16600.00
03559           16600.00
03560           16800.00
03561           17000.00
03562           17200.00
03563           17000.00
03564           17200.00
03565           17200.00
03566           17400.00
03567           17400.00
03568           17600.00
03569           17600.00
03570           17800.00
03571           17800.00
03572           17800.00
03573           17800.00
03574           17800.00
03575           17800.00
03576           17800.00
03577           17800.00
03578           18000.00
03579           17800.00
03580           17800.00
03581           17800.00
03582           17800.00
03583           17800.00
03584           17800.00
03585           17600.00
03586           17600.00
03587           17600.00
03588           17400.00
03589           17400.00
03590           17200.00
03591           17200.00
03592           17200.00
03593           17000.00
03594           17000.00
03595           17000.00
03596           16800.00
03597           16600.00
03598           16600.00
03599           16400.00
03600           16400.00
03601           16200.00
03602           16200.00
03603           15800.00
03604           15600.00
03605           15600.00
03606           15400.00
03607           15200.00
03608           15000.00
03609           14800.00
03610           14600.00
03611           14600.00
03612           14200.00
03613           14000.00
03614           13800.00
03615           13400.00
03616           13200.00
03617           13200.00
03618           13000.00
03619           12600.00
03620           12400.00
03621           12000.00
03622           11800.00
03623           11600.00
03624           11400.00
03625           11000.00
03626           10600.00
03627           10600.00
03628           10400.00
03629           10000.00
03630            9800.00
03631            9400.00
03632            9200.00
03633            9000.00
03634            8600.00
03635            8200.00
03636            8200.00
03637            7600.00
03638            7400.00
03639            7000.00
03640            6800.00
03641            6400.00
03642            6000.00
03643            5800.00
03644            5200.00
03645            5200.00
03646            4800.00
03647            4400.00
03648            4200.00
03649            3800.00
03650            3600.00
03651            3200.00
03652            2800.00
03653            2600.00
03654            2200.00
03655            1800.00
03656            1400.00
03657            1200.00
03658            1000.00
03659             400.00
03660             200.00
03661            -200.00
03662            -400.00
03663            -600.00
03664           -1000.00
03665           -1200.00
03666           -1800.00
03667           -2000.00
03668           -2200.00
03669           -2200.00
03670           -3000.00
03671           -3600.00
03672           -3800.00
03673           -4400.00
03674           -4200.00
03675           -4400.00
03676           -4800.00
03677           -5200.00
03678           -5400.00
03679           -5800.00
03680           -6200.00
03681           -6200.00
03682           -7000.00
03683           -7000.00
03684           -7400.00
03685           -7600.00
03686           -7800.00
03687           -8400.00
03688           -8800.00
03689           -9000.00
03690           -9200.00
03691           -9400.00
03692           -9800.00
03693          -10200.00
03694          -10200.00
03695          -10800.00
03696          -10800.00
03697          -11000.00
03698          -11600.00
03699          -11800.00
03700          -11800.00
03701          -12400.00
03702          -12400.00
03703          -12600.00
03704          -13000.00
03705          -13400.00
03706          -13400.00
03707          -13800.00
03708          -13800.00
03709          -14000.00
03710          -14200.00
03711          -14600.00
03712          -14600.00
03713          -14800.00
03714          -15000.00
03715          -15200.00
03716          -15400.00
03717          -15600.00
03718          -15600.00
03719          -15800.00
03720          -16200.00
03721          -16200.00
03722          -16200.00
03723          -16400.00
03724          -16400.00
03725          -16600.00
03726          -16600.00
03727          -16800.00
03728          -17000.00
03729          -17200.00
03730          -17200.00
03731          -17200.00
03732          -17400.00
03733          -17200.00
03734          -17400.00
03735          -17400.00
03736          -17400.00
03737          -17600.00
03738          -17800.00
03739          -17800.00
03740          -17800.00
03741          -17800.00
03742          -17800.00
03743          -17800.00
03744          -17800.00
03745          -17800.00
03746          -17800.00
03747          -17800.00
03748          -17800.00
03749          -17800.00
03750          -17400.00
03751          -17600.00
03752          -17400.00
03753          -17400.00
03754          -17800.00
03755          -17400.00
03756          -17400.00
03757          -17200.00
03758          -17200.00
03759          -17200.00
03760          -17000.00
03761          -17000.00
03762          -16600.00
03763          -16600.00
03764          -16600.00
03765          -16400.00
03766          -16400.00
03767          -16000.00
03768          -15800.00
03769          -15800.00
03770          -15600.00
03771          -15600.00
03772          -15400.00
03773          -15000.00
03774          -14800.00
03775          -14800.00
03776          -14600.00
03777          -14200.00
03778          -14000.00
03779          -14000.00
03780          -13800.00
03781          -13400.00
03782          -13200.00
03783          -13000.00
03784          -12600.00
03785          -12600.00
03786          -12400.00
03787          -12200.00
03788          -11800.00
03789          -11600.00
03790          -11200.00
03791          -11000.00
03792          -10800.00
03793          -10600.00
03794          -10200.00
03795          -10000.00
03796           -9800.00
03797           -9200.00
03798           -9200.00
03799           -8600.00
03800           -8600.00
03801           -8200.00
03802           -7800.00
03803           -7600.00
03804           -7400.00
03805           -7000.00
03806           -6800.00
03807           -6200.00
03808           -6000.00
03809           -5800.00
03810           -5400.00
03811           -5200.00
03812           -4600.00
03813           -4400.00
03814           -4200.00
03815           -3800.00
03816           -3600.00
03817           -3400.00
03818           -3000.00
03819           -2600.00
03820           -2200.00
03821           -2000.00
03822           -1800.00
03823           -1200.00
03824           -1000.00
03825            -600.00
03826            -200.00
03827               0.00
03828             400.00
03829             600.00
03830            1000.00
03831            1200.00
03832            1800.00
03833            2000.00
03834            2200.00
03835            2600.00
03836            2800.00
03837            3400.00
03838            3600.00
03839            3800.00
03840            4200.00
03841            4600.00
03842            4600.00
03843            5200.00
03844            5400.00
03845            5800.00
03846            6000.00
03847            6400.00
03848            6800.00
03849            7000.00
03850            7400.00
03851            7600.00
03852            7800.00
03853            8400.00
03854            8600.00
03855            9000.00
03856            9200.00
03857            9600.00
03858            9800.00
03859           10000.00
03860           10400.00
03861           10600.00
03862           10800.00
03863           11200.00
03864           11600.00
03865           11600.00
03866           12200.00
03867           12200.00
03868           12400.00
03869           12600.00
03870           13000.00
03871           13200.00
03872           13400.00
03873           13800.00
03874           14000.00
03875           14000.00
03876           14200.00
03877           14600.00
03878           14600.00
03879           14800.00
03880           15000.00
03881           15200.00
03882           15400.00
03883           15600.00
03884           15600.00
03885           15800.00
03886           15800.00
03887           16200.00
03888           16200.00
03889           16400.00
03890           16400.00
03891           16600.00
03892           16800.00
03893           17000.00
03894           17000.00
03895           17000.00
03896           17200.00
03897           17200.00
03898           17200.00
03899           17400.00
03900           17800.00
03901           17400.00
03902           17600.00
03903           17800.00
03904           17800.00
03905           17800.00
03906           17800.00
03907           17800.00
03908           18000.00
03909           17800.00
03910           18000.00
03911           18000.00
03912           17800.00
03913           17800.00
03914           18000.00
03915           17800.00
03916           17800.00
03917           17400.00
03918           17600.00
03919           17400.00
03920           17400.00
03921           17400.00
03922           17400.00
03923           17200.00
03924           17200.00
03925           17000.00
03926           17000.00
03927           17000.00
03928           16800.00
03929           17000.00
03930           16600.00
03931           16400.00
03932           16400.00
03933           16400.00
03934           15800.00
03935           15800.00
03936           15800.00
03937           15400.00
03938           15400.00
03939           15000.00
03940           15000.00
03941           15000.00
03942           14800.00
03943           14600.00
03944           14200.00
03945           14200.00
03946           13800.00
03947           13800.00
03948           13200.00
03949           13200.00
03950           13000.00
03951           12600.00
03952           12400.00
03953           12200.00
03954           11800.00
03955           11600.00
03956           11400.00
03957           11200.00
03958           10800.00
03959           10600.00
03960           10200.00
03961           10000.00
03962            9800.00
03963            9400.00
03964            9200.00
03965            9000.00
03966            8400.00
03967            8400.00
03968            8000.00
03969            7800.00
03970            7400.00
03971            7000.00
03972            6800.00
03973            6600.00
03974            6200.00
03975            5800.00
03976            5800.00
03977            5200.00
03978            5000.00
03979            4600.00
03980            4200.00
03981            3800.00
03982            3600.00
03983            3400.00
03984            2800.00
03985            2800.00
03986            2400.00
03987            2000.00
03988            1800.00
03989            1200.00
03990            1000.00
03991             600.00
03992             200.00
03993             200.00
03994            -400.00
03995            -600.00
03996           -1000.00
03997           -1200.00
03998           -1600.00
03999           -2000.00
04000           -2200.00
04001           -2400.00
04002           -2800.00
04003           -3200.00
04004           -3800.00
04005           -4200.00
04006           -4400.00
04007           -4400.00
04008           -4600.00
04009           -5200.00
04010           -5200.00
04011           -6000.00
04012           -6200.00
04013           -6200.00
04014           -6800.00
04015           -7000.00
04016           -7400.00
04017           -7800.00
04018           -7800.00
04019           -8400.00
04020           -8600.00
04021           -8600.00
04022           -9200.00
04023           -9400.00
04024           -9800.00
04025          -10000.00
04026          -10200.00
04027          -10600.00
04028          -10800.00
04029          -11000.00
04030          -11400.00
04031          -11600.00
04032          -12000.00
04033          -12400.00
04034          -12400.00
04035          -12600.00
04036          -13000.00
04037          -13200.00
04038          -13400.00
04039          -13400.00
04040          -13800.00
04041          -14000.00
04042          -14200.00
04043          -14600.00
04044          -14600.00
04045          -15000.00
04046          -15000.00
04047          -15000.00
04048          -15400.00
04049          -15600.00
04050          -15600.00
04051          -15600.00
04052          -15800.00
04053          -16200.00
04054          -16200.00
04055          -16400.00
04056          -16400.00
04057          -16600.00
04058          -16600.00
04059          -16800.00
04060          -17000.00
04061          -17200.00
04062          -17200.00
04063          -17200.00
04064          -17200.00
04065          -17400.00
04066          -17400.00
04067          -17400.00
04068          -17400.00
04069          -17600.00
04070          -17800.00
04071          -17800.00
04072          -17800.00
04073          -17600.00
04074          -17800.00
04075          -17800.00
04076          -17800.00
04077          -17800.00
04078          -17800.00
04079          -18000.00
04080          -17800.00
04081          -17800.00
04082          -17800.00
04083          -17800.00
04084          -17800.00
04085          -17400.00
04086          -17400.00
04087          -17400.00
04088          -17200.00
04089          -17200.00
04090          -17200.00
04091          -17200.00
04092          -17000.00
04093          -17000.00
04094          -17000.00
04095          -16600.00
04096          -16600.00
04097          -16400.00
04098          -16400.00
04099          -16200.00
04100          -16000.00
04101          -15800.00
04102          -15600.00
04103          -15600.00
04104          -15600.00
04105          -15000.00
04106          -15000.00
04107          -14800.00
04108          -14600.00
04109          -14200.00
04110          -14000.00
04111          -13800.00
04112          -13800.00
04113          -13400.00
04114          -13400.00
04115          -13200.00
04116          -12600.00
04117          -12600.00
04118          -12400.00
04119          -12200.00
04120          -11800.00
04121          -11600.00
04122          -11200.00
04123          -11000.00
04124          -10800.00
04125          -10800.00
04126          -10200.00
04127          -10000.00
04128           -9800.00
04129           -9400.00
04130           -9200.00
04131           -9000.00
04132           -8600.00
04133           -8400.00
04134           -8200.00
04135           -7600.00
04136           -7400.00
04137           -7200.00
04138           -6800.00
04139           -6600.00
04140           -6200.00
04141           -6000.00
04142           -5400.00
04143           -5200.00
04144           -5000.00
04145           -4600.00
04146           -4400.00
04147           -4000.00
04148           -3600.00
04149           -3400.00
04150           -3000.00
04151           -2600.00
04152           -2200.00
04153           -2000.00
04154           -1600.00
04155           -1400.00
04156           -1000.00
04157            -600.00
04158            -400.00
04159            -200.00
04160             400.00
04161             600.00
04162             800.00
04163            1200.00
04164            1400.00
04165            1800.00
04166            2200.00
04167            2400.00
04168            2600.00
04169            3400.00
04170            3600.00
04171            3800.00
04172            4400.00
04173            4400.00
04174            4600.00
04175            5000.00
04176            5400.00
04177            5800.00
04178            6000.00
04179            6200.00
04180            6600.00
04181            7000.00
04182            7400.00
04183            7600.00
04184            7800.00
04185            8400.00
04186            8600.00
04187            8800.00
04188            9000.00
04189            9200.00
04190            9800.00
04191           10000.00
04192           10200.00
04193           10600.00
04194           10800.00
04195           11000.00
04196           11400.00
04197           11600.00
04198           11800.00
04199           12200.00
04200           12400.00
04201           12600.00
04202           12800.00
04203           13000.00
04204           13200.00
04205           13400.00
04206           13800.00
04207           14000.00
04208           14000.00
04209           14600.00
04210           14600.00
04211           14800.00
04212           15000.00
04213           15000.00
04214           15400.00
04215           15400.00
04216           15600.00
04217           15800.00
04218           16200.00
04219           16000.00
04220           16200.00
04221           16400.00
04222           16400.00
04223           16600.00
04224           16600.00
04225           17000.00
04226           17000.00
04227           17000.00
04228           17200.00
04229           17200.00
04230           17200.00
04231           17400.00
04232           17400.00
04233           17800.00
04234           17400.00
04235           17800.00
04236           17800.00
04237           17800.00
04238           18000.00
04239           18000.00
04240           18000.00
04241           18000.00
04242           18000.00
04243           17800.00
04244           17800.00
04245           18000.00
04246           17800.00
04247           17800.00
04248           18000.00
04249           17800.00
04250           17800.00
04251           17600.00
04252           17400.00
04253           17400.00
04254           17400.00
04255           17200.00
04256           17200.00
04257           17200.00
04258           17000.00
04259           17000.00
04260           17000.00
04261           16800.00
04262           16600.00
04263           16600.00
04264           16400.00
04265           16400.00
04266           16200.00
04267           16200.00
04268           15800.00
04269           15600.00
04270           15400.00
04271           15400.00
04272           15000.00
04273           14800.00
04274           14600.00
04275           14600.00
04276           14200.00
04277           14000.00
04278           13800.00
04279           13600.00
04280           13200.00
04281           13200.00
04282           13000.00
04283           12600.00
04284           12400.00
04285           12200.00
04286           12200.00
04287           11800.00
04288           11400.00
04289           11000.00
04290           11000.00
04291           10800.00
04292           10600.00
04293           10000.00
04294           10000.00
04295            9600.00
04296            9400.00
04297            9000.00
04298            8600.00
04299            8400.00
04300            8200.00
04301            7800.00
04302            7600.00
04303            7000.00
04304            7000.00
04305            6600.00
04306            6200.00
04307            5800.00
04308            5800.00
04309            5200.00
04310            5200.00
04311            4600.00
04312            4400.00
04313            4200.00
04314            3600.00
04315            3400.00
04316            3000.00
04317            2600.00
04318            2600.00
04319            2200.00
04320            1800.00
04321            1400.00
04322            1200.00
04323            1000.00
04324             400.00
04325             200.00
04326            -200.00
04327            -600.00
04328            -800.00
04329           -1200.00
04330           -1400.00
04331           -1800.00
04332           -2000.00
04333           -2400.00
04334           -2600.00
04335           -3000.00
04336           -3600.00
04337           -4000.00
04338           -4400.00
04339           -4200.00
04340           -4400.00
04341           -5200.00
04342           -5400.00
04343           -5800.00
04344           -6000.00
04345           -6200.00
04346           -6600.00
04347           -7000.00
04348           -7400.00
04349           -7600.00
04350           -7800.00
04351           -8200.00
04352           -8600.00
04353           -8800.00
04354           -9200.00
04355           -9400.00
04356           -9400.00
04357          -10000.00
04358          -10200.00
04359          -10600.00
04360          -10800.00
04361          -11000.00
04362          -11400.00
04363          -11600.00
04364          -11600.00
04365          -12200.00
04366          -12200.00
04367          -12600.00
04368          -12600.00
04369          -13000.00
04370          -13400.00
04371          -13400.00
04372          -13800.00
04373          -14000.00
04374          -14000.00
04375          -14200.00
04376          -14600.00
04377          -14800.00
04378          -15000.00
04379          -15000.00
04380          -15200.00
04381          -15400.00
04382          -15600.00
04383          -15800.00
04384          -15800.00
04385          -16200.00
04386          -16200.00
04387          -16200.00
04388          -16400.00
04389          -16600.00
04390          -16600.00
04391          -16800.00
04392          -17000.00
04393          -17000.00
04394          -17200.00
04395          -17200.00
04396          -17200.00
04397          -17400.00
04398          -17400.00
04399          -17400.00
04400          -17400.00
04401          -17800.00
04402          -17800.00
04403          -17800.00
04404          -17800.00
04405          -17800.00
04406          -17800.00
04407          -17800.00
04408          -17800.00
04409          -17800.00
04410          -17800.00
04411          -17800.00
04412          -17800.00
04413          -17800.00
04414          -17800.00
04415          -17400.00
04416          -17800.00
04417          -17600.00
04418          -17400.00
04419          -17400.00
04420          -17200.00
04421          -17200.00
04422          -17200.00
04423          -17200.00
04424          -17200.00
04425          -17000.00
04426          -16800.00
04427          -16600.00
04428          -16600.00
04429          -16400.00
04430          -16200.00
04431          -16200.00
04432          -16000.00
04433          -15800.00
04434          -15600.00
04435          -15600.00
04436          -15400.00
04437          -15000.00
04438          -15000.00
04439          -14800.00
04440          -14800.00
04441          -14400.00
04442          -14000.00
04443          -14000.00
04444          -13800.00
04445          -13400.00
04446          -13400.00
04447          -13200.00
04448          -13000.00
04449          -12600.00
04450          -12400.00
04451          -12200.00
04452          -11800.00
04453          -11800.00
04454          -11400.00
04455          -11200.00
04456          -10800.00
04457          -10800.00
04458          -10200.00
04459          -10200.00
04460           -9800.00
04461           -9400.00
04462           -9200.00
04463           -9200.00
04464           -8600.00
04465           -8400.00
04466           -8200.00
04467           -7600.00
04468           -7600.00
04469           -7000.00
04470           -7000.00
04471           -6800.00
04472           -6200.00
04473           -6000.00
04474           -5600.00
04475           -5400.00
04476           -5000.00
04477           -4600.00
04478           -4400.00
04479           -4000.00
04480           -3800.00
04481           -3400.00
04482           -3000.00
04483           -2800.00
04484           -2400.00
04485           -2200.00
04486           -1800.00
04487           -1400.00
04488           -1000.00
04489            -600.00
04490            -600.00
04491            -200.00
04492             200.00
04493             400.00
04494            1000.00
04495            1000.00
04496            1400.00
04497            1800.00
04498            2000.00
04499            2600.00
04500            2800.00
04501            3000.00
04502            3600.00
04503            3800.00
04504            4200.00
04505            4400.00
04506            4600.00
04507            5200.00
04508            5400.00
04509            5600.00
04510            6000.00
04511            6200.00
04512            6600.00
04513            7000.00
04514            7400.00
04515            7400.00
04516            7800.00
04517            8200.00
04518            8400.00
04519            8600.00
04520            9000.00
04521            9400.00
04522            9600.00
04523           10000.00
04524           10200.00
04525           10400.00
04526           10600.00
04527           11000.00
04528           11400.00
04529           11600.00
04530           11800.00
04531           12200.00
04532           12200.00
04533           12400.00
04534           12800.00
04535           13000.00
04536           13200.00
04537           13400.00
04538           13800.00
04539           13800.00
04540           14000.00
04541           14400.00
04542           14600.00
04543           14600.00
04544           14800.00
04545           15000.00
04546           15400.00
04547           15400.00
04548           15600.00
04549           15600.00
04550           16000.00
04551           16000.00
04552           16200.00
04553           16400.00
04554           16400.00
04555           16600.00
04556           16800.00
04557           17000.00
04558           17000.00
04559           17000.00
04560           17200.00
04561           17200.00
04562           17400.00
04563           17400.00
04564           17400.00
04565           17400.00
04566           17400.00
04567           17800.00
04568           17800.00
04569           17800.00
04570           17800.00
04571           18000.00
04572           17800.00
04573           17800.00
04574           18000.00
04575           17800.00
04576           18000.00
04577           18000.00
04578           17800.00
04579           18000.00
04580           17800.00
04581           17800.00
04582           17800.00
04583           17800.00
04584           17400.00
04585           17400.00
04586           17400.00
04587           17200.00
04588           17200.00
04589           17200.00
04590           17200.00
04591           17000.00
04592           17000.00
04593           17000.00
04594           16600.00
04595           16600.00
04596           16400.00
04597           16400.00
04598           16200.00
04599           16000.00
04600           15600.00
04601           15600.00
04602           15400.00
04603           15400.00
04604           15000.00
04605           14800.00
04606           14800.00
04607           14600.00
04608           14200.00
04609           14000.00
04610           14000.00
04611           13800.00
04612           13400.00
04613           13200.00
04614           13000.00
04615           12600.00
04616           12400.00
04617           12200.00
04618           12200.00
04619           11800.00
04620           11600.00
04621           11400.00
04622           11000.00
04623           10800.00
04624           10600.00
04625           10200.00
04626           10000.00
04627            9800.00
04628            9400.00
04629            9200.00
04630            8800.00
04631            8400.00
04632            8400.00
04633            8000.00
04634            7600.00
04635            7400.00
04636            7000.00
04637            6800.00
04638            6400.00
04639            6000.00
04640            6000.00
04641            5400.00
04642            5200.00
04643            4800.00
04644            4400.00
04645            4200.00
04646            3800.00
04647            3400.00
04648            3000.00
04649            2800.00
04650            2600.00
04651            2200.00
04652            2000.00
04653            1400.00
04654            1200.00
04655            1000.00
04656             400.00
04657             200.00
04658            -200.00
04659            -400.00
04660            -800.00
04661           -1000.00
04662           -1400.00
04663           -1800.00
04664           -2000.00
04665           -2200.00
04666           -2600.00
04667           -3000.00
04668           -3800.00
04669           -4200.00
04670           -4400.00
04671           -4400.00
04672           -4400.00
04673           -5000.00
04674           -5200.00
04675           -5600.00
04676           -6000.00
04677           -6200.00
04678           -6600.00
04679           -7000.00
04680           -7000.00
04681           -7600.00
04682           -7800.00
04683           -8000.00
04684           -8600.00
04685           -8800.00
04686           -9000.00
04687           -9200.00
04688           -9400.00
04689          -10000.00
04690          -10000.00
04691          -10200.00
04692          -10600.00
04693          -10800.00
04694          -11400.00
04695          -11600.00
04696          -11800.00
04697          -12200.00
04698          -12200.00
04699          -12400.00
04700          -12800.00
04701          -13000.00
04702          -13200.00
04703          -13400.00
04704          -13800.00
04705          -13800.00
04706          -14000.00
04707          -14200.00
04708          -14600.00
04709          -14800.00
04710          -15000.00
04711          -15000.00
04712          -15000.00
04713          -15400.00
04714          -15600.00
04715          -15600.00
04716          -15800.00
04717          -16200.00
04718          -16200.00
04719          -16400.00
04720          -16400.00
04721          -16600.00
04722          -16600.00
04723          -16600.00
04724          -17000.00
04725          -17200.00
04726          -17200.00
04727          -17200.00
04728          -17200.00
04729          -17400.00
04730          -17400.00
04731          -17400.00
04732          -17600.00
04733          -17800.00
04734          -17800.00
04735          -17600.00
04736          -17800.00
04737          -17800.00
04738          -17800.00
04739          -18000.00
04740          -18000.00
04741          -17800.00
04742          -17800.00
04743          -17800.00
04744          -18000.00
04745          -17600.00
04746          -17800.00
04747          -17800.00
04748          -17600.00
04749          -17800.00
04750          -17400.00
04751          -17400.00
04752          -17400.00
04753          -17400.00
04754          -17200.00
04755          -17200.00
04756          -17000.00
04757          -17000.00
04758          -16600.00
04759          -16600.00
04760          -16600.00
04761          -16400.00
04762          -16400.00
04763          -16200.00
04764          -16000.00
04765          -15800.00
04766          -15600.00
04767          -15600.00
04768          -15400.00
04769          -15000.00
04770          -15000.00
04771          -14800.00
04772          -14800.00
04773          -14600.00
04774          -14200.00
04775          -14000.00
04776          -13800.00
04777          -13800.00
04778          -13400.00
04779          -13200.00
04780          -13000.00
04781          -12600.00
04782          -12600.00
04783          -12200.00
04784          -11800.00
04785          -11800.00
04786          -11600.00
04787          -11000.00
04788          -11000.00
04789          -10600.00
04790          -10600.00
04791          -10200.00
04792          -10000.00
04793           -9800.00
04794           -9400.00
04795           -9200.00
04796           -9000.00
04797           -8600.00
04798           -8200.00
04799           -8000.00
04800           -7600.00
04801           -7400.00
04802           -7000.00
04803           -6800.00
04804           -6600.00
04805           -6200.00
04806           -6000.00
04807           -5400.00
04808           -5200.00
04809           -4800.00
04810           -4600.00
04811           -4200.00
04812           -3800.00
04813           -3600.00
04814           -3000.00
04815           -2800.00
04816           -2400.00
04817           -2200.00
04818           -1800.00
04819           -1400.00
04820           -1200.00
04821           -1000.00
04822            -600.00
04823            -200.00
04824             200.00
04825             400.00
04826             800.00
04827            1200.00
04828            1200.00
04829            1800.00
04830            2000.00
04831            2600.00
04832            2600.00
04833            3000.00
04834            3400.00
04835            3800.00
04836            4200.00
04837            4200.00
04838            4600.00
04839            5000.00
04840            5200.00
04841            5600.00
04842            5800.00
04843            6000.00
04844            6600.00
04845            6800.00
04846            7000.00
04847            7400.00
04848            7600.00
04849            8200.00
04850            8400.00
04851            8600.00
04852            9000.00
04853            9200.00
04854            9600.00
04855            9800.00
04856           10000.00
04857           10400.00
04858           10800.00
04859           11000.00
04860           11000.00
04861           11600.00
04862           11600.00
04863           11800.00
04864           12200.00
04865           12400.00
04866           12600.00
04867           13000.00
04868           13200.00
04869           13400.00
04870           13800.00
04871           14000.00
04872           14000.00
04873           14200.00
04874           14600.00
04875           14600.00
04876           14800.00
04877           15000.00
04878           15400.00
04879           15400.00
04880           15600.00
04881           15600.00
04882           15800.00
04883           16000.00
04884           16200.00
04885           16400.00
04886           16400.00
04887           16600.00
04888           16600.00
04889           17000.00
04890           17000.00
04891           17000.00
04892           17200.00
04893           17200.00
04894           17200.00
04895           17400.00
04896           17600.00
04897           17400.00
04898           17800.00
04899           17600.00
04900           17800.00
04901           18000.00
04902           17800.00
04903           18000.00
04904           17800.00
04905           17800.00
04906           17800.00
04907           18000.00
04908           17800.00
04909           18000.00
04910           18000.00
04911           17800.00
04912           17800.00
04913           17800.00
04914           17800.00
04915           17600.00
04916           17800.00
04917           17800.00
04918           17400.00
04919           17400.00
04920           17200.00
04921           17200.00
04922           17000.00
04923           17000.00
04924           16800.00
04925           16800.00
04926           16600.00
04927           16400.00
04928           16400.00
04929           16200.00
04930           16200.00
04931           15800.00
04932           15600.00
04933           15400.00
04934           15400.00
04935           15400.00
04936           15200.00
04937           14800.00
04938           14800.00
04939           14600.00
04940           14600.00
04941           14200.00
04942           14000.00
04943           13800.00
04944           13400.00
04945           13200.00
04946           13200.00
04947           12600.00
04948           12600.00
04949           12400.00
04950           12200.00
04951           12000.00
04952           11600.00
04953           11400.00
04954           11400.00
04955           10800.00
04956           10600.00
04957           10400.00
04958           10000.00
04959            9800.00
04960            9400.00
04961            9200.00
04962            9000.00
04963            8600.00
04964            8200.00
04965            8200.00
04966            7800.00
04967            7400.00
04968            7200.00
04969            6800.00
04970            6600.00
04971            6000.00
04972            5800.00
04973            5600.00
04974            5200.00
04975            5000.00
04976            4600.00
04977            4200.00
04978            3800.00
04979            3600.00
04980            3000.00
04981            3000.00
04982            2600.00
04983            2200.00
04984            2000.00
04985            1400.00
04986            1200.00
04987            1000.00
04988             600.00
04989             200.00
04990             200.00
04991            -400.00
04992            -600.00
04993           -1000.00
04994           -1200.00
04995           -1800.00
04996           -2000.00
04997           -2200.00
04998           -2600.00
04999           -2800.00
05000           -3600.00
