Unit:(mV)
                     CH1
Frequency    301.351 kHz
00001            3800.00
00002            3400.00
00003            2800.00
00004            2400.00
00005            1800.00
00006            1400.00
00007            1000.00
00008             400.00
00009               0.00
00010            -600.00
00011           -1000.00
00012           -1200.00
00013           -1800.00
00014           -2200.00
00015           -2800.00
00016           -3000.00
00017           -3600.00
00018           -4200.00
00019           -5000.00
00020           -5400.00
00021           -5800.00
00022           -6000.00
00023           -6200.00
00024           -7000.00
00025           -7600.00
00026           -7800.00
00027           -8400.00
00028           -9000.00
00029           -9200.00
00030           -9800.00
00031          -10200.00
00032          -10600.00
00033          -11000.00
00034          -11600.00
00035          -12200.00
00036          -12400.00
00037          -12800.00
00038          -13200.00
00039          -13400.00
00040          -14000.00
00041          -14400.00
00042          -15000.00
00043          -15400.00
00044          -15600.00
00045          -15800.00
00046          -16400.00
00047          -16800.00
00048          -17200.00
00049          -17400.00
00050          -18000.00
00051          -18200.00
00052          -18600.00
00053          -19000.00
00054          -19400.00
00055          -19800.00
00056          -19800.00
00057          -20400.00
00058          -20600.00
00059          -21000.00
00060          -21200.00
00061          -21600.00
00062          -22000.00
00063          -22000.00
00064          -22200.00
00065          -22600.00
00066          -22800.00
00067          -23000.00
00068          -23000.00
00069          -23400.00
00070          -23600.00
00071          -23800.00
00072          -23800.00
00073          -24200.00
00074          -24400.00
00075          -24400.00
00076          -24600.00
00077          -24600.00
00078          -24800.00
00079          -24800.00
00080          -25000.00
00081          -25000.00
00082          -25000.00
00083          -25000.00
00084          -25000.00
00085          -25000.00
00086          -25000.00
00087          -25000.00
00088          -25000.00
00089          -25000.00
00090          -25000.00
00091          -25000.00
00092          -25000.00
00093          -25000.00
00094          -25000.00
00095          -25000.00
00096          -25000.00
00097          -25000.00
00098          -25000.00
00099          -25000.00
00100          -25000.00
00101          -25000.00
00102          -25000.00
00103          -25000.00
00104          -25000.00
00105          -25000.00
00106          -24600.00
00107          -24600.00
00108          -24400.00
00109          -24400.00
00110          -24200.00
00111          -24000.00
00112          -23800.00
00113          -23600.00
00114          -23600.00
00115          -23400.00
00116          -23000.00
00117          -23000.00
00118          -22600.00
00119          -22400.00
00120          -22200.00
00121          -22000.00
00122          -21800.00
00123          -21400.00
00124          -21200.00
00125          -21000.00
00126          -20400.00
00127          -20400.00
00128          -20000.00
00129          -19600.00
00130          -19400.00
00131          -19000.00
00132          -18800.00
00133          -18200.00
00134          -18000.00
00135          -17800.00
00136          -17200.00
00137          -17000.00
00138          -16600.00
00139          -16200.00
00140          -15600.00
00141          -15400.00
00142          -15000.00
00143          -14600.00
00144          -14000.00
00145          -13800.00
00146          -13400.00
00147          -13000.00
00148          -12400.00
00149          -12200.00
00150          -11600.00
00151          -11000.00
00152          -10800.00
00153          -10200.00
00154          -10000.00
00155           -9400.00
00156           -9000.00
00157           -8600.00
00158           -7800.00
00159           -7400.00
00160           -7000.00
00161           -6600.00
00162           -6000.00
00163           -5600.00
00164           -5200.00
00165           -4600.00
00166           -4400.00
00167           -3800.00
00168           -3400.00
00169           -2800.00
00170           -2200.00
00171           -1800.00
00172           -1200.00
00173           -1000.00
00174            -400.00
00175             200.00
00176             600.00
00177            1000.00
00178            1400.00
00179            1800.00
00180            2200.00
00181            2800.00
00182            3400.00
00183            3600.00
00184            4200.00
00185            5000.00
00186            5400.00
00187            5800.00
00188            6200.00
00189            6400.00
00190            7000.00
00191            7400.00
00192            7800.00
00193            8400.00
00194            9000.00
00195            9200.00
00196            9800.00
00197           10200.00
00198           10600.00
00199           11000.00
00200           11600.00
00201           12000.00
00202           12400.00
00203           12600.00
00204           13200.00
00205           13800.00
00206           14000.00
00207           14600.00
00208           14800.00
00209           15400.00
00210           15600.00
00211           15800.00
00212           16400.00
00213           17000.00
00214           17200.00
00215           17800.00
00216           18200.00
00217           18400.00
00218           18600.00
00219           19000.00
00220           19400.00
00221           19600.00
00222           20200.00
00223           20200.00
00224           20600.00
00225           21000.00
00226           21200.00
00227           21400.00
00228           21800.00
00229           22000.00
00230           22200.00
00231           22400.00
00232           22800.00
00233           23000.00
00234           23400.00
00235           23400.00
00236           23600.00
00237           23600.00
00238           23800.00
00239           24200.00
00240           24400.00
00241           24400.00
00242           24400.00
00243           24600.00
00244           24800.00
00245           25000.00
00246           25000.00
00247           25000.00
00248           25000.00
00249           25000.00
00250           25000.00
00251           25000.00
00252           25000.00
00253           25000.00
00254           25000.00
00255           25000.00
00256           25000.00
00257           25000.00
00258           25000.00
00259           25000.00
00260           25000.00
00261           25000.00
00262           25000.00
00263           25000.00
00264           25000.00
00265           25000.00
00266           25000.00
00267           25000.00
00268           25000.00
00269           25000.00
00270           25000.00
00271           24800.00
00272           24600.00
00273           24600.00
00274           24400.00
00275           24400.00
00276           24200.00
00277           23800.00
00278           23800.00
00279           23800.00
00280           23400.00
00281           23400.00
00282           23000.00
00283           22800.00
00284           22600.00
00285           22200.00
00286           22200.00
00287           21800.00
00288           21800.00
00289           21400.00
00290           21000.00
00291           21000.00
00292           20400.00
00293           20200.00
00294           20000.00
00295           19600.00
00296           19400.00
00297           19000.00
00298           18600.00
00299           18400.00
00300           18000.00
00301           17600.00
00302           17200.00
00303           17000.00
00304           16600.00
00305           16200.00
00306           15800.00
00307           15400.00
00308           15000.00
00309           14600.00
00310           14200.00
00311           13800.00
00312           13200.00
00313           13000.00
00314           12600.00
00315           12200.00
00316           11800.00
00317           11400.00
00318           10600.00
00319           10200.00
00320            9800.00
00321            9400.00
00322            9000.00
00323            8400.00
00324            8200.00
00325            7600.00
00326            7200.00
00327            6600.00
00328            6000.00
00329            5600.00
00330            5200.00
00331            4600.00
00332            4200.00
00333            3600.00
00334            3400.00
00335            2800.00
00336            2200.00
00337            1800.00
00338            1400.00
00339            1000.00
00340             400.00
00341            -200.00
00342            -600.00
00343           -1000.00
00344           -1400.00
00345           -2000.00
00346           -2200.00
00347           -2800.00
00348           -3000.00
00349           -3600.00
00350           -4400.00
00351           -5200.00
00352           -5400.00
00353           -6000.00
00354           -6000.00
00355           -6200.00
00356           -7000.00
00357           -7600.00
00358           -8000.00
00359           -8600.00
00360           -9000.00
00361           -9200.00
00362          -10000.00
00363          -10200.00
00364          -10800.00
00365          -11000.00
00366          -11600.00
00367          -12200.00
00368          -12400.00
00369          -13000.00
00370          -13400.00
00371          -13800.00
00372          -14200.00
00373          -14600.00
00374          -15000.00
00375          -15400.00
00376          -15800.00
00377          -16200.00
00378          -16600.00
00379          -16800.00
00380          -17200.00
00381          -17800.00
00382          -18000.00
00383          -18600.00
00384          -18800.00
00385          -19000.00
00386          -19400.00
00387          -19800.00
00388          -20200.00
00389          -20400.00
00390          -20600.00
00391          -21000.00
00392          -21400.00
00393          -21600.00
00394          -21800.00
00395          -22000.00
00396          -22200.00
00397          -22600.00
00398          -22800.00
00399          -23000.00
00400          -23000.00
00401          -23400.00
00402          -23600.00
00403          -23800.00
00404          -23800.00
00405          -24200.00
00406          -24400.00
00407          -24600.00
00408          -24600.00
00409          -24600.00
00410          -24800.00
00411          -25000.00
00412          -25000.00
00413          -25000.00
00414          -25000.00
00415          -25000.00
00416          -25000.00
00417          -25000.00
00418          -25000.00
00419          -25000.00
00420          -25000.00
00421          -25000.00
00422          -25000.00
00423          -25000.00
00424          -25000.00
00425          -25000.00
00426          -25000.00
00427          -25000.00
00428          -25000.00
00429          -25000.00
00430          -25000.00
00431          -25000.00
00432          -25000.00
00433          -25000.00
00434          -25000.00
00435          -25000.00
00436          -25000.00
00437          -24600.00
00438          -24600.00
00439          -24600.00
00440          -24400.00
00441          -24200.00
00442          -24200.00
00443          -23800.00
00444          -23800.00
00445          -23600.00
00446          -23600.00
00447          -23200.00
00448          -23000.00
00449          -23000.00
00450          -22800.00
00451          -22600.00
00452          -22200.00
00453          -22000.00
00454          -21400.00
00455          -21400.00
00456          -21200.00
00457          -21000.00
00458          -20400.00
00459          -20200.00
00460          -19800.00
00461          -19800.00
00462          -19400.00
00463          -18800.00
00464          -18800.00
00465          -18200.00
00466          -18000.00
00467          -17400.00
00468          -17200.00
00469          -17000.00
00470          -16600.00
00471          -16200.00
00472          -15800.00
00473          -15400.00
00474          -15000.00
00475          -14600.00
00476          -14200.00
00477          -13800.00
00478          -13200.00
00479          -13000.00
00480          -12400.00
00481          -11800.00
00482          -11600.00
00483          -11000.00
00484          -10600.00
00485          -10200.00
00486           -9800.00
00487           -9400.00
00488           -9000.00
00489           -8400.00
00490           -7800.00
00491           -7600.00
00492           -7000.00
00493           -6600.00
00494           -6000.00
00495           -5400.00
00496           -5200.00
00497           -4600.00
00498           -4400.00
00499           -3800.00
00500           -3200.00
00501           -2800.00
00502           -2200.00
00503           -1800.00
00504           -1200.00
00505            -800.00
00506            -400.00
00507             200.00
00508             600.00
00509            1000.00
00510            1600.00
00511            1800.00
00512            2400.00
00513            2600.00
00514            3400.00
00515            3600.00
00516            4200.00
00517            5000.00
00518            5400.00
00519            5800.00
00520            6200.00
00521            6600.00
00522            7000.00
00523            7400.00
00524            7800.00
00525            8400.00
00526            8600.00
00527            9400.00
00528            9800.00
00529           10200.00
00530           10600.00
00531           11000.00
00532           11600.00
00533           12200.00
00534           12400.00
00535           13000.00
00536           13200.00
00537           13800.00
00538           14000.00
00539           14600.00
00540           15000.00
00541           15400.00
00542           15800.00
00543           16200.00
00544           16400.00
00545           17000.00
00546           17200.00
00547           17800.00
00548           18000.00
00549           18600.00
00550           18600.00
00551           19000.00
00552           19400.00
00553           19800.00
00554           20200.00
00555           20400.00
00556           20600.00
00557           21200.00
00558           21200.00
00559           21400.00
00560           21800.00
00561           22000.00
00562           22200.00
00563           22600.00
00564           22800.00
00565           23000.00
00566           23400.00
00567           23400.00
00568           23400.00
00569           23800.00
00570           24000.00
00571           24200.00
00572           24400.00
00573           24400.00
00574           24600.00
00575           25000.00
00576           24800.00
00577           25000.00
00578           25000.00
00579           25000.00
00580           25000.00
00581           25000.00
00582           25000.00
00583           25000.00
00584           25000.00
00585           25000.00
00586           25000.00
00587           25000.00
00588           25000.00
00589           25000.00
00590           25000.00
00591           25000.00
00592           25000.00
00593           25000.00
00594           25000.00
00595           25000.00
00596           25000.00
00597           25000.00
00598           25000.00
00599           25000.00
00600           25000.00
00601           25000.00
00602           25000.00
00603           24800.00
00604           24800.00
00605           24600.00
00606           24400.00
00607           24400.00
00608           24200.00
00609           24200.00
00610           23800.00
00611           23800.00
00612           23400.00
00613           23400.00
00614           23000.00
00615           22800.00
00616           22600.00
00617           22200.00
00618           22000.00
00619           22000.00
00620           21600.00
00621           21400.00
00622           21200.00
00623           21000.00
00624           20400.00
00625           20200.00
00626           19800.00
00627           19600.00
00628           19200.00
00629           18800.00
00630           18600.00
00631           18200.00
00632           18000.00
00633           17600.00
00634           17200.00
00635           17000.00
00636           16400.00
00637           16200.00
00638           15800.00
00639           15400.00
00640           15000.00
00641           14600.00
00642           14000.00
00643           13600.00
00644           13200.00
00645           12800.00
00646           12400.00
00647           11800.00
00648           11400.00
00649           11000.00
00650           10600.00
00651           10200.00
00652            9800.00
00653            9200.00
00654            9000.00
00655            8400.00
00656            7800.00
00657            7600.00
00658            6800.00
00659            6600.00
00660            6000.00
00661            5800.00
00662            5200.00
00663            4600.00
00664            4200.00
00665            3600.00
00666            3000.00
00667            2800.00
00668            2200.00
00669            1800.00
00670            1200.00
00671            1000.00
00672             400.00
00673            -200.00
00674            -600.00
00675           -1200.00
00676           -1400.00
00677           -2000.00
00678           -2600.00
00679           -2800.00
00680           -3000.00
00681           -3600.00
00682           -4400.00
00683           -5000.00
00684           -5600.00
00685           -6000.00
00686           -6000.00
00687           -6400.00
00688           -7200.00
00689           -7600.00
00690           -8200.00
00691           -8600.00
00692           -8800.00
00693           -9400.00
00694           -9800.00
00695          -10200.00
00696          -10800.00
00697          -11000.00
00698          -11800.00
00699          -12200.00
00700          -12400.00
00701          -13000.00
00702          -13400.00
00703          -13800.00
00704          -14200.00
00705          -14600.00
00706          -15000.00
00707          -15600.00
00708          -15800.00
00709          -16400.00
00710          -16600.00
00711          -17200.00
00712          -17400.00
00713          -17800.00
00714          -18000.00
00715          -18400.00
00716          -18800.00
00717          -19000.00
00718          -19600.00
00719          -19800.00
00720          -20200.00
00721          -20400.00
00722          -20800.00
00723          -21000.00
00724          -21400.00
00725          -21800.00
00726          -22000.00
00727          -22000.00
00728          -22200.00
00729          -22600.00
00730          -22800.00
00731          -23000.00
00732          -23200.00
00733          -23400.00
00734          -23600.00
00735          -23800.00
00736          -23800.00
00737          -24000.00
00738          -24200.00
00739          -24400.00
00740          -24600.00
00741          -24600.00
00742          -24600.00
00743          -25000.00
00744          -25000.00
00745          -25000.00
00746          -25000.00
00747          -25000.00
00748          -25000.00
00749          -25000.00
00750          -25000.00
00751          -25000.00
00752          -25000.00
00753          -25000.00
00754          -25000.00
00755          -25000.00
00756          -25000.00
00757          -25000.00
00758          -25000.00
00759          -25000.00
00760          -25000.00
00761          -25000.00
00762          -25000.00
00763          -25000.00
00764          -25000.00
00765          -25000.00
00766          -25000.00
00767          -25000.00
00768          -25000.00
00769          -24800.00
00770          -24600.00
00771          -24600.00
00772          -24400.00
00773          -24400.00
00774          -24200.00
00775          -24200.00
00776          -23800.00
00777          -23800.00
00778          -23600.00
00779          -23400.00
00780          -23000.00
00781          -22800.00
00782          -22600.00
00783          -22400.00
00784          -22000.00
00785          -21800.00
00786          -21400.00
00787          -21400.00
00788          -21200.00
00789          -20600.00
00790          -20400.00
00791          -20400.00
00792          -19800.00
00793          -19600.00
00794          -19000.00
00795          -19000.00
00796          -18600.00
00797          -18200.00
00798          -18000.00
00799          -17400.00
00800          -17200.00
00801          -16600.00
00802          -16400.00
00803          -15800.00
00804          -15600.00
00805          -15200.00
00806          -14800.00
00807          -14600.00
00808          -14000.00
00809          -13800.00
00810          -13200.00
00811          -12600.00
00812          -12400.00
00813          -11800.00
00814          -11400.00
00815          -11000.00
00816          -10600.00
00817          -10000.00
00818           -9800.00
00819           -9200.00
00820           -8600.00
00821           -8200.00
00822           -7800.00
00823           -7400.00
00824           -7000.00
00825           -6600.00
00826           -6000.00
00827           -5400.00
00828           -5000.00
00829           -4400.00
00830           -4200.00
00831           -3600.00
00832           -3000.00
00833           -2800.00
00834           -2000.00
00835           -1800.00
00836           -1200.00
00837            -600.00
00838            -400.00
00839             200.00
00840             400.00
00841            1200.00
00842            1600.00
00843            2000.00
00844            2400.00
00845            2800.00
00846            3400.00
00847            3600.00
00848            4400.00
00849            5000.00
00850            5400.00
00851            6000.00
00852            6200.00
00853            6600.00
00854            7000.00
00855            7400.00
00856            8000.00
00857            8600.00
00858            9000.00
00859            9400.00
00860           10000.00
00861           10200.00
00862           10600.00
00863           11000.00
00864           11600.00
00865           12200.00
00866           12600.00
00867           13000.00
00868           13400.00
00869           13800.00
00870           14200.00
00871           14800.00
00872           15000.00
00873           15400.00
00874           15800.00
00875           16200.00
00876           16600.00
00877           17000.00
00878           17200.00
00879           17800.00
00880           18200.00
00881           18200.00
00882           18800.00
00883           19200.00
00884           19600.00
00885           19800.00
00886           20200.00
00887           20400.00
00888           20600.00
00889           21200.00
00890           21200.00
00891           21800.00
00892           21800.00
00893           22200.00
00894           22200.00
00895           22600.00
00896           22800.00
00897           23000.00
00898           23200.00
00899           23400.00
00900           23600.00
00901           23600.00
00902           23800.00
00903           24200.00
00904           24400.00
00905           24400.00
00906           24600.00
00907           24600.00
00908           25000.00
00909           25000.00
00910           25000.00
00911           25000.00
00912           25000.00
00913           25000.00
00914           25000.00
00915           25000.00
00916           25000.00
00917           25000.00
00918           25000.00
00919           25000.00
00920           25000.00
00921           25000.00
00922           25000.00
00923           25000.00
00924           25000.00
00925           25000.00
00926           25000.00
00927           25000.00
00928           25000.00
00929           25000.00
00930           25000.00
00931           25000.00
00932           25000.00
00933           25000.00
00934           25000.00
00935           25000.00
00936           24600.00
00937           24600.00
00938           24400.00
00939           24400.00
00940           24200.00
00941           24000.00
00942           23800.00
00943           23600.00
00944           23400.00
00945           23400.00
00946           23000.00
00947           22800.00
00948           22600.00
00949           22400.00
00950           22000.00
00951           21800.00
00952           21600.00
00953           21200.00
00954           21200.00
00955           20600.00
00956           20400.00
00957           20200.00
00958           19800.00
00959           19600.00
00960           19000.00
00961           18800.00
00962           18600.00
00963           18200.00
00964           18000.00
00965           17600.00
00966           17000.00
00967           16600.00
00968           16400.00
00969           15800.00
00970           15400.00
00971           15400.00
00972           14800.00
00973           14200.00
00974           14000.00
00975           13600.00
00976           13000.00
00977           12600.00
00978           12200.00
00979           11800.00
00980           11600.00
00981           11000.00
00982           10600.00
00983           10000.00
00984            9800.00
00985            9200.00
00986            9000.00
00987            8400.00
00988            7600.00
00989            7400.00
00990            6800.00
00991            6600.00
00992            5800.00
00993            5400.00
00994            5000.00
00995            4400.00
00996            4000.00
00997            3600.00
00998            3000.00
00999            2600.00
01000            2200.00
01001            1800.00
01002            1200.00
01003             600.00
01004             200.00
01005            -400.00
01006            -600.00
01007           -1200.00
01008           -1800.00
01009           -2200.00
01010           -2600.00
01011           -2800.00
01012           -3400.00
01013           -3800.00
01014           -4400.00
01015           -5200.00
01016           -5800.00
01017           -6000.00
01018           -6000.00
01019           -6600.00
01020           -7200.00
01021           -7600.00
01022           -8200.00
01023           -8600.00
01024           -9200.00
01025           -9400.00
01026          -10000.00
01027          -10200.00
01028          -10800.00
01029          -11200.00
01030          -11800.00
01031          -12400.00
01032          -12600.00
01033          -13200.00
01034          -13400.00
01035          -14000.00
01036          -14200.00
01037          -14800.00
01038          -15000.00
01039          -15600.00
01040          -15800.00
01041          -16200.00
01042          -16600.00
01043          -17200.00
01044          -17400.00
01045          -17800.00
01046          -18200.00
01047          -18600.00
01048          -19000.00
01049          -19200.00
01050          -19600.00
01051          -19800.00
01052          -20200.00
01053          -20400.00
01054          -20600.00
01055          -21000.00
01056          -21400.00
01057          -21600.00
01058          -22000.00
01059          -22000.00
01060          -22200.00
01061          -22600.00
01062          -23000.00
01063          -23000.00
01064          -23400.00
01065          -23400.00
01066          -23600.00
01067          -23800.00
01068          -23800.00
01069          -24200.00
01070          -24400.00
01071          -24400.00
01072          -24600.00
01073          -24600.00
01074          -24800.00
01075          -25000.00
01076          -25000.00
01077          -25000.00
01078          -25000.00
01079          -25000.00
01080          -25000.00
01081          -25000.00
01082          -25000.00
01083          -25000.00
01084          -25000.00
01085          -25000.00
01086          -25000.00
01087          -25000.00
01088          -25000.00
01089          -25000.00
01090          -25000.00
01091          -25000.00
01092          -25000.00
01093          -25000.00
01094          -25000.00
01095          -25000.00
01096          -25000.00
01097          -25000.00
01098          -25000.00
01099          -25000.00
01100          -25000.00
01101          -25000.00
01102          -24800.00
01103          -24600.00
01104          -24600.00
01105          -24400.00
01106          -24200.00
01107          -24000.00
01108          -23800.00
01109          -23600.00
01110          -23600.00
01111          -23200.00
01112          -23000.00
01113          -22800.00
01114          -22600.00
01115          -22200.00
01116          -22000.00
01117          -21800.00
01118          -21400.00
01119          -21400.00
01120          -21000.00
01121          -21000.00
01122          -20400.00
01123          -20200.00
01124          -19800.00
01125          -19400.00
01126          -19000.00
01127          -18800.00
01128          -18600.00
01129          -18000.00
01130          -17800.00
01131          -17400.00
01132          -17000.00
01133          -16600.00
01134          -16200.00
01135          -15800.00
01136          -15600.00
01137          -15000.00
01138          -14800.00
01139          -14200.00
01140          -14000.00
01141          -13400.00
01142          -13200.00
01143          -12600.00
01144          -12400.00
01145          -11800.00
01146          -11400.00
01147          -11000.00
01148          -10600.00
01149          -10200.00
01150           -9400.00
01151           -9200.00
01152           -8600.00
01153           -8200.00
01154           -7800.00
01155           -7400.00
01156           -6800.00
01157           -6400.00
01158           -6000.00
01159           -5400.00
01160           -5000.00
01161           -4600.00
01162           -3800.00
01163           -3800.00
01164           -3000.00
01165           -2600.00
01166           -2200.00
01167           -1800.00
01168           -1200.00
01169            -600.00
01170            -400.00
01171             400.00
01172             600.00
01173            1200.00
01174            1800.00
01175            2000.00
01176            2600.00
01177            3000.00
01178            3400.00
01179            3800.00
01180            4400.00
01181            5200.00
01182            5800.00
01183            6000.00
01184            6400.00
01185            6800.00
01186            7200.00
01187            7600.00
01188            8200.00
01189            8600.00
01190            9000.00
01191            9600.00
01192           10000.00
01193           10600.00
01194           10800.00
01195           11200.00
01196           11800.00
01197           12200.00
01198           12600.00
01199           13000.00
01200           13400.00
01201           14000.00
01202           14200.00
01203           14800.00
01204           15400.00
01205           15600.00
01206           15800.00
01207           16200.00
01208           16600.00
01209           17000.00
01210           17400.00
01211           18000.00
01212           18000.00
01213           18600.00
01214           19000.00
01215           19400.00
01216           19600.00
01217           19800.00
01218           20200.00
01219           20400.00
01220           21000.00
01221           21000.00
01222           21400.00
01223           21800.00
01224           21800.00
01225           22000.00
01226           22200.00
01227           22600.00
01228           22800.00
01229           23000.00
01230           23000.00
01231           23400.00
01232           23600.00
01233           23800.00
01234           23800.00
01235           24200.00
01236           24400.00
01237           24400.00
01238           24600.00
01239           24600.00
01240           25000.00
01241           25000.00
01242           25000.00
01243           25000.00
01244           25000.00
01245           25000.00
01246           25000.00
01247           25000.00
01248           25000.00
01249           25000.00
01250           25000.00
01251           25000.00
01252           25000.00
01253           25000.00
01254           25000.00
01255           25000.00
01256           25000.00
01257           25000.00
01258           25000.00
01259           25000.00
01260           25000.00
01261           25000.00
01262           25000.00
01263           25000.00
01264           25000.00
01265           25000.00
01266           25000.00
01267           25000.00
01268           24800.00
01269           24600.00
01270           24400.00
01271           24200.00
01272           24200.00
01273           24000.00
01274           23600.00
01275           23600.00
01276           23400.00
01277           23400.00
01278           23000.00
01279           22800.00
01280           22600.00
01281           22200.00
01282           22200.00
01283           21800.00
01284           21800.00
01285           21200.00
01286           21000.00
01287           20800.00
01288           20400.00
01289           20200.00
01290           19800.00
01291           19600.00
01292           19000.00
01293           18600.00
01294           18600.00
01295           18000.00
01296           17800.00
01297           17200.00
01298           17000.00
01299           16600.00
01300           16200.00
01301           15800.00
01302           15600.00
01303           15400.00
01304           14800.00
01305           14400.00
01306           13800.00
01307           13400.00
01308           13200.00
01309           12600.00
01310           12200.00
01311           11800.00
01312           11400.00
01313           10800.00
01314           10600.00
01315           10000.00
01316            9600.00
01317            9000.00
01318            8600.00
01319            8200.00
01320            7800.00
01321            7400.00
01322            6800.00
01323            6600.00
01324            6000.00
01325            5400.00
01326            5200.00
01327            4400.00
01328            3800.00
01329            3600.00
01330            3000.00
01331            2600.00
01332            2200.00
01333            1800.00
01334            1200.00
01335             600.00
01336             200.00
01337            -400.00
01338            -600.00
01339           -1200.00
01340           -1800.00
01341           -2000.00
01342           -2400.00
01343           -3000.00
01344           -3400.00
01345           -3800.00
01346           -4600.00
01347           -5400.00
01348           -5800.00
01349           -6000.00
01350           -6200.00
01351           -6600.00
01352           -7400.00
01353           -7600.00
01354           -8200.00
01355           -8600.00
01356           -9000.00
01357           -9600.00
01358          -10000.00
01359          -10200.00
01360          -11000.00
01361          -11400.00
01362          -11800.00
01363          -12400.00
01364          -12600.00
01365          -13200.00
01366          -13400.00
01367          -14000.00
01368          -14400.00
01369          -14800.00
01370          -15200.00
01371          -15600.00
01372          -16200.00
01373          -16400.00
01374          -16800.00
01375          -17200.00
01376          -17400.00
01377          -18000.00
01378          -18200.00
01379          -18600.00
01380          -19000.00
01381          -19400.00
01382          -19600.00
01383          -19800.00
01384          -20400.00
01385          -20600.00
01386          -21000.00
01387          -21000.00
01388          -21400.00
01389          -21800.00
01390          -22000.00
01391          -22000.00
01392          -22200.00
01393          -22600.00
01394          -23000.00
01395          -23000.00
01396          -23200.00
01397          -23400.00
01398          -23600.00
01399          -23800.00
01400          -23800.00
01401          -24200.00
01402          -24400.00
01403          -24400.00
01404          -24600.00
01405          -24600.00
01406          -24600.00
01407          -25000.00
01408          -25000.00
01409          -25000.00
01410          -25000.00
01411          -25000.00
01412          -25000.00
01413          -25000.00
01414          -25000.00
01415          -25000.00
01416          -25000.00
01417          -25000.00
01418          -25000.00
01419          -25000.00
01420          -25000.00
01421          -25000.00
01422          -25000.00
01423          -25000.00
01424          -25000.00
01425          -25000.00
01426          -25000.00
01427          -25000.00
01428          -25000.00
01429          -25000.00
01430          -25000.00
01431          -25000.00
01432          -25000.00
01433          -24800.00
01434          -24600.00
01435          -24600.00
01436          -24400.00
01437          -24400.00
01438          -24200.00
01439          -23800.00
01440          -23800.00
01441          -23600.00
01442          -23400.00
01443          -23400.00
01444          -23000.00
01445          -22800.00
01446          -22400.00
01447          -22200.00
01448          -22000.00
01449          -21800.00
01450          -21400.00
01451          -21200.00
01452          -21000.00
01453          -20600.00
01454          -20400.00
01455          -20200.00
01456          -19800.00
01457          -19400.00
01458          -19000.00
01459          -18800.00
01460          -18600.00
01461          -18000.00
01462          -17800.00
01463          -17400.00
01464          -17000.00
01465          -16600.00
01466          -16200.00
01467          -15800.00
01468          -15400.00
01469          -15200.00
01470          -14800.00
01471          -14200.00
01472          -14000.00
01473          -13400.00
01474          -13200.00
01475          -12600.00
01476          -12200.00
01477          -11800.00
01478          -11400.00
01479          -10800.00
01480          -10600.00
01481          -10000.00
01482           -9400.00
01483           -9200.00
01484           -8600.00
01485           -8200.00
01486           -7800.00
01487           -7000.00
01488           -6800.00
01489           -6200.00
01490           -6000.00
01491           -5400.00
01492           -4800.00
01493           -4400.00
01494           -4000.00
01495           -3600.00
01496           -3000.00
01497           -2600.00
01498           -2000.00
01499           -1400.00
01500           -1200.00
01501            -600.00
01502            -200.00
01503             400.00
01504             800.00
01505            1200.00
01506            1800.00
01507            2200.00
01508            2600.00
01509            3000.00
01510            3400.00
01511            4000.00
01512            4400.00
01513            5200.00
01514            5800.00
01515            6000.00
01516            6200.00
01517            6800.00
01518            7400.00
01519            7800.00
01520            8200.00
01521            8600.00
01522            9200.00
01523            9400.00
01524           10000.00
01525           10200.00
01526           10800.00
01527           11400.00
01528           11800.00
01529           12200.00
01530           12600.00
01531           13200.00
01532           13600.00
01533           13800.00
01534           14400.00
01535           14800.00
01536           15200.00
01537           15600.00
01538           16200.00
01539           16400.00
01540           16600.00
01541           17000.00
01542           17400.00
01543           18000.00
01544           18200.00
01545           18600.00
01546           19000.00
01547           19200.00
01548           19600.00
01549           19800.00
01550           20200.00
01551           20600.00
01552           21000.00
01553           21000.00
01554           21200.00
01555           21600.00
01556           21800.00
01557           22000.00
01558           22200.00
01559           22600.00
01560           22800.00
01561           23000.00
01562           23200.00
01563           23400.00
01564           23600.00
01565           23800.00
01566           24200.00
01567           24200.00
01568           24200.00
01569           24400.00
01570           24600.00
01571           24800.00
01572           25000.00
01573           25000.00
01574           25000.00
01575           25000.00
01576           25000.00
01577           25000.00
01578           25000.00
01579           25000.00
01580           25000.00
01581           25000.00
01582           25000.00
01583           25000.00
01584           25000.00
01585           25000.00
01586           25000.00
01587           25000.00
01588           25000.00
01589           25000.00
01590           25000.00
01591           25000.00
01592           25000.00
01593           25000.00
01594           25000.00
01595           25000.00
01596           25000.00
01597           25000.00
01598           25000.00
01599           24600.00
01600           24800.00
01601           24600.00
01602           24400.00
01603           24400.00
01604           24200.00
01605           23800.00
01606           23800.00
01607           23600.00
01608           23400.00
01609           23400.00
01610           22800.00
01611           22800.00
01612           22600.00
01613           22200.00
01614           22000.00
01615           21800.00
01616           21400.00
01617           21200.00
01618           21000.00
01619           20600.00
01620           20200.00
01621           20200.00
01622           19600.00
01623           19400.00
01624           19000.00
01625           18600.00
01626           18200.00
01627           18000.00
01628           17800.00
01629           17200.00
01630           17000.00
01631           16400.00
01632           16200.00
01633           15800.00
01634           15400.00
01635           15000.00
01636           14600.00
01637           14200.00
01638           13800.00
01639           13400.00
01640           13000.00
01641           12600.00
01642           12200.00
01643           11800.00
01644           11000.00
01645           10800.00
01646           10400.00
01647           10000.00
01648            9600.00
01649            9000.00
01650            8600.00
01651            8200.00
01652            7600.00
01653            7400.00
01654            6800.00
01655            6600.00
01656            6000.00
01657            5400.00
01658            5000.00
01659            4400.00
01660            4200.00
01661            3600.00
01662            3000.00
01663            2600.00
01664            2000.00
01665            1400.00
01666            1200.00
01667             600.00
01668             200.00
01669            -400.00
01670            -800.00
01671           -1400.00
01672           -1800.00
01673           -2200.00
01674           -2600.00
01675           -3000.00
01676           -3400.00
01677           -3800.00
01678           -4600.00
01679           -5400.00
01680           -6000.00
01681           -6000.00
01682           -6200.00
01683           -6800.00
01684           -7400.00
01685           -7800.00
01686           -8400.00
01687           -8800.00
01688           -9200.00
01689          -10000.00
01690          -10200.00
01691          -10600.00
01692          -11000.00
01693          -11400.00
01694          -12200.00
01695          -12400.00
01696          -12600.00
01697          -13200.00
01698          -13600.00
01699          -14000.00
01700          -14600.00
01701          -14800.00
01702          -15400.00
01703          -15600.00
01704          -16200.00
01705          -16400.00
01706          -17000.00
01707          -17200.00
01708          -17400.00
01709          -18000.00
01710          -18200.00
01711          -18600.00
01712          -19000.00
01713          -19400.00
01714          -19800.00
01715          -19800.00
01716          -20200.00
01717          -20600.00
01718          -21000.00
01719          -21200.00
01720          -21400.00
01721          -21800.00
01722          -22000.00
01723          -22200.00
01724          -22200.00
01725          -22600.00
01726          -22800.00
01727          -23000.00
01728          -23200.00
01729          -23400.00
01730          -23600.00
01731          -23800.00
01732          -24000.00
01733          -24200.00
01734          -24400.00
01735          -24600.00
01736          -24600.00
01737          -24600.00
01738          -24800.00
01739          -25000.00
01740          -25000.00
01741          -25000.00
01742          -25000.00
01743          -25000.00
01744          -25000.00
01745          -25000.00
01746          -25000.00
01747          -25000.00
01748          -25000.00
01749          -25000.00
01750          -25000.00
01751          -25000.00
01752          -25000.00
01753          -25000.00
01754          -25000.00
01755          -25000.00
01756          -25000.00
01757          -25000.00
01758          -25000.00
01759          -25000.00
01760          -25000.00
01761          -25000.00
01762          -25000.00
01763          -25000.00
01764          -25000.00
01765          -24600.00
01766          -24600.00
01767          -24600.00
01768          -24400.00
01769          -24400.00
01770          -24200.00
01771          -23800.00
01772          -23800.00
01773          -23600.00
01774          -23400.00
01775          -23200.00
01776          -23000.00
01777          -22800.00
01778          -22600.00
01779          -22200.00
01780          -22000.00
01781          -21800.00
01782          -21400.00
01783          -21200.00
01784          -21000.00
01785          -20600.00
01786          -20400.00
01787          -20000.00
01788          -19600.00
01789          -19400.00
01790          -19000.00
01791          -18800.00
01792          -18600.00
01793          -18000.00
01794          -17800.00
01795          -17400.00
01796          -17000.00
01797          -16600.00
01798          -16200.00
01799          -15800.00
01800          -15400.00
01801          -15000.00
01802          -14800.00
01803          -14200.00
01804          -13800.00
01805          -13400.00
01806          -13000.00
01807          -12600.00
01808          -12200.00
01809          -11600.00
01810          -11000.00
01811          -10800.00
01812          -10200.00
01813          -10000.00
01814           -9400.00
01815           -9200.00
01816           -8600.00
01817           -8200.00
01818           -7800.00
01819           -7000.00
01820           -6800.00
01821           -6200.00
01822           -5800.00
01823           -5400.00
01824           -4800.00
01825           -4400.00
01826           -3800.00
01827           -3400.00
01828           -3000.00
01829           -2400.00
01830           -2200.00
01831           -1400.00
01832           -1000.00
01833            -600.00
01834            -200.00
01835             400.00
01836            1000.00
01837            1400.00
01838            1800.00
01839            2200.00
01840            2600.00
01841            3000.00
01842            3600.00
01843            4000.00
01844            4600.00
01845            5200.00
01846            5800.00
01847            6200.00
01848            6600.00
01849            6800.00
01850            7400.00
01851            7800.00
01852            8400.00
01853            8600.00
01854            9200.00
01855            9800.00
01856           10200.00
01857           10600.00
01858           11000.00
01859           11600.00
01860           12000.00
01861           12400.00
01862           13000.00
01863           13200.00
01864           13800.00
01865           14200.00
01866           14600.00
01867           14800.00
01868           15400.00
01869           15600.00
01870           16200.00
01871           16400.00
01872           16800.00
01873           17200.00
01874           17600.00
01875           18000.00
01876           18200.00
01877           18600.00
01878           18800.00
01879           19400.00
01880           19600.00
01881           20000.00
01882           20200.00
01883           20600.00
01884           20600.00
01885           21200.00
01886           21400.00
01887           21800.00
01888           21800.00
01889           22200.00
01890           22200.00
01891           22600.00
01892           22800.00
01893           22800.00
01894           23000.00
01895           23400.00
01896           23600.00
01897           23800.00
01898           24200.00
01899           24200.00
01900           24400.00
01901           24400.00
01902           24600.00
01903           24800.00
01904           25000.00
01905           25000.00
01906           25000.00
01907           25000.00
01908           25000.00
01909           25000.00
01910           25000.00
01911           25000.00
01912           25000.00
01913           25000.00
01914           25000.00
01915           25000.00
01916           25000.00
01917           25000.00
01918           25000.00
01919           25000.00
01920           25000.00
01921           25000.00
01922           25000.00
01923           25000.00
01924           25000.00
01925           25000.00
01926           25000.00
01927           25000.00
01928           25000.00
01929           25000.00
01930           25000.00
01931           25000.00
01932           24600.00
01933           24600.00
01934           24400.00
01935           24400.00
01936           24000.00
01937           24000.00
01938           23800.00
01939           23600.00
01940           23400.00
01941           23200.00
01942           22800.00
01943           22800.00
01944           22600.00
01945           22000.00
01946           21800.00
01947           21400.00
01948           21400.00
01949           21200.00
01950           21000.00
01951           20600.00
01952           20200.00
01953           19800.00
01954           19600.00
01955           19400.00
01956           19000.00
01957           18600.00
01958           18200.00
01959           18000.00
01960           17800.00
01961           17200.00
01962           16800.00
01963           16600.00
01964           16200.00
01965           15800.00
01966           15400.00
01967           15000.00
01968           14600.00
01969           14200.00
01970           13800.00
01971           13200.00
01972           13000.00
01973           12600.00
01974           12200.00
01975           11600.00
01976           11400.00
01977           10800.00
01978           10400.00
01979           10000.00
01980            9400.00
01981            9000.00
01982            8600.00
01983            8200.00
01984            7800.00
01985            7400.00
01986            6800.00
01987            6200.00
01988            5800.00
01989            5200.00
01990            5000.00
01991            4400.00
01992            3800.00
01993            3600.00
01994            2800.00
01995            2600.00
01996            2000.00
01997            1600.00
01998            1000.00
01999             600.00
02000             200.00
02001            -400.00
02002           -1000.00
02003           -1400.00
02004           -1800.00
02005           -2200.00
02006           -2800.00
02007           -3000.00
02008           -3600.00
02009           -4200.00
02010           -5000.00
02011           -5400.00
02012           -6000.00
02013           -6200.00
02014           -6200.00
02015           -7000.00
02016           -7600.00
02017           -7800.00
02018           -8600.00
02019           -9000.00
02020           -9200.00
02021           -9800.00
02022          -10200.00
02023          -10800.00
02024          -11000.00
02025          -11600.00
02026          -12200.00
02027          -12400.00
02028          -13000.00
02029          -13200.00
02030          -13600.00
02031          -14200.00
02032          -14600.00
02033          -15000.00
02034          -15000.00
02035          -15600.00
02036          -16200.00
02037          -16400.00
02038          -16600.00
02039          -17400.00
02040          -17600.00
02041          -18000.00
02042          -18200.00
02043          -18800.00
02044          -19000.00
02045          -19200.00
02046          -19800.00
02047          -19800.00
02048          -20400.00
02049          -20400.00
02050          -21000.00
02051          -21200.00
02052          -21400.00
02053          -21800.00
02054          -22000.00
02055          -22200.00
02056          -22200.00
02057          -22800.00
02058          -22800.00
02059          -23000.00
02060          -23400.00
02061          -23600.00
02062          -23600.00
02063          -23800.00
02064          -23800.00
02065          -24200.00
02066          -24400.00
02067          -24600.00
02068          -24600.00
02069          -24800.00
02070          -25000.00
02071          -25000.00
02072          -25000.00
02073          -25000.00
02074          -25000.00
02075          -25000.00
02076          -25000.00
02077          -25000.00
02078          -25000.00
02079          -25000.00
02080          -25000.00
02081          -25000.00
02082          -25000.00
02083          -25000.00
02084          -25000.00
02085          -25000.00
02086          -25000.00
02087          -25000.00
02088          -25000.00
02089          -25000.00
02090          -25000.00
02091          -25000.00
02092          -25000.00
02093          -25000.00
02094          -25000.00
02095          -25000.00
02096          -25000.00
02097          -24600.00
02098          -24600.00
02099          -24400.00
02100          -24400.00
02101          -24400.00
02102          -24000.00
02103          -23800.00
02104          -23600.00
02105          -23600.00
02106          -23200.00
02107          -23000.00
02108          -22800.00
02109          -22600.00
02110          -22400.00
02111          -22200.00
02112          -22000.00
02113          -21400.00
02114          -21400.00
02115          -21200.00
02116          -20600.00
02117          -20400.00
02118          -20200.00
02119          -19800.00
02120          -19600.00
02121          -19400.00
02122          -19000.00
02123          -18800.00
02124          -18200.00
02125          -17800.00
02126          -17800.00
02127          -17200.00
02128          -17000.00
02129          -16600.00
02130          -16200.00
02131          -15600.00
02132          -15600.00
02133          -15000.00
02134          -14600.00
02135          -14200.00
02136          -13800.00
02137          -13200.00
02138          -13000.00
02139          -12400.00
02140          -12000.00
02141          -11600.00
02142          -11000.00
02143          -10800.00
02144          -10200.00
02145          -10000.00
02146           -9400.00
02147           -9200.00
02148           -8400.00
02149           -8200.00
02150           -7600.00
02151           -7200.00
02152           -6800.00
02153           -6200.00
02154           -5800.00
02155           -5200.00
02156           -4600.00
02157           -4400.00
02158           -3800.00
02159           -3400.00
02160           -2800.00
02161           -2200.00
02162           -2000.00
02163           -1400.00
02164           -1000.00
02165            -600.00
02166             200.00
02167             400.00
02168            1000.00
02169            1400.00
02170            1800.00
02171            2600.00
02172            2800.00
02173            3000.00
02174            3600.00
02175            4200.00
02176            5000.00
02177            5400.00
02178            5800.00
02179            6200.00
02180            6600.00
02181            7000.00
02182            7400.00
02183            7800.00
02184            8400.00
02185            9000.00
02186            9200.00
02187           10000.00
02188           10200.00
02189           10600.00
02190           11000.00
02191           11600.00
02192           12200.00
02193           12400.00
02194           12800.00
02195           13400.00
02196           13800.00
02197           14200.00
02198           14600.00
02199           15000.00
02200           15400.00
02201           15800.00
02202           16200.00
02203           16400.00
02204           17000.00
02205           17200.00
02206           17800.00
02207           18000.00
02208           18200.00
02209           18600.00
02210           19000.00
02211           19400.00
02212           19600.00
02213           19800.00
02214           20200.00
02215           20400.00
02216           21000.00
02217           21200.00
02218           21400.00
02219           21800.00
02220           22000.00
02221           22200.00
02222           22600.00
02223           22600.00
02224           22800.00
02225           23000.00
02226           23400.00
02227           23400.00
02228           23600.00
02229           23600.00
02230           24000.00
02231           24200.00
02232           24400.00
02233           24600.00
02234           24600.00
02235           25000.00
02236           25000.00
02237           25000.00
02238           25000.00
02239           25000.00
02240           25000.00
02241           25000.00
02242           25000.00
02243           25000.00
02244           25000.00
02245           25000.00
02246           25000.00
02247           25000.00
02248           25000.00
02249           25000.00
02250           25000.00
02251           25000.00
02252           25000.00
02253           25000.00
02254           25000.00
02255           25000.00
02256           25000.00
02257           25000.00
02258           25000.00
02259           25000.00
02260           25000.00
02261           25000.00
02262           25000.00
02263           24800.00
02264           24600.00
02265           24400.00
02266           24400.00
02267           24200.00
02268           24200.00
02269           23800.00
02270           23600.00
02271           23600.00
02272           23400.00
02273           23000.00
02274           22800.00
02275           22600.00
02276           22600.00
02277           22000.00
02278           21800.00
02279           21800.00
02280           21400.00
02281           21200.00
02282           20800.00
02283           20400.00
02284           20200.00
02285           20200.00
02286           19600.00
02287           19200.00
02288           18800.00
02289           18600.00
02290           18200.00
02291           17800.00
02292           17400.00
02293           17200.00
02294           17000.00
02295           16400.00
02296           16200.00
02297           15800.00
02298           15400.00
02299           14800.00
02300           14600.00
02301           14200.00
02302           13800.00
02303           13200.00
02304           13000.00
02305           12400.00
02306           12200.00
02307           11600.00
02308           11400.00
02309           10800.00
02310           10200.00
02311           10000.00
02312            9400.00
02313            9000.00
02314            8400.00
02315            8200.00
02316            7600.00
02317            7000.00
02318            6800.00
02319            6200.00
02320            5800.00
02321            5200.00
02322            4800.00
02323            4200.00
02324            3800.00
02325            3400.00
02326            2800.00
02327            2400.00
02328            2000.00
02329            1400.00
02330            1000.00
02331             400.00
02332            -200.00
02333            -600.00
02334           -1000.00
02335           -1400.00
02336           -2000.00
02337           -2200.00
02338           -2600.00
02339           -3000.00
02340           -3800.00
02341           -4400.00
02342           -5000.00
02343           -5800.00
02344           -6000.00
02345           -6000.00
02346           -6200.00
02347           -7000.00
02348           -7400.00
02349           -8000.00
02350           -8600.00
02351           -9000.00
02352           -9400.00
02353           -9800.00
02354          -10200.00
02355          -10800.00
02356          -11000.00
02357          -11600.00
02358          -12200.00
02359          -12400.00
02360          -13000.00
02361          -13200.00
02362          -13800.00
02363          -14000.00
02364          -14600.00
02365          -15000.00
02366          -15400.00
02367          -15600.00
02368          -16200.00
02369          -16400.00
02370          -17000.00
02371          -17200.00
02372          -17400.00
02373          -18000.00
02374          -18200.00
02375          -18800.00
02376          -19000.00
02377          -19400.00
02378          -19600.00
02379          -20200.00
02380          -20400.00
02381          -20600.00
02382          -21000.00
02383          -21200.00
02384          -21400.00
02385          -21800.00
02386          -22000.00
02387          -22200.00
02388          -22200.00
02389          -22800.00
02390          -22800.00
02391          -23000.00
02392          -23400.00
02393          -23400.00
02394          -23600.00
02395          -23800.00
02396          -24000.00
02397          -24200.00
02398          -24400.00
02399          -24600.00
02400          -24600.00
02401          -24800.00
02402          -25000.00
02403          -25000.00
02404          -25000.00
02405          -25000.00
02406          -25000.00
02407          -25000.00
02408          -25000.00
02409          -25000.00
02410          -25000.00
02411          -25000.00
02412          -25000.00
02413          -25000.00
02414          -25000.00
02415          -25000.00
02416          -25000.00
02417          -25000.00
02418          -25000.00
02419          -25000.00
02420          -25000.00
02421          -25000.00
02422          -25000.00
02423          -25000.00
02424          -25000.00
02425          -25000.00
02426          -25000.00
02427          -25000.00
02428          -25000.00
02429          -24800.00
02430          -24800.00
02431          -24400.00
02432          -24400.00
02433          -24200.00
02434          -23800.00
02435          -23800.00
02436          -23600.00
02437          -23600.00
02438          -23400.00
02439          -23000.00
02440          -22800.00
02441          -22600.00
02442          -22200.00
02443          -22000.00
02444          -22000.00
02445          -21400.00
02446          -21400.00
02447          -21000.00
02448          -21000.00
02449          -20400.00
02450          -20200.00
02451          -19800.00
02452          -19600.00
02453          -19200.00
02454          -18800.00
02455          -18600.00
02456          -18200.00
02457          -18000.00
02458          -17400.00
02459          -17200.00
02460          -16800.00
02461          -16400.00
02462          -15800.00
02463          -15600.00
02464          -15400.00
02465          -14800.00
02466          -14600.00
02467          -14000.00
02468          -13800.00
02469          -13400.00
02470          -13000.00
02471          -12400.00
02472          -12000.00
02473          -11600.00
02474          -11000.00
02475          -10800.00
02476          -10200.00
02477           -9800.00
02478           -9400.00
02479           -8800.00
02480           -8400.00
02481           -7800.00
02482           -7600.00
02483           -7000.00
02484           -6600.00
02485           -6200.00
02486           -5800.00
02487           -5200.00
02488           -4600.00
02489           -4400.00
02490           -3800.00
02491           -3400.00
02492           -2800.00
02493           -2200.00
02494           -2000.00
02495           -1400.00
02496            -600.00
02497            -400.00
02498             200.00
02499             400.00
02500            1000.00
02501            1400.00
02502            1800.00
02503            2400.00
02504            2800.00
02505            3000.00
02506            3600.00
02507            4200.00
02508            5000.00
02509            5400.00
02510            5800.00
02511            6200.00
02512            6600.00
02513            7000.00
02514            7600.00
02515            8000.00
02516            8600.00
02517            9000.00
02518            9200.00
02519           10000.00
02520           10000.00
02521           10800.00
02522           11000.00
02523           11800.00
02524           12200.00
02525           12400.00
02526           13000.00
02527           13400.00
02528           13800.00
02529           14200.00
02530           14600.00
02531           15000.00
02532           15400.00
02533           15800.00
02534           16200.00
02535           16600.00
02536           17000.00
02537           17200.00
02538           17800.00
02539           18000.00
02540           18400.00
02541           18600.00
02542           19000.00
02543           19400.00
02544           19600.00
02545           19800.00
02546           20200.00
02547           20600.00
02548           21000.00
02549           21200.00
02550           21400.00
02551           21800.00
02552           22000.00
02553           22200.00
02554           22600.00
02555           22800.00
02556           22800.00
02557           23000.00
02558           23400.00
02559           23400.00
02560           23600.00
02561           23800.00
02562           24200.00
02563           24200.00
02564           24400.00
02565           24600.00
02566           24600.00
02567           25000.00
02568           25000.00
02569           25000.00
02570           25000.00
02571           25000.00
02572           25000.00
02573           25000.00
02574           25000.00
02575           25000.00
02576           25000.00
02577           25000.00
02578           25000.00
02579           25000.00
02580           25000.00
02581           25000.00
02582           25000.00
02583           25000.00
02584           25000.00
02585           25000.00
02586           25000.00
02587           25000.00
02588           25000.00
02589           25000.00
02590           25000.00
02591           25000.00
02592           25000.00
02593           25000.00
02594           25000.00
02595           24600.00
02596           24600.00
02597           24400.00
02598           24200.00
02599           24400.00
02600           24000.00
02601           23600.00
02602           23600.00
02603           23400.00
02604           23200.00
02605           23000.00
02606           22800.00
02607           22600.00
02608           22200.00
02609           22200.00
02610           21800.00
02611           21400.00
02612           21200.00
02613           21000.00
02614           20600.00
02615           20400.00
02616           20200.00
02617           19800.00
02618           19600.00
02619           19200.00
02620           18800.00
02621           18600.00
02622           18200.00
02623           17800.00
02624           17400.00
02625           17200.00
02626           17000.00
02627           16400.00
02628           16200.00
02629           15600.00
02630           15400.00
02631           14800.00
02632           14600.00
02633           14200.00
02634           13800.00
02635           13200.00
02636           13000.00
02637           12400.00
02638           11800.00
02639           11600.00
02640           11000.00
02641           10600.00
02642           10200.00
02643            9800.00
02644            9200.00
02645            9000.00
02646            8400.00
02647            8200.00
02648            7600.00
02649            6800.00
02650            6600.00
02651            6000.00
02652            5600.00
02653            5200.00
02654            4600.00
02655            4200.00
02656            3600.00
02657            3400.00
02658            2800.00
02659            2200.00
02660            1800.00
02661            1400.00
02662             600.00
02663             400.00
02664            -200.00
02665            -600.00
02666           -1000.00
02667           -1400.00
02668           -2000.00
02669           -2600.00
02670           -2800.00
02671           -3400.00
02672           -3600.00
02673           -4400.00
02674           -5200.00
02675           -5800.00
02676           -6000.00
02677           -6200.00
02678           -6600.00
02679           -7200.00
02680           -7600.00
02681           -8200.00
02682           -8600.00
02683           -9000.00
02684           -9400.00
02685          -10000.00
02686          -10200.00
02687          -10800.00
02688          -11000.00
02689          -11600.00
02690          -12400.00
02691          -12600.00
02692          -13000.00
02693          -13400.00
02694          -13800.00
02695          -14200.00
02696          -14600.00
02697          -15000.00
02698          -15400.00
02699          -15800.00
02700          -16200.00
02701          -16600.00
02702          -17200.00
02703          -17200.00
02704          -17800.00
02705          -18000.00
02706          -18600.00
02707          -18800.00
02708          -19000.00
02709          -19400.00
02710          -19800.00
02711          -20200.00
02712          -20400.00
02713          -20600.00
02714          -21000.00
02715          -21200.00
02716          -21400.00
02717          -21800.00
02718          -22000.00
02719          -22200.00
02720          -22600.00
02721          -22600.00
02722          -23000.00
02723          -23000.00
02724          -23400.00
02725          -23600.00
02726          -23800.00
02727          -23800.00
02728          -24200.00
02729          -24400.00
02730          -24600.00
02731          -24600.00
02732          -24600.00
02733          -24800.00
02734          -25000.00
02735          -25000.00
02736          -25000.00
02737          -25000.00
02738          -25000.00
02739          -25000.00
02740          -25000.00
02741          -25000.00
02742          -25000.00
02743          -25000.00
02744          -25000.00
02745          -25000.00
02746          -25000.00
02747          -25000.00
02748          -25000.00
02749          -25000.00
02750          -25000.00
02751          -25000.00
02752          -25000.00
02753          -25000.00
02754          -25000.00
02755          -25000.00
02756          -25000.00
02757          -25000.00
02758          -25000.00
02759          -25000.00
02760          -25000.00
02761          -24600.00
02762          -24600.00
02763          -24400.00
02764          -24400.00
02765          -24200.00
02766          -24000.00
02767          -23600.00
02768          -23600.00
02769          -23600.00
02770          -23400.00
02771          -23000.00
02772          -22800.00
02773          -22600.00
02774          -22200.00
02775          -22200.00
02776          -21800.00
02777          -21400.00
02778          -21200.00
02779          -21200.00
02780          -20600.00
02781          -20400.00
02782          -20200.00
02783          -19800.00
02784          -19600.00
02785          -19200.00
02786          -18800.00
02787          -18600.00
02788          -18200.00
02789          -17800.00
02790          -17400.00
02791          -17200.00
02792          -17000.00
02793          -16400.00
02794          -16200.00
02795          -15600.00
02796          -15400.00
02797          -15000.00
02798          -14400.00
02799          -14000.00
02800          -13800.00
02801          -13400.00
02802          -13000.00
02803          -12600.00
02804          -12000.00
02805          -11600.00
02806          -11000.00
02807          -10800.00
02808          -10200.00
02809          -10000.00
02810           -9400.00
02811           -8800.00
02812           -8400.00
02813           -7800.00
02814           -7400.00
02815           -7000.00
02816           -6600.00
02817           -6000.00
02818           -5400.00
02819           -5000.00
02820           -4600.00
02821           -4200.00
02822           -3600.00
02823           -3000.00
02824           -2800.00
02825           -2200.00
02826           -1800.00
02827           -1200.00
02828            -600.00
02829            -400.00
02830             200.00
02831             600.00
02832            1200.00
02833            1600.00
02834            2000.00
02835            2400.00
02836            3000.00
02837            3400.00
02838            3800.00
02839            4400.00
02840            5000.00
02841            5400.00
02842            6000.00
02843            6600.00
02844            6800.00
02845            7000.00
02846            7600.00
02847            8200.00
02848            8600.00
02849            9000.00
02850            9400.00
02851           10000.00
02852           10600.00
02853           10800.00
02854           11400.00
02855           11800.00
02856           12200.00
02857           12600.00
02858           13000.00
02859           13200.00
02860           13800.00
02861           14200.00
02862           14600.00
02863           15000.00
02864           15400.00
02865           15800.00
02866           16200.00
02867           16400.00
02868           17000.00
02869           17200.00
02870           17800.00
02871           18000.00
02872           18400.00
02873           18800.00
02874           19000.00
02875           19600.00
02876           19800.00
02877           20200.00
02878           20400.00
02879           20600.00
02880           21000.00
02881           21200.00
02882           21400.00
02883           21800.00
02884           22200.00
02885           22400.00
02886           22600.00
02887           22800.00
02888           23000.00
02889           23400.00
02890           23400.00
02891           23600.00
02892           23800.00
02893           23800.00
02894           24200.00
02895           24400.00
02896           24400.00
02897           24600.00
02898           24600.00
02899           25000.00
02900           25000.00
02901           25000.00
02902           25000.00
02903           25000.00
02904           25000.00
02905           25000.00
02906           25000.00
02907           25000.00
02908           25000.00
02909           25000.00
02910           25000.00
02911           25000.00
02912           25000.00
02913           25000.00
02914           25000.00
02915           25000.00
02916           25000.00
02917           25000.00
02918           25000.00
02919           25000.00
02920           25000.00
02921           25000.00
02922           25000.00
02923           25000.00
02924           25000.00
02925           25000.00
02926           24800.00
02927           24600.00
02928           24600.00
02929           24400.00
02930           24200.00
02931           24200.00
02932           24000.00
02933           23600.00
02934           23600.00
02935           23400.00
02936           23200.00
02937           23000.00
02938           22800.00
02939           22600.00
02940           22200.00
02941           22200.00
02942           21800.00
02943           21800.00
02944           21200.00
02945           21000.00
02946           20800.00
02947           20400.00
02948           20200.00
02949           19800.00
02950           19600.00
02951           19000.00
02952           18800.00
02953           18600.00
02954           18200.00
02955           18000.00
02956           17400.00
02957           17000.00
02958           16800.00
02959           16400.00
02960           16200.00
02961           15600.00
02962           15400.00
02963           14800.00
02964           14600.00
02965           14000.00
02966           13400.00
02967           13200.00
02968           12600.00
02969           12400.00
02970           12000.00
02971           11600.00
02972           11000.00
02973           10600.00
02974           10200.00
02975            9800.00
02976            9200.00
02977            8800.00
02978            8400.00
02979            7800.00
02980            7400.00
02981            6800.00
02982            6600.00
02983            6000.00
02984            5600.00
02985            5200.00
02986            4400.00
02987            4200.00
02988            3600.00
02989            3000.00
02990            2600.00
02991            2200.00
02992            1800.00
02993            1200.00
02994             800.00
02995             400.00
02996            -400.00
02997            -600.00
02998           -1200.00
02999           -1800.00
03000           -2000.00
03001           -2600.00
03002           -2800.00
03003           -3400.00
03004           -3800.00
03005           -4600.00
03006           -5200.00
03007           -6000.00
03008           -6000.00
03009           -6200.00
03010           -6600.00
03011           -7400.00
03012           -7600.00
03013           -8200.00
03014           -8600.00
03015           -9000.00
03016           -9400.00
03017          -10000.00
03018          -10400.00
03019          -10800.00
03020          -11000.00
03021          -11800.00
03022          -12200.00
03023          -12600.00
03024          -13200.00
03025          -13400.00
03026          -13800.00
03027          -14400.00
03028          -14800.00
03029          -15000.00
03030          -15400.00
03031          -15800.00
03032          -16400.00
03033          -16600.00
03034          -17200.00
03035          -17200.00
03036          -17800.00
03037          -18000.00
03038          -18600.00
03039          -18800.00
03040          -19000.00
03041          -19600.00
03042          -19800.00
03043          -20200.00
03044          -20400.00
03045          -20600.00
03046          -21000.00
03047          -21400.00
03048          -21400.00
03049          -22000.00
03050          -22000.00
03051          -22200.00
03052          -22600.00
03053          -22600.00
03054          -23000.00
03055          -23400.00
03056          -23400.00
03057          -23600.00
03058          -23800.00
03059          -24000.00
03060          -24200.00
03061          -24400.00
03062          -24600.00
03063          -24600.00
03064          -24600.00
03065          -25000.00
03066          -25000.00
03067          -25000.00
03068          -25000.00
03069          -25000.00
03070          -25000.00
03071          -25000.00
03072          -25000.00
03073          -25000.00
03074          -25000.00
03075          -25000.00
03076          -25000.00
03077          -25000.00
03078          -25000.00
03079          -25000.00
03080          -25000.00
03081          -25000.00
03082          -25000.00
03083          -25000.00
03084          -25000.00
03085          -25000.00
03086          -25000.00
03087          -25000.00
03088          -25000.00
03089          -25000.00
03090          -25000.00
03091          -24800.00
03092          -24800.00
03093          -24600.00
03094          -24400.00
03095          -24400.00
03096          -24200.00
03097          -24200.00
03098          -23800.00
03099          -23800.00
03100          -23600.00
03101          -23200.00
03102          -23400.00
03103          -23000.00
03104          -22800.00
03105          -22600.00
03106          -22200.00
03107          -22000.00
03108          -21800.00
03109          -21800.00
03110          -21200.00
03111          -21000.00
03112          -20600.00
03113          -20400.00
03114          -20000.00
03115          -19800.00
03116          -19600.00
03117          -19000.00
03118          -18800.00
03119          -18600.00
03120          -18200.00
03121          -17800.00
03122          -17400.00
03123          -17200.00
03124          -17000.00
03125          -16200.00
03126          -16000.00
03127          -15600.00
03128          -15200.00
03129          -14800.00
03130          -14600.00
03131          -14000.00
03132          -13600.00
03133          -13400.00
03134          -12600.00
03135          -12400.00
03136          -11800.00
03137          -11600.00
03138          -11000.00
03139          -10600.00
03140          -10200.00
03141           -9600.00
03142           -9200.00
03143           -8800.00
03144           -8400.00
03145           -7800.00
03146           -7400.00
03147           -7000.00
03148           -6400.00
03149           -6000.00
03150           -5400.00
03151           -5000.00
03152           -4600.00
03153           -4200.00
03154           -3400.00
03155           -3000.00
03156           -2600.00
03157           -2200.00
03158           -1800.00
03159           -1200.00
03160            -600.00
03161            -200.00
03162             400.00
03163            1000.00
03164            1200.00
03165            1800.00
03166            2000.00
03167            2600.00
03168            3000.00
03169            3400.00
03170            3800.00
03171            4600.00
03172            5200.00
03173            5800.00
03174            6000.00
03175            6200.00
03176            6800.00
03177            7200.00
03178            7600.00
03179            8200.00
03180            8600.00
03181            9000.00
03182            9400.00
03183           10000.00
03184           10600.00
03185           10800.00
03186           11400.00
03187           11600.00
03188           12200.00
03189           12600.00
03190           13000.00
03191           13200.00
03192           13800.00
03193           14200.00
03194           14600.00
03195           15000.00
03196           15400.00
03197           15600.00
03198           16400.00
03199           16600.00
03200           17000.00
03201           17400.00
03202           17800.00
03203           18000.00
03204           18600.00
03205           18600.00
03206           19000.00
03207           19400.00
03208           19800.00
03209           20000.00
03210           20400.00
03211           20800.00
03212           21000.00
03213           21200.00
03214           21600.00
03215           22000.00
03216           22200.00
03217           22400.00
03218           22600.00
03219           22800.00
03220           23000.00
03221           23400.00
03222           23400.00
03223           23600.00
03224           23800.00
03225           24000.00
03226           24200.00
03227           24400.00
03228           24400.00
03229           24600.00
03230           24600.00
03231           25000.00
03232           25000.00
03233           25000.00
03234           25000.00
03235           25000.00
03236           25000.00
03237           25000.00
03238           25000.00
03239           25000.00
03240           25000.00
03241           25000.00
03242           25000.00
03243           25000.00
03244           25000.00
03245           25000.00
03246           25000.00
03247           25000.00
03248           25000.00
03249           25000.00
03250           25000.00
03251           25000.00
03252           25000.00
03253           25000.00
03254           25000.00
03255           25000.00
03256           25000.00
03257           25000.00
03258           24800.00
03259           24600.00
03260           24400.00
03261           24400.00
03262           24200.00
03263           24200.00
03264           23800.00
03265           23600.00
03266           23600.00
03267           23400.00
03268           23400.00
03269           22800.00
03270           22600.00
03271           22600.00
03272           22200.00
03273           22000.00
03274           21800.00
03275           21400.00
03276           21200.00
03277           21000.00
03278           20600.00
03279           20400.00
03280           20200.00
03281           19800.00
03282           19400.00
03283           19200.00
03284           18800.00
03285           18600.00
03286           18000.00
03287           17800.00
03288           17400.00
03289           17000.00
03290           17000.00
03291           16400.00
03292           16200.00
03293           15600.00
03294           15400.00
03295           14800.00
03296           14400.00
03297           14000.00
03298           13600.00
03299           13200.00
03300           12600.00
03301           12400.00
03302           11800.00
03303           11600.00
03304           11000.00
03305           10600.00
03306           10200.00
03307            9800.00
03308            9200.00
03309            8600.00
03310            8400.00
03311            7800.00
03312            7400.00
03313            6800.00
03314            6600.00
03315            5800.00
03316            5400.00
03317            5000.00
03318            4400.00
03319            4000.00
03320            3600.00
03321            3000.00
03322            2600.00
03323            2200.00
03324            1600.00
03325            1200.00
03326             600.00
03327             200.00
03328            -400.00
03329            -600.00
03330           -1200.00
03331           -1800.00
03332           -2200.00
03333           -2600.00
03334           -3000.00
03335           -3400.00
03336           -4000.00
03337           -4600.00
03338           -5400.00
03339           -5800.00
03340           -6000.00
03341           -6200.00
03342           -6800.00
03343           -7400.00
03344           -7600.00
03345           -8200.00
03346           -8600.00
03347           -9200.00
03348           -9400.00
03349          -10000.00
03350          -10600.00
03351          -11000.00
03352          -11400.00
03353          -11800.00
03354          -12400.00
03355          -12600.00
03356          -13000.00
03357          -13400.00
03358          -14000.00
03359          -14400.00
03360          -14800.00
03361          -15000.00
03362          -15400.00
03363          -15800.00
03364          -16200.00
03365          -16600.00
03366          -17200.00
03367          -17400.00
03368          -17800.00
03369          -18000.00
03370          -18600.00
03371          -18800.00
03372          -19400.00
03373          -19400.00
03374          -19800.00
03375          -20200.00
03376          -20400.00
03377          -20800.00
03378          -21200.00
03379          -21400.00
03380          -21800.00
03381          -22000.00
03382          -22000.00
03383          -22200.00
03384          -22600.00
03385          -23000.00
03386          -23000.00
03387          -23400.00
03388          -23600.00
03389          -23800.00
03390          -23800.00
03391          -24000.00
03392          -24200.00
03393          -24400.00
03394          -24600.00
03395          -24600.00
03396          -24600.00
03397          -25000.00
03398          -25000.00
03399          -25000.00
03400          -25000.00
03401          -25000.00
03402          -25000.00
03403          -25000.00
03404          -25000.00
03405          -25000.00
03406          -25000.00
03407          -25000.00
03408          -25000.00
03409          -25000.00
03410          -25000.00
03411          -25000.00
03412          -25000.00
03413          -25000.00
03414          -25000.00
03415          -25000.00
03416          -25000.00
03417          -25000.00
03418          -25000.00
03419          -25000.00
03420          -25000.00
03421          -25000.00
03422          -24800.00
03423          -25000.00
03424          -24600.00
03425          -24600.00
03426          -24400.00
03427          -24400.00
03428          -24400.00
03429          -24200.00
03430          -23800.00
03431          -23600.00
03432          -23600.00
03433          -23200.00
03434          -23000.00
03435          -23000.00
03436          -22800.00
03437          -22600.00
03438          -22200.00
03439          -22000.00
03440          -21800.00
03441          -21400.00
03442          -21200.00
03443          -21000.00
03444          -20400.00
03445          -20400.00
03446          -20000.00
03447          -19800.00
03448          -19600.00
03449          -19000.00
03450          -18800.00
03451          -18200.00
03452          -18000.00
03453          -17800.00
03454          -17400.00
03455          -17000.00
03456          -16600.00
03457          -16400.00
03458          -15800.00
03459          -15600.00
03460          -15000.00
03461          -14800.00
03462          -14600.00
03463          -14000.00
03464          -13400.00
03465          -13000.00
03466          -12600.00
03467          -12200.00
03468          -11800.00
03469          -11400.00
03470          -10800.00
03471          -10200.00
03472          -10000.00
03473           -9600.00
03474           -9200.00
03475           -8600.00
03476           -8200.00
03477           -7800.00
03478           -7400.00
03479           -6800.00
03480           -6200.00
03481           -5800.00
03482           -5400.00
03483           -4800.00
03484           -4400.00
03485           -4000.00
03486           -3600.00
03487           -3000.00
03488           -2600.00
03489           -2000.00
03490           -1400.00
03491           -1200.00
03492            -600.00
03493            -200.00
03494             400.00
03495            1000.00
03496            1200.00
03497            1800.00
03498            2000.00
03499            2600.00
03500            3000.00
03501            3400.00
03502            3800.00
03503            4600.00
03504            5200.00
03505            5800.00
03506            6000.00
03507            6600.00
03508            6800.00
03509            7400.00
03510            7800.00
03511            8200.00
03512            8600.00
03513            9000.00
03514            9400.00
03515           10000.00
03516           10600.00
03517           10800.00
03518           11400.00
03519           11800.00
03520           12200.00
03521           12600.00
03522           13000.00
03523           13400.00
03524           14000.00
03525           14400.00
03526           14800.00
03527           15000.00
03528           15400.00
03529           16000.00
03530           16400.00
03531           16600.00
03532           17000.00
03533           17400.00
03534           17800.00
03535           18000.00
03536           18600.00
03537           18800.00
03538           19400.00
03539           19600.00
03540           19800.00
03541           20200.00
03542           20400.00
03543           21000.00
03544           21000.00
03545           21400.00
03546           21400.00
03547           21800.00
03548           22000.00
03549           22600.00
03550           22800.00
03551           22800.00
03552           23000.00
03553           23400.00
03554           23400.00
03555           23600.00
03556           23800.00
03557           24000.00
03558           24400.00
03559           24400.00
03560           24400.00
03561           24600.00
03562           25000.00
03563           25000.00
03564           25000.00
03565           25000.00
03566           25000.00
03567           25000.00
03568           25000.00
03569           25000.00
03570           25000.00
03571           25000.00
03572           25000.00
03573           25000.00
03574           25000.00
03575           25000.00
03576           25000.00
03577           25000.00
03578           25000.00
03579           25000.00
03580           25000.00
03581           25000.00
03582           25000.00
03583           25000.00
03584           25000.00
03585           25000.00
03586           25000.00
03587           25000.00
03588           25000.00
03589           25000.00
03590           25000.00
03591           24600.00
03592           24600.00
03593           24400.00
03594           24200.00
03595           23800.00
03596           23800.00
03597           23600.00
03598           23600.00
03599           23400.00
03600           23000.00
03601           22800.00
03602           22800.00
03603           22600.00
03604           22200.00
03605           22000.00
03606           21800.00
03607           21400.00
03608           21200.00
03609           21000.00
03610           20600.00
03611           20400.00
03612           20200.00
03613           19800.00
03614           19400.00
03615           19000.00
03616           18600.00
03617           18400.00
03618           18000.00
03619           18000.00
03620           17400.00
03621           17000.00
03622           16600.00
03623           16200.00
03624           15800.00
03625           15400.00
03626           15000.00
03627           14800.00
03628           14200.00
03629           14000.00
03630           13200.00
03631           13200.00
03632           12600.00
03633           12200.00
03634           12200.00
03635           11400.00
03636           11000.00
03637           10600.00
03638           10000.00
03639            9400.00
03640            9200.00
03641            8600.00
03642            8200.00
03643            7600.00
03644            7400.00
03645            6800.00
03646            6200.00
03647            5800.00
03648            5400.00
03649            5000.00
03650            4200.00
03651            4000.00
03652            3400.00
03653            3000.00
03654            2600.00
03655            2000.00
03656            1200.00
03657            1200.00
03658             400.00
03659               0.00
03660            -400.00
03661            -800.00
03662           -1400.00
03663           -1800.00
03664           -2200.00
03665           -2800.00
03666           -3000.00
03667           -3400.00
03668           -4000.00
03669           -4800.00
03670           -5400.00
03671           -5800.00
03672           -6000.00
03673           -6200.00
03674           -6800.00
03675           -7400.00
03676           -7600.00
03677           -8400.00
03678           -8600.00
03679           -9200.00
03680           -9600.00
03681          -10200.00
03682          -10600.00
03683          -11000.00
03684          -11400.00
03685          -11800.00
03686          -12400.00
03687          -12600.00
03688          -13000.00
03689          -13400.00
03690          -14000.00
03691          -14200.00
03692          -15000.00
03693          -15200.00
03694          -15600.00
03695          -16000.00
03696          -16400.00
03697          -16800.00
03698          -17200.00
03699          -17400.00
03700          -17800.00
03701          -18200.00
03702          -18600.00
03703          -18800.00
03704          -19400.00
03705          -19600.00
03706          -19800.00
03707          -20400.00
03708          -20400.00
03709          -21000.00
03710          -21200.00
03711          -21400.00
03712          -21800.00
03713          -22000.00
03714          -22200.00
03715          -22600.00
03716          -22800.00
03717          -22800.00
03718          -23000.00
03719          -23400.00
03720          -23600.00
03721          -23800.00
03722          -23800.00
03723          -24200.00
03724          -24200.00
03725          -24400.00
03726          -24600.00
03727          -24600.00
03728          -25000.00
03729          -25000.00
03730          -25000.00
03731          -25000.00
03732          -25000.00
03733          -25000.00
03734          -25000.00
03735          -25000.00
03736          -25000.00
03737          -25000.00
03738          -25000.00
03739          -25000.00
03740          -25000.00
03741          -25000.00
03742          -25000.00
03743          -25000.00
03744          -25000.00
03745          -25000.00
03746          -25000.00
03747          -25000.00
03748          -25000.00
03749          -25000.00
03750          -25000.00
03751          -25000.00
03752          -25000.00
03753          -25000.00
03754          -25000.00
03755          -25000.00
03756          -24600.00
03757          -24400.00
03758          -24600.00
03759          -24400.00
03760          -24200.00
03761          -23800.00
03762          -23800.00
03763          -23600.00
03764          -23600.00
03765          -23400.00
03766          -23000.00
03767          -22800.00
03768          -22600.00
03769          -22600.00
03770          -22200.00
03771          -22000.00
03772          -21800.00
03773          -21400.00
03774          -21400.00
03775          -21000.00
03776          -20600.00
03777          -20400.00
03778          -19800.00
03779          -19800.00
03780          -19400.00
03781          -19000.00
03782          -18800.00
03783          -18400.00
03784          -18000.00
03785          -17400.00
03786          -17400.00
03787          -17000.00
03788          -16600.00
03789          -16200.00
03790          -15800.00
03791          -15600.00
03792          -15000.00
03793          -14800.00
03794          -14200.00
03795          -13800.00
03796          -13400.00
03797          -13000.00
03798          -12600.00
03799          -12200.00
03800          -11600.00
03801          -11000.00
03802          -10800.00
03803          -10200.00
03804          -10000.00
03805           -9400.00
03806           -9000.00
03807           -8600.00
03808           -8200.00
03809           -7600.00
03810           -7000.00
03811           -6800.00
03812           -6000.00
03813           -5800.00
03814           -5200.00
03815           -5000.00
03816           -4400.00
03817           -3800.00
03818           -3400.00
03819           -2800.00
03820           -2400.00
03821           -2000.00
03822           -1400.00
03823           -1000.00
03824            -400.00
03825               0.00
03826             400.00
03827            1000.00
03828            1400.00
03829            1800.00
03830            2200.00
03831            2600.00
03832            3000.00
03833            3600.00
03834            4000.00
03835            4600.00
03836            5200.00
03837            5600.00
03838            6000.00
03839            6600.00
03840            6800.00
03841            7400.00
03842            7800.00
03843            8400.00
03844            8600.00
03845            9200.00
03846            9800.00
03847           10000.00
03848           10600.00
03849           11000.00
03850           11400.00
03851           12000.00
03852           12400.00
03853           12600.00
03854           13200.00
03855           13600.00
03856           14000.00
03857           14600.00
03858           14800.00
03859           15400.00
03860           15600.00
03861           16200.00
03862           16400.00
03863           16600.00
03864           17200.00
03865           17400.00
03866           18000.00
03867           18200.00
03868           18600.00
03869           19000.00
03870           19400.00
03871           19600.00
03872           19800.00
03873           20200.00
03874           20600.00
03875           21000.00
03876           21200.00
03877           21400.00
03878           21800.00
03879           22000.00
03880           22200.00
03881           22600.00
03882           22800.00
03883           23000.00
03884           23000.00
03885           23400.00
03886           23400.00
03887           23600.00
03888           23800.00
03889           24200.00
03890           24200.00
03891           24400.00
03892           24400.00
03893           25000.00
03894           24600.00
03895           25000.00
03896           25000.00
03897           25000.00
03898           25000.00
03899           25000.00
03900           25000.00
03901           25000.00
03902           25000.00
03903           25000.00
03904           25000.00
03905           25000.00
03906           25000.00
03907           25000.00
03908           25000.00
03909           25000.00
03910           25000.00
03911           25000.00
03912           25000.00
03913           25000.00
03914           25000.00
03915           25000.00
03916           25000.00
03917           25000.00
03918           25000.00
03919           25000.00
03920           25000.00
03921           24800.00
03922           25000.00
03923           24600.00
03924           24400.00
03925           24400.00
03926           24200.00
03927           24200.00
03928           23800.00
03929           23800.00
03930           23600.00
03931           23400.00
03932           23200.00
03933           22800.00
03934           22800.00
03935           22600.00
03936           22200.00
03937           22000.00
03938           21800.00
03939           21200.00
03940           21200.00
03941           21000.00
03942           20600.00
03943           20400.00
03944           20000.00
03945           19600.00
03946           19400.00
03947           19000.00
03948           18800.00
03949           18600.00
03950           18000.00
03951           17800.00
03952           17400.00
03953           17000.00
03954           16800.00
03955           16200.00
03956           15800.00
03957           15400.00
03958           15000.00
03959           14800.00
03960           14200.00
03961           14000.00
03962           13400.00
03963           13000.00
03964           12600.00
03965           12200.00
03966           11600.00
03967           11400.00
03968           10800.00
03969           10200.00
03970           10000.00
03971            9400.00
03972            9000.00
03973            8400.00
03974            8200.00
03975            7600.00
03976            7000.00
03977            6800.00
03978            6200.00
03979            5800.00
03980            5200.00
03981            4800.00
03982            4200.00
03983            3800.00
03984            3400.00
03985            2800.00
03986            2600.00
03987            2000.00
03988            1400.00
03989            1000.00
03990             400.00
03991             200.00
03992            -600.00
03993           -1000.00
03994           -1400.00
03995           -1800.00
03996           -2200.00
03997           -2600.00
03998           -3000.00
03999           -3400.00
04000           -4200.00
04001           -5000.00
04002           -5400.00
04003           -5800.00
04004           -6000.00
04005           -6200.00
04006           -7000.00
04007           -7400.00
04008           -7800.00
04009           -8400.00
04010           -8600.00
04011           -9200.00
04012           -9800.00
04013          -10200.00
04014          -10600.00
04015          -11000.00
04016          -11400.00
04017          -12000.00
04018          -12400.00
04019          -12600.00
04020          -13200.00
04021          -13800.00
04022          -14000.00
04023          -14600.00
04024          -15000.00
04025          -15400.00
04026          -15600.00
04027          -16200.00
04028          -16400.00
04029          -17000.00
04030          -17200.00
04031          -17400.00
04032          -18000.00
04033          -18200.00
04034          -18800.00
04035          -19000.00
04036          -19400.00
04037          -19800.00
04038          -20000.00
04039          -20400.00
04040          -20600.00
04041          -21000.00
04042          -21400.00
04043          -21400.00
04044          -21800.00
04045          -22000.00
04046          -22200.00
04047          -22200.00
04048          -22800.00
04049          -23000.00
04050          -23200.00
04051          -23400.00
04052          -23600.00
04053          -23800.00
04054          -23800.00
04055          -24200.00
04056          -24200.00
04057          -24400.00
04058          -24600.00
04059          -24600.00
04060          -24600.00
04061          -25000.00
04062          -25000.00
04063          -25000.00
04064          -25000.00
04065          -25000.00
04066          -25000.00
04067          -25000.00
04068          -25000.00
04069          -25000.00
04070          -25000.00
04071          -25000.00
04072          -25000.00
04073          -25000.00
04074          -25000.00
04075          -25000.00
04076          -25000.00
04077          -25000.00
04078          -25000.00
04079          -25000.00
04080          -25000.00
04081          -25000.00
04082          -25000.00
04083          -25000.00
04084          -25000.00
04085          -25000.00
04086          -25000.00
04087          -25000.00
04088          -25000.00
04089          -24600.00
04090          -24400.00
04091          -24400.00
04092          -24200.00
04093          -23800.00
04094          -23800.00
04095          -23600.00
04096          -23600.00
04097          -23400.00
04098          -23000.00
04099          -23000.00
04100          -22800.00
04101          -22600.00
04102          -22200.00
04103          -22000.00
04104          -21800.00
04105          -21400.00
04106          -21200.00
04107          -21000.00
04108          -20600.00
04109          -20400.00
04110          -20000.00
04111          -19600.00
04112          -19400.00
04113          -19000.00
04114          -18600.00
04115          -18400.00
04116          -18000.00
04117          -17600.00
04118          -17200.00
04119          -17000.00
04120          -16600.00
04121          -16200.00
04122          -15800.00
04123          -15400.00
04124          -15000.00
04125          -14600.00
04126          -14200.00
04127          -13800.00
04128          -13400.00
04129          -13000.00
04130          -12400.00
04131          -12200.00
04132          -11600.00
04133          -11200.00
04134          -10800.00
04135          -10200.00
04136           -9800.00
04137           -9400.00
04138           -9000.00
04139           -8600.00
04140           -8000.00
04141           -7600.00
04142           -7000.00
04143           -6800.00
04144           -6200.00
04145           -5800.00
04146           -5200.00
04147           -4600.00
04148           -4400.00
04149           -3800.00
04150           -3400.00
04151           -2800.00
04152           -2200.00
04153           -2000.00
04154           -1400.00
04155            -800.00
04156            -400.00
04157             200.00
04158             600.00
04159            1000.00
04160            1400.00
04161            1800.00
04162            2200.00
04163            2600.00
04164            3000.00
04165            3600.00
04166            4200.00
04167            4600.00
04168            5200.00
04169            5800.00
04170            6200.00
04171            6600.00
04172            6800.00
04173            7400.00
04174            7800.00
04175            8400.00
04176            8800.00
04177            9400.00
04178            9800.00
04179           10000.00
04180           10600.00
04181           10800.00
04182           11600.00
04183           11800.00
04184           12400.00
04185           13000.00
04186           13200.00
04187           13800.00
04188           14000.00
04189           14600.00
04190           14800.00
04191           15400.00
04192           15600.00
04193           16200.00
04194           16400.00
04195           16600.00
04196           17200.00
04197           17600.00
04198           18000.00
04199           18400.00
04200           18600.00
04201           19000.00
04202           19400.00
04203           19800.00
04204           19800.00
04205           20400.00
04206           20600.00
04207           21000.00
04208           21200.00
04209           21400.00
04210           21800.00
04211           22000.00
04212           22200.00
04213           22600.00
04214           22800.00
04215           22800.00
04216           23000.00
04217           23400.00
04218           23600.00
04219           23600.00
04220           23800.00
04221           24200.00
04222           24200.00
04223           24400.00
04224           24600.00
04225           24600.00
04226           24600.00
04227           25000.00
04228           25000.00
04229           25000.00
04230           25000.00
04231           25000.00
04232           25000.00
04233           25000.00
04234           25000.00
04235           25000.00
04236           25000.00
04237           25000.00
04238           25000.00
04239           25000.00
04240           25000.00
04241           25000.00
04242           25000.00
04243           25000.00
04244           25000.00
04245           25000.00
04246           25000.00
04247           25000.00
04248           25000.00
04249           25000.00
04250           25000.00
04251           25000.00
04252           25000.00
04253           25000.00
04254           24600.00
04255           24600.00
04256           24400.00
04257           24400.00
04258           24200.00
04259           23800.00
04260           23800.00
04261           23600.00
04262           23400.00
04263           23400.00
04264           23000.00
04265           22800.00
04266           22800.00
04267           22600.00
04268           22200.00
04269           22000.00
04270           21600.00
04271           21200.00
04272           21200.00
04273           20800.00
04274           20600.00
04275           20200.00
04276           20000.00
04277           19800.00
04278           19400.00
04279           19000.00
04280           18800.00
04281           18400.00
04282           18000.00
04283           17600.00
04284           17200.00
04285           17000.00
04286           16400.00
04287           16200.00
04288           15800.00
04289           15400.00
04290           15000.00
04291           14600.00
04292           14000.00
04293           13800.00
04294           13200.00
04295           13000.00
04296           12400.00
04297           12200.00
04298           11600.00
04299           11000.00
04300           10800.00
04301           10200.00
04302            9800.00
04303            9400.00
04304            9000.00
04305            8400.00
04306            8000.00
04307            7600.00
04308            7000.00
04309            6600.00
04310            6000.00
04311            5800.00
04312            5200.00
04313            4600.00
04314            4200.00
04315            3800.00
04316            3400.00
04317            2800.00
04318            2200.00
04319            2000.00
04320            1400.00
04321            1000.00
04322             400.00
04323            -200.00
04324            -600.00
04325           -1000.00
04326           -1400.00
04327           -2000.00
04328           -2200.00
04329           -2800.00
04330           -3400.00
04331           -3600.00
04332           -4200.00
04333           -5000.00
04334           -5400.00
04335           -6000.00
04336           -6000.00
04337           -6400.00
04338           -7000.00
04339           -7600.00
04340           -8000.00
04341           -8600.00
04342           -8600.00
04343           -9200.00
04344           -9800.00
04345          -10200.00
04346          -10800.00
04347          -11000.00
04348          -11600.00
04349          -12000.00
04350          -12400.00
04351          -12800.00
04352          -13200.00
04353          -13800.00
04354          -14200.00
04355          -14600.00
04356          -15000.00
04357          -15400.00
04358          -15800.00
04359          -16200.00
04360          -16600.00
04361          -17200.00
04362          -17200.00
04363          -17800.00
04364          -18000.00
04365          -18400.00
04366          -18600.00
04367          -19000.00
04368          -19400.00
04369          -19800.00
04370          -20200.00
04371          -20400.00
04372          -20400.00
04373          -21000.00
04374          -21200.00
04375          -21400.00
04376          -21800.00
04377          -22200.00
04378          -22200.00
04379          -22600.00
04380          -22800.00
04381          -23000.00
04382          -23200.00
04383          -23600.00
04384          -23600.00
04385          -23600.00
04386          -23800.00
04387          -24200.00
04388          -24400.00
04389          -24400.00
04390          -24600.00
04391          -24600.00
04392          -24800.00
04393          -25000.00
04394          -25000.00
04395          -25000.00
04396          -25000.00
04397          -25000.00
04398          -25000.00
04399          -25000.00
04400          -25000.00
04401          -25000.00
04402          -25000.00
04403          -25000.00
04404          -25000.00
04405          -25000.00
04406          -25000.00
04407          -25000.00
04408          -25000.00
04409          -25000.00
04410          -25000.00
04411          -25000.00
04412          -25000.00
04413          -25000.00
04414          -25000.00
04415          -25000.00
04416          -25000.00
04417          -25000.00
04418          -25000.00
04419          -24800.00
04420          -24600.00
04421          -24600.00
04422          -24600.00
04423          -24400.00
04424          -24200.00
04425          -24200.00
04426          -23800.00
04427          -23800.00
04428          -23600.00
04429          -23400.00
04430          -23000.00
04431          -22800.00
04432          -22600.00
04433          -22600.00
04434          -22200.00
04435          -22000.00
04436          -21600.00
04437          -21400.00
04438          -21200.00
04439          -21000.00
04440          -20400.00
04441          -20200.00
04442          -19800.00
04443          -19600.00
04444          -19400.00
04445          -19000.00
04446          -18800.00
04447          -18200.00
04448          -18000.00
04449          -17400.00
04450          -17200.00
04451          -16800.00
04452          -16600.00
04453          -16200.00
04454          -15800.00
04455          -15400.00
04456          -15000.00
04457          -14600.00
04458          -14000.00
04459          -13800.00
04460          -13400.00
04461          -13000.00
04462          -12400.00
04463          -11800.00
04464          -11600.00
04465          -11000.00
04466          -10600.00
04467          -10200.00
04468           -9800.00
04469           -9200.00
04470           -8800.00
04471           -8400.00
04472           -7800.00
04473           -7600.00
04474           -7000.00
04475           -6600.00
04476           -6200.00
04477           -5600.00
04478           -5000.00
04479           -4600.00
04480           -4200.00
04481           -3800.00
04482           -3400.00
04483           -2800.00
04484           -2200.00
04485           -1800.00
04486           -1400.00
04487            -600.00
04488            -400.00
04489             200.00
04490             600.00
04491            1000.00
04492            1400.00
04493            2000.00
04494            2200.00
04495            2800.00
04496            3200.00
04497            3600.00
04498            4200.00
04499            4800.00
04500            5400.00
04501            5800.00
04502            6000.00
04503            6600.00
04504            7000.00
04505            7400.00
04506            7800.00
04507            8400.00
04508            9000.00
04509            9400.00
04510            9800.00
04511           10200.00
04512           10600.00
04513           11200.00
04514           11600.00
04515           12000.00
04516           12600.00
04517           13000.00
04518           13200.00
04519           13800.00
04520           14000.00
04521           14800.00
04522           15000.00
04523           15400.00
04524           15800.00
04525           16200.00
04526           16400.00
04527           17000.00
04528           17200.00
04529           17800.00
04530           18000.00
04531           18600.00
04532           18600.00
04533           19000.00
04534           19400.00
04535           19800.00
04536           20200.00
04537           20400.00
04538           20600.00
04539           21000.00
04540           21400.00
04541           21400.00
04542           21800.00
04543           22000.00
04544           22200.00
04545           22600.00
04546           22800.00
04547           23000.00
04548           23000.00
04549           23400.00
04550           23400.00
04551           23600.00
04552           23800.00
04553           24200.00
04554           24200.00
04555           24400.00
04556           24400.00
04557           24600.00
04558           24800.00
04559           25000.00
04560           25000.00
04561           25000.00
04562           25000.00
04563           25000.00
04564           25000.00
04565           25000.00
04566           25000.00
04567           25000.00
04568           25000.00
04569           25000.00
04570           25000.00
04571           25000.00
04572           25000.00
04573           25000.00
04574           25000.00
04575           25000.00
04576           25000.00
04577           25000.00
04578           25000.00
04579           25000.00
04580           25000.00
04581           25000.00
04582           25000.00
04583           25000.00
04584           25000.00
04585           24800.00
04586           24800.00
04587           24400.00
04588           24400.00
04589           24200.00
04590           24200.00
04591           24000.00
04592           23800.00
04593           23600.00
04594           23400.00
04595           23400.00
04596           23000.00
04597           22800.00
04598           22600.00
04599           22400.00
04600           22200.00
04601           21800.00
04602           21800.00
04603           21200.00
04604           21200.00
04605           21000.00
04606           20400.00
04607           20200.00
04608           19800.00
04609           19600.00
04610           19200.00
04611           18800.00
04612           18600.00
04613           18200.00
04614           17800.00
04615           17600.00
04616           17200.00
04617           16800.00
04618           16400.00
04619           16200.00
04620           15600.00
04621           15400.00
04622           14800.00
04623           14600.00
04624           14000.00
04625           13800.00
04626           13200.00
04627           12600.00
04628           12400.00
04629           11800.00
04630           11600.00
04631           11000.00
04632           10600.00
04633           10000.00
04634            9800.00
04635            9200.00
04636            8800.00
04637            8400.00
04638            7800.00
04639            7600.00
04640            6800.00
04641            6600.00
04642            5800.00
04643            5400.00
04644            5000.00
04645            4400.00
04646            4200.00
04647            3600.00
04648            3000.00
04649            2600.00
04650            2200.00
04651            1800.00
04652            1400.00
04653             800.00
04654             400.00
04655            -200.00
04656            -600.00
04657           -1200.00
04658           -1400.00
04659           -2000.00
04660           -2200.00
04661           -2800.00
04662           -3000.00
04663           -3800.00
04664           -4400.00
04665           -5200.00
04666           -5800.00
04667           -6000.00
04668           -6200.00
04669           -6200.00
04670           -7000.00
04671           -7600.00
04672           -8200.00
04673           -8600.00
04674           -9000.00
04675           -9400.00
04676          -10000.00
04677          -10200.00
04678          -10800.00
04679          -11000.00
04680          -11600.00
04681          -12200.00
04682          -12400.00
04683          -13000.00
04684          -13400.00
04685          -13800.00
04686          -14200.00
04687          -14600.00
04688          -15000.00
04689          -15400.00
04690          -15800.00
04691          -16400.00
04692          -16600.00
04693          -17200.00
04694          -17400.00
04695          -17800.00
04696          -18000.00
04697          -18600.00
04698          -18800.00
04699          -19000.00
04700          -19400.00
04701          -19800.00
04702          -19800.00
04703          -20400.00
04704          -20600.00
04705          -21200.00
04706          -21400.00
04707          -21600.00
04708          -22000.00
04709          -22200.00
04710          -22200.00
04711          -22600.00
04712          -22800.00
04713          -23000.00
04714          -23000.00
04715          -23600.00
04716          -23600.00
04717          -23800.00
04718          -24000.00
04719          -24200.00
04720          -24400.00
04721          -24400.00
04722          -24600.00
04723          -24600.00
04724          -25000.00
04725          -25000.00
04726          -25000.00
04727          -25000.00
04728          -25000.00
04729          -25000.00
04730          -25000.00
04731          -25000.00
04732          -25000.00
04733          -25000.00
04734          -25000.00
04735          -25000.00
04736          -25000.00
04737          -25000.00
04738          -25000.00
04739          -25000.00
04740          -25000.00
04741          -25000.00
04742          -25000.00
04743          -25000.00
04744          -25000.00
04745          -25000.00
04746          -25000.00
04747          -25000.00
04748          -25000.00
04749          -25000.00
04750          -25000.00
04751          -25000.00
04752          -24600.00
04753          -24600.00
04754          -24600.00
04755          -24400.00
04756          -24200.00
04757          -24200.00
04758          -23800.00
04759          -23600.00
04760          -23400.00
04761          -23000.00
04762          -23200.00
04763          -23000.00
04764          -22600.00
04765          -22200.00
04766          -22200.00
04767          -22000.00
04768          -21600.00
04769          -21400.00
04770          -21000.00
04771          -21000.00
04772          -20400.00
04773          -20400.00
04774          -19800.00
04775          -19600.00
04776          -19200.00
04777          -18800.00
04778          -18600.00
04779          -18200.00
04780          -17800.00
04781          -17400.00
04782          -17200.00
04783          -16600.00
04784          -16400.00
04785          -16200.00
04786          -15600.00
04787          -15200.00
04788          -14800.00
04789          -14400.00
04790          -14000.00
04791          -13600.00
04792          -13200.00
04793          -12600.00
04794          -12400.00
04795          -11800.00
04796          -11400.00
04797          -11000.00
04798          -10600.00
04799          -10200.00
04800           -9800.00
04801           -9200.00
04802           -8600.00
04803           -8400.00
04804           -8000.00
04805           -7400.00
04806           -7000.00
04807           -6600.00
04808           -6000.00
04809           -5400.00
04810           -5200.00
04811           -4600.00
04812           -4200.00
04813           -3800.00
04814           -3400.00
04815           -2600.00
04816           -2200.00
04817           -2000.00
04818           -1200.00
04819           -1000.00
04820            -400.00
04821             200.00
04822             400.00
04823            1000.00
04824            1400.00
04825            2000.00
04826            2200.00
04827            2800.00
04828            3200.00
04829            3800.00
04830            4200.00
04831            5000.00
04832            5400.00
04833            5800.00
04834            6200.00
04835            6600.00
04836            7000.00
04837            7600.00
04838            7800.00
04839            8400.00
04840            9000.00
04841            9400.00
04842           10000.00
04843           10200.00
04844           10800.00
04845           11400.00
04846           11600.00
04847           12200.00
04848           12400.00
04849           13000.00
04850           13400.00
04851           14000.00
04852           14200.00
04853           14800.00
04854           15000.00
04855           15400.00
04856           15800.00
04857           16200.00
04858           16600.00
04859           17000.00
04860           17200.00
04861           17800.00
04862           18000.00
04863           18600.00
04864           18600.00
04865           19000.00
04866           19400.00
04867           19800.00
04868           20200.00
04869           20400.00
04870           21000.00
04871           21000.00
04872           21200.00
04873           21400.00
04874           21800.00
04875           22000.00
04876           22600.00
04877           22600.00
04878           22800.00
04879           22800.00
04880           23200.00
04881           23400.00
04882           23600.00
04883           23600.00
04884           23800.00
04885           24200.00
04886           24400.00
04887           24400.00
04888           24400.00
04889           24800.00
04890           24800.00
04891           25000.00
04892           25000.00
04893           25000.00
04894           25000.00
04895           25000.00
04896           25000.00
04897           25000.00
04898           25000.00
04899           25000.00
04900           25000.00
04901           25000.00
04902           25000.00
04903           25000.00
04904           25000.00
04905           25000.00
04906           25000.00
04907           25000.00
04908           25000.00
04909           25000.00
04910           25000.00
04911           25000.00
04912           25000.00
04913           25000.00
04914           25000.00
04915           25000.00
04916           25000.00
04917           24800.00
04918           24600.00
04919           24400.00
04920           24400.00
04921           24400.00
04922           24200.00
04923           23800.00
04924           23800.00
04925           23600.00
04926           23400.00
04927           23400.00
04928           23000.00
04929           22800.00
04930           22600.00
04931           22200.00
04932           22200.00
04933           21800.00
04934           21800.00
04935           21200.00
04936           21000.00
04937           20800.00
04938           20400.00
04939           20200.00
04940           19800.00
04941           19400.00
04942           19000.00
04943           18800.00
04944           18600.00
04945           18000.00
04946           18000.00
04947           17400.00
04948           17200.00
04949           16600.00
04950           16400.00
04951           16000.00
04952           15600.00
04953           15400.00
04954           14800.00
04955           14400.00
04956           14000.00
04957           13400.00
04958           13200.00
04959           12800.00
04960           12400.00
04961           12000.00
04962           11400.00
04963           11000.00
04964           10600.00
04965           10000.00
04966            9800.00
04967            9200.00
04968            8600.00
04969            8400.00
04970            7800.00
04971            7400.00
04972            6800.00
04973            6600.00
04974            5800.00
04975            5800.00
04976            5200.00
04977            4600.00
04978            4200.00
04979            3600.00
04980            3000.00
04981            2600.00
04982            2200.00
04983            1800.00
04984            1200.00
04985             800.00
04986             400.00
04987            -200.00
04988            -600.00
04989           -1000.00
04990           -1600.00
04991           -2000.00
04992           -2600.00
04993           -2800.00
04994           -3400.00
04995           -3800.00
04996           -4400.00
04997           -5200.00
04998           -5800.00
04999           -6000.00
05000           -6000.00
