Unit:(mV)
                     CH1
Frequency    301.191 kHz
00001            1400.00
00002            1200.00
00003            1200.00
00004             600.00
00005             600.00
00006             400.00
00007             200.00
00008             200.00
00009            -200.00
00010            -400.00
00011            -600.00
00012            -600.00
00013           -1000.00
00014           -1000.00
00015           -1200.00
00016           -1200.00
00017           -1400.00
00018           -1800.00
00019           -2200.00
00020           -2200.00
00021           -2200.00
00022           -2200.00
00023           -2800.00
00024           -3000.00
00025           -3000.00
00026           -3400.00
00027           -3800.00
00028           -3600.00
00029           -3800.00
00030           -4200.00
00031           -4200.00
00032           -4400.00
00033           -4600.00
00034           -4600.00
00035           -5000.00
00036           -5200.00
00037           -5200.00
00038           -5400.00
00039           -5800.00
00040           -5800.00
00041           -6000.00
00042           -6200.00
00043           -6200.00
00044           -6400.00
00045           -6600.00
00046           -6800.00
00047           -7000.00
00048           -7000.00
00049           -7400.00
00050           -7400.00
00051           -7600.00
00052           -7600.00
00053           -8000.00
00054           -7800.00
00055           -8200.00
00056           -8200.00
00057           -8400.00
00058           -8600.00
00059           -8600.00
00060           -8800.00
00061           -8600.00
00062           -8600.00
00063           -9000.00
00064           -9200.00
00065           -9200.00
00066           -9200.00
00067           -9200.00
00068           -9400.00
00069           -9400.00
00070           -9400.00
00071           -9800.00
00072           -9800.00
00073           -9800.00
00074          -10000.00
00075          -10000.00
00076          -10000.00
00077          -10000.00
00078          -10000.00
00079          -10200.00
00080          -10200.00
00081          -10200.00
00082          -10200.00
00083          -10200.00
00084          -10200.00
00085          -10200.00
00086          -10200.00
00087          -10200.00
00088          -10200.00
00089          -10200.00
00090          -10200.00
00091          -10200.00
00092          -10200.00
00093          -10200.00
00094          -10200.00
00095          -10600.00
00096          -10200.00
00097          -10200.00
00098          -10200.00
00099          -10200.00
00100          -10200.00
00101          -10200.00
00102          -10200.00
00103          -10200.00
00104          -10200.00
00105          -10000.00
00106          -10000.00
00107          -10000.00
00108          -10000.00
00109           -9800.00
00110           -9600.00
00111           -9400.00
00112           -9400.00
00113           -9400.00
00114           -9400.00
00115           -9200.00
00116           -9200.00
00117           -9200.00
00118           -9200.00
00119           -9000.00
00120           -8800.00
00121           -8600.00
00122           -8600.00
00123           -8600.00
00124           -8600.00
00125           -8400.00
00126           -8400.00
00127           -8200.00
00128           -8200.00
00129           -7800.00
00130           -7600.00
00131           -7600.00
00132           -7400.00
00133           -7400.00
00134           -7000.00
00135           -7000.00
00136           -7000.00
00137           -6800.00
00138           -6600.00
00139           -6600.00
00140           -6200.00
00141           -6000.00
00142           -6000.00
00143           -5800.00
00144           -5600.00
00145           -5400.00
00146           -5200.00
00147           -5000.00
00148           -4800.00
00149           -4600.00
00150           -4400.00
00151           -4400.00
00152           -4200.00
00153           -4000.00
00154           -3800.00
00155           -3600.00
00156           -3600.00
00157           -3400.00
00158           -3000.00
00159           -3000.00
00160           -2800.00
00161           -2600.00
00162           -2200.00
00163           -2200.00
00164           -2000.00
00165           -1600.00
00166           -1400.00
00167           -1200.00
00168           -1200.00
00169           -1000.00
00170            -600.00
00171            -600.00
00172            -400.00
00173            -200.00
00174            -200.00
00175             200.00
00176             400.00
00177             600.00
00178             600.00
00179             800.00
00180            1000.00
00181            1200.00
00182            1400.00
00183            1400.00
00184            1800.00
00185            2000.00
00186            2200.00
00187            2400.00
00188            2600.00
00189            2800.00
00190            2800.00
00191            3000.00
00192            3400.00
00193            3600.00
00194            3600.00
00195            3800.00
00196            4200.00
00197            4200.00
00198            4400.00
00199            4600.00
00200            4800.00
00201            5000.00
00202            5200.00
00203            5200.00
00204            5400.00
00205            5800.00
00206            5800.00
00207            6000.00
00208            6200.00
00209            6600.00
00210            6600.00
00211            6600.00
00212            6800.00
00213            7000.00
00214            7000.00
00215            7400.00
00216            7400.00
00217            7600.00
00218            7800.00
00219            7800.00
00220            7800.00
00221            8200.00
00222            8400.00
00223            8400.00
00224            8400.00
00225            8600.00
00226            8600.00
00227            8600.00
00228            9000.00
00229            9000.00
00230            9000.00
00231            9200.00
00232            9200.00
00233            9400.00
00234            9600.00
00235            9400.00
00236            9800.00
00237            9600.00
00238            9800.00
00239           10000.00
00240           10000.00
00241           10000.00
00242           10000.00
00243           10000.00
00244           10000.00
00245           10000.00
00246           10200.00
00247           10200.00
00248           10400.00
00249           10200.00
00250           10200.00
00251           10400.00
00252           10400.00
00253           10400.00
00254           10400.00
00255           10200.00
00256           10600.00
00257           10200.00
00258           10400.00
00259           10600.00
00260           10600.00
00261           10200.00
00262           10600.00
00263           10200.00
00264           10200.00
00265           10600.00
00266           10200.00
00267           10200.00
00268           10200.00
00269           10200.00
00270           10000.00
00271           10000.00
00272           10000.00
00273           10000.00
00274           10000.00
00275            9800.00
00276            9800.00
00277            9800.00
00278            9400.00
00279            9600.00
00280            9400.00
00281            9200.00
00282            9400.00
00283            9200.00
00284            9200.00
00285            9000.00
00286            9000.00
00287            8600.00
00288            8800.00
00289            8600.00
00290            8600.00
00291            8400.00
00292            8400.00
00293            8200.00
00294            8200.00
00295            7800.00
00296            7800.00
00297            7600.00
00298            7600.00
00299            7400.00
00300            7200.00
00301            7000.00
00302            6800.00
00303            6800.00
00304            6800.00
00305            6600.00
00306            6400.00
00307            6000.00
00308            6000.00
00309            5800.00
00310            5800.00
00311            5400.00
00312            5200.00
00313            5200.00
00314            5000.00
00315            4600.00
00316            4400.00
00317            4200.00
00318            4400.00
00319            4000.00
00320            3800.00
00321            3600.00
00322            3600.00
00323            3400.00
00324            3000.00
00325            3000.00
00326            2800.00
00327            2600.00
00328            2600.00
00329            2000.00
00330            2000.00
00331            1800.00
00332            1800.00
00333            1400.00
00334            1000.00
00335            1200.00
00336             800.00
00337             600.00
00338             400.00
00339             400.00
00340             200.00
00341            -200.00
00342            -200.00
00343            -400.00
00344            -600.00
00345            -600.00
00346           -1000.00
00347           -1200.00
00348           -1200.00
00349           -1400.00
00350           -2000.00
00351           -2200.00
00352           -2400.00
00353           -2200.00
00354           -2200.00
00355           -2800.00
00356           -3000.00
00357           -3000.00
00358           -3200.00
00359           -3600.00
00360           -3400.00
00361           -3800.00
00362           -4200.00
00363           -4200.00
00364           -4400.00
00365           -4600.00
00366           -4800.00
00367           -5000.00
00368           -5200.00
00369           -5200.00
00370           -5400.00
00371           -5800.00
00372           -5800.00
00373           -6000.00
00374           -6200.00
00375           -6200.00
00376           -6600.00
00377           -6800.00
00378           -6800.00
00379           -7000.00
00380           -7000.00
00381           -7400.00
00382           -7400.00
00383           -7600.00
00384           -7600.00
00385           -7800.00
00386           -7800.00
00387           -8200.00
00388           -8200.00
00389           -8400.00
00390           -8600.00
00391           -8600.00
00392           -8600.00
00393           -8600.00
00394           -9000.00
00395           -9000.00
00396           -9200.00
00397           -9200.00
00398           -9400.00
00399           -9400.00
00400           -9400.00
00401           -9400.00
00402           -9400.00
00403           -9400.00
00404           -9800.00
00405           -9400.00
00406           -9800.00
00407          -10000.00
00408          -10000.00
00409          -10000.00
00410          -10200.00
00411          -10000.00
00412          -10200.00
00413          -10200.00
00414          -10200.00
00415          -10200.00
00416          -10200.00
00417          -10200.00
00418          -10200.00
00419          -10200.00
00420          -10200.00
00421          -10200.00
00422          -10400.00
00423          -10200.00
00424          -10400.00
00425          -10400.00
00426          -10400.00
00427          -10200.00
00428          -10200.00
00429          -10200.00
00430          -10200.00
00431          -10200.00
00432          -10200.00
00433          -10200.00
00434          -10000.00
00435          -10200.00
00436          -10000.00
00437          -10200.00
00438          -10000.00
00439          -10000.00
00440          -10000.00
00441           -9800.00
00442           -9800.00
00443           -9400.00
00444           -9400.00
00445           -9400.00
00446           -9400.00
00447           -9400.00
00448           -9200.00
00449           -9200.00
00450           -9000.00
00451           -9200.00
00452           -9000.00
00453           -8800.00
00454           -8600.00
00455           -8600.00
00456           -8600.00
00457           -8400.00
00458           -8200.00
00459           -8400.00
00460           -7800.00
00461           -7800.00
00462           -7600.00
00463           -7600.00
00464           -7600.00
00465           -7400.00
00466           -7000.00
00467           -7000.00
00468           -6800.00
00469           -6800.00
00470           -6600.00
00471           -6200.00
00472           -6200.00
00473           -6000.00
00474           -6000.00
00475           -5800.00
00476           -5400.00
00477           -5400.00
00478           -5200.00
00479           -5000.00
00480           -5000.00
00481           -4600.00
00482           -4400.00
00483           -4400.00
00484           -4200.00
00485           -4200.00
00486           -3800.00
00487           -3800.00
00488           -3400.00
00489           -3200.00
00490           -3000.00
00491           -3000.00
00492           -2800.00
00493           -2600.00
00494           -2200.00
00495           -2000.00
00496           -2000.00
00497           -1800.00
00498           -1400.00
00499           -1400.00
00500           -1200.00
00501           -1000.00
00502            -600.00
00503            -600.00
00504            -400.00
00505            -200.00
00506            -200.00
00507             200.00
00508             400.00
00509             400.00
00510             600.00
00511             800.00
00512            1000.00
00513            1200.00
00514            1400.00
00515            1800.00
00516            1800.00
00517            2200.00
00518            2400.00
00519            2600.00
00520            2600.00
00521            2800.00
00522            3000.00
00523            3000.00
00524            3400.00
00525            3600.00
00526            3600.00
00527            3800.00
00528            4200.00
00529            4200.00
00530            4400.00
00531            4600.00
00532            4800.00
00533            5200.00
00534            5200.00
00535            5400.00
00536            5600.00
00537            5800.00
00538            6000.00
00539            6000.00
00540            6000.00
00541            6400.00
00542            6600.00
00543            6800.00
00544            6800.00
00545            7000.00
00546            7000.00
00547            7400.00
00548            7400.00
00549            7600.00
00550            7800.00
00551            7800.00
00552            8000.00
00553            8000.00
00554            8200.00
00555            8400.00
00556            8600.00
00557            8600.00
00558            8600.00
00559            8800.00
00560            9000.00
00561            9000.00
00562            9000.00
00563            9200.00
00564            9200.00
00565            9400.00
00566            9400.00
00567            9400.00
00568            9400.00
00569            9600.00
00570            9800.00
00571            9800.00
00572           10000.00
00573           10000.00
00574           10000.00
00575           10000.00
00576           10000.00
00577           10200.00
00578           10200.00
00579           10200.00
00580           10200.00
00581           10200.00
00582           10200.00
00583           10400.00
00584           10400.00
00585           10200.00
00586           10600.00
00587           10600.00
00588           10400.00
00589           10600.00
00590           10200.00
00591           10600.00
00592           10400.00
00593           10400.00
00594           10200.00
00595           10600.00
00596           10400.00
00597           10200.00
00598           10200.00
00599           10200.00
00600           10200.00
00601           10200.00
00602           10000.00
00603           10000.00
00604           10000.00
00605           10000.00
00606           10000.00
00607           10000.00
00608            9800.00
00609            9800.00
00610            9800.00
00611            9800.00
00612            9400.00
00613            9400.00
00614            9200.00
00615            9200.00
00616            9200.00
00617            9000.00
00618            9000.00
00619            8800.00
00620            8600.00
00621            8600.00
00622            8400.00
00623            8400.00
00624            8200.00
00625            8200.00
00626            8200.00
00627            7800.00
00628            7800.00
00629            7600.00
00630            7600.00
00631            7400.00
00632            7400.00
00633            7000.00
00634            6800.00
00635            6600.00
00636            6600.00
00637            6600.00
00638            6200.00
00639            6000.00
00640            5800.00
00641            5800.00
00642            5800.00
00643            5600.00
00644            5200.00
00645            5200.00
00646            5000.00
00647            4800.00
00648            4400.00
00649            4400.00
00650            4200.00
00651            4200.00
00652            3600.00
00653            3600.00
00654            3600.00
00655            3400.00
00656            3000.00
00657            3000.00
00658            2600.00
00659            2600.00
00660            2400.00
00661            2200.00
00662            2000.00
00663            1800.00
00664            1800.00
00665            1400.00
00666            1400.00
00667            1000.00
00668            1000.00
00669             600.00
00670             400.00
00671             400.00
00672             200.00
00673            -200.00
00674            -200.00
00675            -400.00
00676            -600.00
00677            -600.00
00678           -1200.00
00679           -1200.00
00680           -1200.00
00681           -1600.00
00682           -1800.00
00683           -2200.00
00684           -2200.00
00685           -2200.00
00686           -2200.00
00687           -2800.00
00688           -3000.00
00689           -2800.00
00690           -3400.00
00691           -3600.00
00692           -3600.00
00693           -3800.00
00694           -4200.00
00695           -4400.00
00696           -4400.00
00697           -4600.00
00698           -5000.00
00699           -5000.00
00700           -5200.00
00701           -5200.00
00702           -5400.00
00703           -6000.00
00704           -5800.00
00705           -6000.00
00706           -6200.00
00707           -6200.00
00708           -6600.00
00709           -6600.00
00710           -6800.00
00711           -7000.00
00712           -7000.00
00713           -7200.00
00714           -7400.00
00715           -7400.00
00716           -7600.00
00717           -7600.00
00718           -7800.00
00719           -8000.00
00720           -8200.00
00721           -8400.00
00722           -8400.00
00723           -8600.00
00724           -8600.00
00725           -8600.00
00726           -9000.00
00727           -9000.00
00728           -9000.00
00729           -9000.00
00730           -9200.00
00731           -9200.00
00732           -9400.00
00733           -9400.00
00734           -9400.00
00735           -9800.00
00736           -9800.00
00737           -9800.00
00738          -10000.00
00739          -10000.00
00740          -10000.00
00741          -10000.00
00742          -10000.00
00743          -10000.00
00744          -10000.00
00745          -10200.00
00746          -10200.00
00747          -10200.00
00748          -10200.00
00749          -10200.00
00750          -10200.00
00751          -10200.00
00752          -10200.00
00753          -10200.00
00754          -10400.00
00755          -10400.00
00756          -10200.00
00757          -10400.00
00758          -10400.00
00759          -10200.00
00760          -10200.00
00761          -10200.00
00762          -10200.00
00763          -10200.00
00764          -10200.00
00765          -10200.00
00766          -10200.00
00767          -10200.00
00768          -10200.00
00769          -10000.00
00770          -10000.00
00771          -10000.00
00772           -9800.00
00773           -9800.00
00774           -9800.00
00775           -9800.00
00776           -9400.00
00777           -9600.00
00778           -9400.00
00779           -9400.00
00780           -9400.00
00781           -9200.00
00782           -9000.00
00783           -9000.00
00784           -9000.00
00785           -8600.00
00786           -8600.00
00787           -8600.00
00788           -8600.00
00789           -8400.00
00790           -8400.00
00791           -8200.00
00792           -8200.00
00793           -7800.00
00794           -7600.00
00795           -7600.00
00796           -7400.00
00797           -7400.00
00798           -7000.00
00799           -7000.00
00800           -6800.00
00801           -6800.00
00802           -6600.00
00803           -6200.00
00804           -6200.00
00805           -6000.00
00806           -6000.00
00807           -5800.00
00808           -5400.00
00809           -5400.00
00810           -5200.00
00811           -5000.00
00812           -5000.00
00813           -4600.00
00814           -4400.00
00815           -4400.00
00816           -4200.00
00817           -4200.00
00818           -3800.00
00819           -3600.00
00820           -3400.00
00821           -3400.00
00822           -3000.00
00823           -2800.00
00824           -2800.00
00825           -2600.00
00826           -2200.00
00827           -2200.00
00828           -2000.00
00829           -1800.00
00830           -1800.00
00831           -1200.00
00832           -1200.00
00833           -1200.00
00834            -800.00
00835            -600.00
00836            -400.00
00837            -400.00
00838            -200.00
00839             200.00
00840             200.00
00841             400.00
00842             600.00
00843             600.00
00844            1000.00
00845            1200.00
00846            1400.00
00847            1400.00
00848            2000.00
00849            2200.00
00850            2600.00
00851            2400.00
00852            2600.00
00853            2800.00
00854            3000.00
00855            3000.00
00856            3400.00
00857            3600.00
00858            3600.00
00859            4000.00
00860            4200.00
00861            4200.00
00862            4400.00
00863            4600.00
00864            4800.00
00865            5000.00
00866            5200.00
00867            5400.00
00868            5400.00
00869            5800.00
00870            5800.00
00871            6000.00
00872            6200.00
00873            6400.00
00874            6600.00
00875            6800.00
00876            6800.00
00877            7000.00
00878            7000.00
00879            7400.00
00880            7400.00
00881            7400.00
00882            7600.00
00883            7800.00
00884            8000.00
00885            8200.00
00886            8200.00
00887            8400.00
00888            8400.00
00889            8600.00
00890            8600.00
00891            8600.00
00892            9000.00
00893            9000.00
00894            9200.00
00895            9000.00
00896            9200.00
00897            9200.00
00898            9400.00
00899            9600.00
00900            9400.00
00901            9600.00
00902            9800.00
00903           10000.00
00904            9800.00
00905           10000.00
00906           10000.00
00907           10000.00
00908           10000.00
00909           10200.00
00910           10200.00
00911           10200.00
00912           10200.00
00913           10200.00
00914           10200.00
00915           10400.00
00916           10400.00
00917           10200.00
00918           10400.00
00919           10600.00
00920           10600.00
00921           10400.00
00922           10600.00
00923           10400.00
00924           10600.00
00925           10600.00
00926           10600.00
00927           10200.00
00928           10600.00
00929           10400.00
00930           10200.00
00931           10600.00
00932           10200.00
00933           10200.00
00934           10200.00
00935           10000.00
00936           10000.00
00937           10000.00
00938           10000.00
00939           10000.00
00940            9800.00
00941            9800.00
00942            9800.00
00943            9800.00
00944            9400.00
00945            9400.00
00946            9400.00
00947            9400.00
00948            9200.00
00949            9000.00
00950            9000.00
00951            8800.00
00952            8800.00
00953            8600.00
00954            8600.00
00955            8400.00
00956            8200.00
00957            8200.00
00958            7800.00
00959            7800.00
00960            7800.00
00961            7600.00
00962            7400.00
00963            7200.00
00964            7400.00
00965            7000.00
00966            6800.00
00967            6800.00
00968            6600.00
00969            6200.00
00970            6200.00
00971            6000.00
00972            6000.00
00973            5800.00
00974            5400.00
00975            5400.00
00976            5200.00
00977            5200.00
00978            5000.00
00979            4600.00
00980            4600.00
00981            4400.00
00982            4200.00
00983            4000.00
00984            3800.00
00985            3600.00
00986            3400.00
00987            3400.00
00988            3000.00
00989            2800.00
00990            2800.00
00991            2600.00
00992            2400.00
00993            2200.00
00994            2000.00
00995            1800.00
00996            1400.00
00997            1400.00
00998            1200.00
00999            1000.00
01000            1000.00
01001             600.00
01002             400.00
01003             200.00
01004             200.00
01005            -200.00
01006            -200.00
01007            -600.00
01008            -600.00
01009            -800.00
01010           -1200.00
01011           -1200.00
01012           -1200.00
01013           -1400.00
01014           -2000.00
01015           -2200.00
01016           -2400.00
01017           -2200.00
01018           -2200.00
01019           -2800.00
01020           -3000.00
01021           -3000.00
01022           -3400.00
01023           -3600.00
01024           -3800.00
01025           -3800.00
01026           -4200.00
01027           -4200.00
01028           -4400.00
01029           -4600.00
01030           -5000.00
01031           -5000.00
01032           -5200.00
01033           -5200.00
01034           -5400.00
01035           -5800.00
01036           -5800.00
01037           -6000.00
01038           -6200.00
01039           -6200.00
01040           -6600.00
01041           -6800.00
01042           -6600.00
01043           -7000.00
01044           -7000.00
01045           -7000.00
01046           -7400.00
01047           -7600.00
01048           -7600.00
01049           -7800.00
01050           -7800.00
01051           -7800.00
01052           -8200.00
01053           -8400.00
01054           -8400.00
01055           -8400.00
01056           -8600.00
01057           -8600.00
01058           -8800.00
01059           -9000.00
01060           -9200.00
01061           -9200.00
01062           -9200.00
01063           -9400.00
01064           -9200.00
01065           -9400.00
01066           -9400.00
01067           -9400.00
01068           -9400.00
01069           -9600.00
01070           -9800.00
01071           -9800.00
01072          -10000.00
01073          -10000.00
01074          -10000.00
01075          -10000.00
01076          -10200.00
01077          -10200.00
01078          -10200.00
01079          -10200.00
01080          -10200.00
01081          -10200.00
01082          -10200.00
01083          -10400.00
01084          -10200.00
01085          -10200.00
01086          -10200.00
01087          -10200.00
01088          -10200.00
01089          -10200.00
01090          -10400.00
01091          -10200.00
01092          -10600.00
01093          -10200.00
01094          -10400.00
01095          -10200.00
01096          -10200.00
01097          -10200.00
01098          -10200.00
01099          -10200.00
01100          -10200.00
01101          -10000.00
01102          -10000.00
01103          -10000.00
01104          -10000.00
01105           -9800.00
01106           -9800.00
01107           -9600.00
01108           -9400.00
01109           -9400.00
01110           -9400.00
01111           -9400.00
01112           -9200.00
01113           -9200.00
01114           -9200.00
01115           -9000.00
01116           -9000.00
01117           -8800.00
01118           -8600.00
01119           -8600.00
01120           -8600.00
01121           -8400.00
01122           -8200.00
01123           -8200.00
01124           -8000.00
01125           -7800.00
01126           -7600.00
01127           -7600.00
01128           -7400.00
01129           -7400.00
01130           -7000.00
01131           -7000.00
01132           -6800.00
01133           -6800.00
01134           -6600.00
01135           -6600.00
01136           -6200.00
01137           -6000.00
01138           -6000.00
01139           -5800.00
01140           -5800.00
01141           -5400.00
01142           -5200.00
01143           -5200.00
01144           -4800.00
01145           -4600.00
01146           -4600.00
01147           -4400.00
01148           -4400.00
01149           -3800.00
01150           -3800.00
01151           -3600.00
01152           -3600.00
01153           -3200.00
01154           -3000.00
01155           -3000.00
01156           -2800.00
01157           -2600.00
01158           -2400.00
01159           -2200.00
01160           -2000.00
01161           -2000.00
01162           -1400.00
01163           -1400.00
01164           -1200.00
01165           -1200.00
01166           -1000.00
01167            -600.00
01168            -400.00
01169            -400.00
01170               0.00
01171             200.00
01172             200.00
01173             400.00
01174             400.00
01175             800.00
01176            1000.00
01177            1000.00
01178            1400.00
01179            1400.00
01180            1800.00
01181            2000.00
01182            2200.00
01183            2400.00
01184            2600.00
01185            2800.00
01186            3000.00
01187            3200.00
01188            3400.00
01189            3600.00
01190            3600.00
01191            3800.00
01192            4200.00
01193            4200.00
01194            4400.00
01195            4600.00
01196            5000.00
01197            5000.00
01198            5200.00
01199            5400.00
01200            5400.00
01201            5800.00
01202            5800.00
01203            6200.00
01204            6200.00
01205            6600.00
01206            6600.00
01207            6600.00
01208            6800.00
01209            7000.00
01210            7000.00
01211            7400.00
01212            7400.00
01213            7600.00
01214            7600.00
01215            7800.00
01216            7800.00
01217            8200.00
01218            8200.00
01219            8400.00
01220            8400.00
01221            8600.00
01222            8600.00
01223            8600.00
01224            8800.00
01225            9000.00
01226            9000.00
01227            9200.00
01228            9200.00
01229            9400.00
01230            9400.00
01231            9400.00
01232            9800.00
01233            9400.00
01234            9800.00
01235            9800.00
01236            9800.00
01237           10000.00
01238           10000.00
01239           10000.00
01240           10000.00
01241           10000.00
01242           10200.00
01243           10200.00
01244           10200.00
01245           10200.00
01246           10400.00
01247           10600.00
01248           10200.00
01249           10600.00
01250           10400.00
01251           10400.00
01252           10600.00
01253           10600.00
01254           10600.00
01255           10600.00
01256           10600.00
01257           10200.00
01258           10600.00
01259           10400.00
01260           10200.00
01261           10400.00
01262           10600.00
01263           10200.00
01264           10200.00
01265           10200.00
01266           10200.00
01267           10000.00
01268           10000.00
01269           10000.00
01270           10000.00
01271           10000.00
01272            9800.00
01273            9800.00
01274            9800.00
01275            9600.00
01276            9400.00
01277            9400.00
01278            9200.00
01279            9400.00
01280            9000.00
01281            9000.00
01282            9000.00
01283            9000.00
01284            8600.00
01285            8600.00
01286            8400.00
01287            8400.00
01288            8400.00
01289            8200.00
01290            7800.00
01291            7600.00
01292            7800.00
01293            7400.00
01294            7600.00
01295            7400.00
01296            7200.00
01297            7000.00
01298            6800.00
01299            6600.00
01300            6600.00
01301            6600.00
01302            6200.00
01303            6000.00
01304            5800.00
01305            5800.00
01306            5600.00
01307            5400.00
01308            5200.00
01309            5200.00
01310            5000.00
01311            4600.00
01312            4400.00
01313            4400.00
01314            4200.00
01315            4200.00
01316            3600.00
01317            3600.00
01318            3600.00
01319            3400.00
01320            3400.00
01321            2800.00
01322            2800.00
01323            2600.00
01324            2200.00
01325            2400.00
01326            2000.00
01327            1800.00
01328            1800.00
01329            1400.00
01330            1400.00
01331            1000.00
01332            1000.00
01333             800.00
01334             400.00
01335             400.00
01336             200.00
01337            -200.00
01338            -400.00
01339            -600.00
01340            -600.00
01341           -1000.00
01342           -1000.00
01343           -1200.00
01344           -1200.00
01345           -1400.00
01346           -2000.00
01347           -2200.00
01348           -2400.00
01349           -2200.00
01350           -2200.00
01351           -2800.00
01352           -3000.00
01353           -3000.00
01354           -3400.00
01355           -3600.00
01356           -3600.00
01357           -3800.00
01358           -4200.00
01359           -4400.00
01360           -4400.00
01361           -4600.00
01362           -5000.00
01363           -5000.00
01364           -5200.00
01365           -5400.00
01366           -5400.00
01367           -5800.00
01368           -5800.00
01369           -6000.00
01370           -6200.00
01371           -6200.00
01372           -6400.00
01373           -6600.00
01374           -6800.00
01375           -7000.00
01376           -7000.00
01377           -7200.00
01378           -7400.00
01379           -7600.00
01380           -7600.00
01381           -7600.00
01382           -7800.00
01383           -8000.00
01384           -8200.00
01385           -8200.00
01386           -8400.00
01387           -8600.00
01388           -8600.00
01389           -8600.00
01390           -8800.00
01391           -9000.00
01392           -9000.00
01393           -9200.00
01394           -9200.00
01395           -9200.00
01396           -9400.00
01397           -9400.00
01398           -9400.00
01399           -9800.00
01400           -9400.00
01401           -9800.00
01402           -9800.00
01403           -9800.00
01404          -10000.00
01405          -10000.00
01406          -10000.00
01407          -10000.00
01408          -10200.00
01409          -10200.00
01410          -10200.00
01411          -10200.00
01412          -10400.00
01413          -10200.00
01414          -10200.00
01415          -10200.00
01416          -10200.00
01417          -10400.00
01418          -10400.00
01419          -10200.00
01420          -10600.00
01421          -10400.00
01422          -10400.00
01423          -10400.00
01424          -10400.00
01425          -10200.00
01426          -10200.00
01427          -10200.00
01428          -10200.00
01429          -10200.00
01430          -10200.00
01431          -10200.00
01432          -10000.00
01433          -10000.00
01434          -10000.00
01435          -10000.00
01436          -10000.00
01437           -9800.00
01438           -9800.00
01439           -9800.00
01440           -9400.00
01441           -9600.00
01442           -9400.00
01443           -9400.00
01444           -9200.00
01445           -9200.00
01446           -9200.00
01447           -9000.00
01448           -8600.00
01449           -8600.00
01450           -8600.00
01451           -8600.00
01452           -8400.00
01453           -8400.00
01454           -8200.00
01455           -8200.00
01456           -8000.00
01457           -7600.00
01458           -7600.00
01459           -7600.00
01460           -7400.00
01461           -7400.00
01462           -7000.00
01463           -7000.00
01464           -6800.00
01465           -6800.00
01466           -6600.00
01467           -6200.00
01468           -6200.00
01469           -6000.00
01470           -6000.00
01471           -5800.00
01472           -5600.00
01473           -5400.00
01474           -5200.00
01475           -5200.00
01476           -5000.00
01477           -4600.00
01478           -4400.00
01479           -4400.00
01480           -4400.00
01481           -4000.00
01482           -3800.00
01483           -3600.00
01484           -3600.00
01485           -3400.00
01486           -3000.00
01487           -3000.00
01488           -2800.00
01489           -2600.00
01490           -2200.00
01491           -2200.00
01492           -2200.00
01493           -2000.00
01494           -1400.00
01495           -1400.00
01496           -1200.00
01497           -1200.00
01498           -1000.00
01499            -600.00
01500            -400.00
01501            -400.00
01502            -200.00
01503             200.00
01504             400.00
01505             400.00
01506             600.00
01507            1000.00
01508            1200.00
01509            1200.00
01510            1400.00
01511            1800.00
01512            1800.00
01513            2000.00
01514            2400.00
01515            2600.00
01516            2600.00
01517            2800.00
01518            3000.00
01519            3000.00
01520            3400.00
01521            3600.00
01522            3600.00
01523            4000.00
01524            4200.00
01525            4200.00
01526            4400.00
01527            4800.00
01528            5000.00
01529            5200.00
01530            5200.00
01531            5400.00
01532            5800.00
01533            5800.00
01534            5800.00
01535            6000.00
01536            6200.00
01537            6400.00
01538            6600.00
01539            6800.00
01540            6800.00
01541            7000.00
01542            7200.00
01543            7400.00
01544            7400.00
01545            7600.00
01546            7800.00
01547            7800.00
01548            8000.00
01549            8000.00
01550            8200.00
01551            8400.00
01552            8400.00
01553            8400.00
01554            8600.00
01555            8800.00
01556            8600.00
01557            9000.00
01558            9000.00
01559            9200.00
01560            9200.00
01561            9200.00
01562            9400.00
01563            9400.00
01564            9400.00
01565            9800.00
01566            9800.00
01567            9800.00
01568            9800.00
01569           10000.00
01570           10000.00
01571           10000.00
01572           10000.00
01573           10000.00
01574           10200.00
01575           10000.00
01576           10200.00
01577           10200.00
01578           10400.00
01579           10600.00
01580           10400.00
01581           10400.00
01582           10600.00
01583           10400.00
01584           10600.00
01585           10600.00
01586           10400.00
01587           10400.00
01588           10600.00
01589           10600.00
01590           10400.00
01591           10400.00
01592           10200.00
01593           10400.00
01594           10400.00
01595           10200.00
01596           10200.00
01597           10200.00
01598           10200.00
01599           10000.00
01600           10000.00
01601           10000.00
01602           10000.00
01603           10000.00
01604            9800.00
01605            9800.00
01606            9800.00
01607            9800.00
01608            9800.00
01609            9400.00
01610            9200.00
01611            9200.00
01612            9000.00
01613            9000.00
01614            9000.00
01615            8600.00
01616            8600.00
01617            8600.00
01618            8400.00
01619            8200.00
01620            8200.00
01621            8200.00
01622            8000.00
01623            7800.00
01624            7600.00
01625            7600.00
01626            7400.00
01627            7400.00
01628            7000.00
01629            7000.00
01630            6800.00
01631            6800.00
01632            6600.00
01633            6400.00
01634            6600.00
01635            6000.00
01636            6000.00
01637            5800.00
01638            5800.00
01639            5400.00
01640            5400.00
01641            5200.00
01642            5000.00
01643            5000.00
01644            4600.00
01645            4400.00
01646            4200.00
01647            4000.00
01648            4000.00
01649            3800.00
01650            3600.00
01651            3600.00
01652            3200.00
01653            3000.00
01654            2800.00
01655            2600.00
01656            2600.00
01657            2200.00
01658            2000.00
01659            1800.00
01660            1800.00
01661            1400.00
01662            1200.00
01663            1200.00
01664            1000.00
01665             600.00
01666             400.00
01667             400.00
01668             200.00
01669            -200.00
01670            -200.00
01671            -400.00
01672            -600.00
01673            -800.00
01674           -1000.00
01675           -1200.00
01676           -1200.00
01677           -1400.00
01678           -2000.00
01679           -2200.00
01680           -2400.00
01681           -2200.00
01682           -2200.00
01683           -2800.00
01684           -3000.00
01685           -3000.00
01686           -3600.00
01687           -3600.00
01688           -3600.00
01689           -3800.00
01690           -4200.00
01691           -4400.00
01692           -4400.00
01693           -4600.00
01694           -5000.00
01695           -5000.00
01696           -5200.00
01697           -5400.00
01698           -5400.00
01699           -6000.00
01700           -5800.00
01701           -6000.00
01702           -6200.00
01703           -6200.00
01704           -6600.00
01705           -6800.00
01706           -6800.00
01707           -7000.00
01708           -7000.00
01709           -7200.00
01710           -7400.00
01711           -7600.00
01712           -7600.00
01713           -7800.00
01714           -7800.00
01715           -8200.00
01716           -8200.00
01717           -8400.00
01718           -8600.00
01719           -8400.00
01720           -8600.00
01721           -8600.00
01722           -8800.00
01723           -9000.00
01724           -9000.00
01725           -9200.00
01726           -9200.00
01727           -9200.00
01728           -9400.00
01729           -9400.00
01730           -9400.00
01731           -9400.00
01732           -9800.00
01733           -9800.00
01734           -9800.00
01735          -10000.00
01736          -10000.00
01737          -10000.00
01738          -10000.00
01739          -10000.00
01740          -10000.00
01741          -10200.00
01742          -10200.00
01743          -10200.00
01744          -10200.00
01745          -10200.00
01746          -10600.00
01747          -10200.00
01748          -10200.00
01749          -10200.00
01750          -10600.00
01751          -10600.00
01752          -10400.00
01753          -10200.00
01754          -10400.00
01755          -10400.00
01756          -10200.00
01757          -10200.00
01758          -10200.00
01759          -10200.00
01760          -10200.00
01761          -10200.00
01762          -10200.00
01763          -10200.00
01764          -10200.00
01765          -10000.00
01766          -10000.00
01767          -10000.00
01768           -9800.00
01769           -9800.00
01770           -9600.00
01771           -9600.00
01772           -9600.00
01773           -9400.00
01774           -9400.00
01775           -9400.00
01776           -9200.00
01777           -9200.00
01778           -9200.00
01779           -9000.00
01780           -8800.00
01781           -8600.00
01782           -8600.00
01783           -8600.00
01784           -8400.00
01785           -8400.00
01786           -8200.00
01787           -8200.00
01788           -7800.00
01789           -7800.00
01790           -7600.00
01791           -7600.00
01792           -7400.00
01793           -7400.00
01794           -7000.00
01795           -7000.00
01796           -6800.00
01797           -6800.00
01798           -6600.00
01799           -6400.00
01800           -6200.00
01801           -6000.00
01802           -5800.00
01803           -5800.00
01804           -5400.00
01805           -5400.00
01806           -5200.00
01807           -5200.00
01808           -5000.00
01809           -4600.00
01810           -4600.00
01811           -4400.00
01812           -4400.00
01813           -3800.00
01814           -3800.00
01815           -3800.00
01816           -3600.00
01817           -3400.00
01818           -3000.00
01819           -3000.00
01820           -2800.00
01821           -2600.00
01822           -2200.00
01823           -2200.00
01824           -2000.00
01825           -1800.00
01826           -1800.00
01827           -1600.00
01828           -1200.00
01829           -1200.00
01830           -1000.00
01831            -600.00
01832            -600.00
01833            -200.00
01834            -200.00
01835             200.00
01836             400.00
01837             400.00
01838             800.00
01839            1000.00
01840            1000.00
01841            1200.00
01842            1400.00
01843            1800.00
01844            2000.00
01845            2000.00
01846            2400.00
01847            2600.00
01848            2600.00
01849            2800.00
01850            2800.00
01851            3000.00
01852            3600.00
01853            3600.00
01854            3600.00
01855            4000.00
01856            4200.00
01857            4200.00
01858            4400.00
01859            4600.00
01860            5000.00
01861            5000.00
01862            5200.00
01863            5400.00
01864            5400.00
01865            5800.00
01866            5800.00
01867            6000.00
01868            6200.00
01869            6200.00
01870            6600.00
01871            6600.00
01872            6800.00
01873            6800.00
01874            7200.00
01875            7000.00
01876            7400.00
01877            7600.00
01878            7600.00
01879            7800.00
01880            7800.00
01881            8200.00
01882            8200.00
01883            8400.00
01884            8400.00
01885            8400.00
01886            8600.00
01887            8600.00
01888            9000.00
01889            9000.00
01890            9000.00
01891            9200.00
01892            9200.00
01893            9200.00
01894            9400.00
01895            9400.00
01896            9800.00
01897            9800.00
01898            9800.00
01899            9800.00
01900            9800.00
01901           10000.00
01902           10000.00
01903           10000.00
01904           10000.00
01905           10000.00
01906           10200.00
01907           10200.00
01908           10200.00
01909           10200.00
01910           10400.00
01911           10600.00
01912           10600.00
01913           10400.00
01914           10600.00
01915           10400.00
01916           10600.00
01917           10600.00
01918           10600.00
01919           10600.00
01920           10400.00
01921           10600.00
01922           10600.00
01923           10200.00
01924           10400.00
01925           10200.00
01926           10200.00
01927           10200.00
01928           10400.00
01929           10000.00
01930           10000.00
01931           10200.00
01932           10000.00
01933           10000.00
01934           10000.00
01935            9800.00
01936            9800.00
01937            9800.00
01938            9800.00
01939            9800.00
01940            9400.00
01941            9200.00
01942            9200.00
01943            9200.00
01944            9200.00
01945            9000.00
01946            9000.00
01947            8800.00
01948            8600.00
01949            8600.00
01950            8400.00
01951            8400.00
01952            8400.00
01953            8200.00
01954            8000.00
01955            7800.00
01956            7600.00
01957            7600.00
01958            7400.00
01959            7400.00
01960            7000.00
01961            7000.00
01962            6800.00
01963            6800.00
01964            6600.00
01965            6200.00
01966            6200.00
01967            6200.00
01968            6000.00
01969            5800.00
01970            5800.00
01971            5400.00
01972            5400.00
01973            5200.00
01974            5000.00
01975            5000.00
01976            4400.00
01977            4400.00
01978            4200.00
01979            4200.00
01980            3800.00
01981            3600.00
01982            3600.00
01983            3400.00
01984            3200.00
01985            3000.00
01986            2800.00
01987            2600.00
01988            2200.00
01989            2200.00
01990            2000.00
01991            2000.00
01992            1800.00
01993            1400.00
01994            1200.00
01995            1200.00
01996            1000.00
01997             600.00
01998             400.00
01999             200.00
02000             200.00
02001               0.00
02002            -600.00
02003            -400.00
02004            -600.00
02005           -1000.00
02006           -1200.00
02007           -1200.00
02008           -1400.00
02009           -1400.00
02010           -1800.00
02011           -2200.00
02012           -2600.00
02013           -2200.00
02014           -2400.00
02015           -2800.00
02016           -3000.00
02017           -3000.00
02018           -3400.00
02019           -3800.00
02020           -3600.00
02021           -3800.00
02022           -4200.00
02023           -4400.00
02024           -4400.00
02025           -4600.00
02026           -4600.00
02027           -5000.00
02028           -5200.00
02029           -5400.00
02030           -5400.00
02031           -5400.00
02032           -5800.00
02033           -6000.00
02034           -6000.00
02035           -6200.00
02036           -6600.00
02037           -6600.00
02038           -6800.00
02039           -7000.00
02040           -7000.00
02041           -7200.00
02042           -7400.00
02043           -7600.00
02044           -7600.00
02045           -7600.00
02046           -7800.00
02047           -8000.00
02048           -8200.00
02049           -8400.00
02050           -8400.00
02051           -8400.00
02052           -8600.00
02053           -8600.00
02054           -9000.00
02055           -9000.00
02056           -9000.00
02057           -9200.00
02058           -9200.00
02059           -9200.00
02060           -9400.00
02061           -9400.00
02062           -9600.00
02063           -9400.00
02064           -9800.00
02065           -9800.00
02066           -9800.00
02067           -9800.00
02068          -10000.00
02069          -10000.00
02070          -10000.00
02071          -10200.00
02072          -10200.00
02073          -10200.00
02074          -10200.00
02075          -10200.00
02076          -10200.00
02077          -10200.00
02078          -10400.00
02079          -10200.00
02080          -10200.00
02081          -10200.00
02082          -10400.00
02083          -10400.00
02084          -10400.00
02085          -10400.00
02086          -10600.00
02087          -10200.00
02088          -10200.00
02089          -10200.00
02090          -10200.00
02091          -10200.00
02092          -10200.00
02093          -10200.00
02094          -10200.00
02095          -10200.00
02096          -10200.00
02097          -10000.00
02098          -10000.00
02099          -10000.00
02100           -9800.00
02101           -9800.00
02102           -9600.00
02103           -9600.00
02104           -9800.00
02105           -9400.00
02106           -9400.00
02107           -9200.00
02108           -9200.00
02109           -9200.00
02110           -9200.00
02111           -9000.00
02112           -9000.00
02113           -8600.00
02114           -8600.00
02115           -8600.00
02116           -8600.00
02117           -8400.00
02118           -8200.00
02119           -8200.00
02120           -7800.00
02121           -7800.00
02122           -7600.00
02123           -7600.00
02124           -7400.00
02125           -7400.00
02126           -7000.00
02127           -7000.00
02128           -6800.00
02129           -6800.00
02130           -6600.00
02131           -6400.00
02132           -6200.00
02133           -6200.00
02134           -6000.00
02135           -5800.00
02136           -5800.00
02137           -5400.00
02138           -5200.00
02139           -5200.00
02140           -5000.00
02141           -4600.00
02142           -4600.00
02143           -4400.00
02144           -4400.00
02145           -4200.00
02146           -3800.00
02147           -3800.00
02148           -3600.00
02149           -3400.00
02150           -3000.00
02151           -2800.00
02152           -2800.00
02153           -2600.00
02154           -2400.00
02155           -2200.00
02156           -2000.00
02157           -2000.00
02158           -1400.00
02159           -1200.00
02160           -1200.00
02161           -1000.00
02162            -600.00
02163            -600.00
02164            -400.00
02165            -200.00
02166               0.00
02167             200.00
02168             200.00
02169             400.00
02170             800.00
02171            1000.00
02172            1000.00
02173            1200.00
02174            1400.00
02175            1800.00
02176            2000.00
02177            2200.00
02178            2400.00
02179            2600.00
02180            2600.00
02181            2800.00
02182            3000.00
02183            3000.00
02184            3400.00
02185            3600.00
02186            3600.00
02187            3800.00
02188            4200.00
02189            4200.00
02190            4400.00
02191            4600.00
02192            5000.00
02193            5000.00
02194            5200.00
02195            5400.00
02196            5800.00
02197            5800.00
02198            5800.00
02199            5800.00
02200            6000.00
02201            6200.00
02202            6600.00
02203            6600.00
02204            6600.00
02205            6800.00
02206            7000.00
02207            7000.00
02208            7400.00
02209            7400.00
02210            7600.00
02211            7600.00
02212            8200.00
02213            7800.00
02214            8200.00
02215            8400.00
02216            8400.00
02217            8400.00
02218            8600.00
02219            8600.00
02220            8800.00
02221            9000.00
02222            9000.00
02223            9200.00
02224            9200.00
02225            9400.00
02226            9200.00
02227            9400.00
02228            9600.00
02229            9800.00
02230            9800.00
02231            9800.00
02232           10000.00
02233           10000.00
02234           10000.00
02235           10000.00
02236           10200.00
02237           10000.00
02238           10200.00
02239           10200.00
02240           10200.00
02241           10600.00
02242           10400.00
02243           10200.00
02244           10400.00
02245           10200.00
02246           10400.00
02247           10600.00
02248           10600.00
02249           10600.00
02250           10600.00
02251           10600.00
02252           10400.00
02253           10600.00
02254           10400.00
02255           10600.00
02256           10200.00
02257           10600.00
02258           10200.00
02259           10200.00
02260           10200.00
02261           10200.00
02262           10000.00
02263           10000.00
02264           10000.00
02265           10000.00
02266            9800.00
02267           10000.00
02268            9800.00
02269            9800.00
02270            9800.00
02271            9600.00
02272            9400.00
02273            9400.00
02274            9200.00
02275            9200.00
02276            9000.00
02277            9000.00
02278            9000.00
02279            8800.00
02280            8600.00
02281            8600.00
02282            8400.00
02283            8400.00
02284            8200.00
02285            8200.00
02286            8000.00
02287            7800.00
02288            7800.00
02289            7600.00
02290            7400.00
02291            7400.00
02292            7000.00
02293            7000.00
02294            7000.00
02295            6800.00
02296            6600.00
02297            6400.00
02298            6200.00
02299            6200.00
02300            5800.00
02301            5800.00
02302            5800.00
02303            5400.00
02304            5400.00
02305            5200.00
02306            5200.00
02307            5000.00
02308            4600.00
02309            4400.00
02310            4400.00
02311            4200.00
02312            3800.00
02313            3800.00
02314            3600.00
02315            3400.00
02316            3000.00
02317            3000.00
02318            2800.00
02319            2600.00
02320            2600.00
02321            2200.00
02322            2000.00
02323            2000.00
02324            1800.00
02325            1400.00
02326            1200.00
02327            1000.00
02328            1000.00
02329             600.00
02330             400.00
02331             200.00
02332            -200.00
02333            -200.00
02334            -400.00
02335            -400.00
02336            -600.00
02337           -1000.00
02338           -1200.00
02339           -1000.00
02340           -1200.00
02341           -1400.00
02342           -2000.00
02343           -2200.00
02344           -2600.00
02345           -2200.00
02346           -2200.00
02347           -2800.00
02348           -3000.00
02349           -3000.00
02350           -3200.00
02351           -3600.00
02352           -3600.00
02353           -3800.00
02354           -4200.00
02355           -4400.00
02356           -4400.00
02357           -4600.00
02358           -4800.00
02359           -5000.00
02360           -5000.00
02361           -5200.00
02362           -5400.00
02363           -5800.00
02364           -5800.00
02365           -6000.00
02366           -6200.00
02367           -6200.00
02368           -6600.00
02369           -6600.00
02370           -6800.00
02371           -6800.00
02372           -7200.00
02373           -7000.00
02374           -7400.00
02375           -7400.00
02376           -7400.00
02377           -7800.00
02378           -7800.00
02379           -8000.00
02380           -8200.00
02381           -8200.00
02382           -8400.00
02383           -8400.00
02384           -8400.00
02385           -8600.00
02386           -8600.00
02387           -9000.00
02388           -9000.00
02389           -9200.00
02390           -9200.00
02391           -9200.00
02392           -9400.00
02393           -9400.00
02394           -9400.00
02395           -9800.00
02396           -9800.00
02397           -9800.00
02398           -9800.00
02399           -9800.00
02400          -10000.00
02401          -10000.00
02402          -10000.00
02403          -10200.00
02404          -10200.00
02405          -10200.00
02406          -10200.00
02407          -10200.00
02408          -10200.00
02409          -10200.00
02410          -10400.00
02411          -10200.00
02412          -10400.00
02413          -10600.00
02414          -10400.00
02415          -10200.00
02416          -10400.00
02417          -10200.00
02418          -10200.00
02419          -10200.00
02420          -10400.00
02421          -10200.00
02422          -10200.00
02423          -10200.00
02424          -10200.00
02425          -10200.00
02426          -10200.00
02427          -10200.00
02428          -10000.00
02429          -10000.00
02430          -10000.00
02431          -10000.00
02432           -9800.00
02433           -9800.00
02434           -9800.00
02435           -9600.00
02436           -9400.00
02437           -9400.00
02438           -9400.00
02439           -9400.00
02440           -9200.00
02441           -9200.00
02442           -9000.00
02443           -9000.00
02444           -8800.00
02445           -8600.00
02446           -8600.00
02447           -8400.00
02448           -8600.00
02449           -8400.00
02450           -8400.00
02451           -8200.00
02452           -7800.00
02453           -7600.00
02454           -7600.00
02455           -7600.00
02456           -7400.00
02457           -7400.00
02458           -7000.00
02459           -7000.00
02460           -6800.00
02461           -6800.00
02462           -6600.00
02463           -6200.00
02464           -6400.00
02465           -6000.00
02466           -6000.00
02467           -6000.00
02468           -5400.00
02469           -5400.00
02470           -5400.00
02471           -5200.00
02472           -5000.00
02473           -4800.00
02474           -4600.00
02475           -4400.00
02476           -4400.00
02477           -4000.00
02478           -3800.00
02479           -3600.00
02480           -3600.00
02481           -3200.00
02482           -3000.00
02483           -3000.00
02484           -2800.00
02485           -2600.00
02486           -2600.00
02487           -2200.00
02488           -2000.00
02489           -1800.00
02490           -1400.00
02491           -1400.00
02492           -1200.00
02493           -1200.00
02494            -600.00
02495            -600.00
02496            -400.00
02497            -200.00
02498             200.00
02499             200.00
02500             400.00
02501             400.00
02502             800.00
02503            1000.00
02504            1000.00
02505            1400.00
02506            1400.00
02507            1800.00
02508            1800.00
02509            2200.00
02510            2200.00
02511            2600.00
02512            2600.00
02513            2800.00
02514            3000.00
02515            3200.00
02516            3400.00
02517            3600.00
02518            3600.00
02519            3800.00
02520            4200.00
02521            4200.00
02522            4400.00
02523            4600.00
02524            5000.00
02525            5200.00
02526            5000.00
02527            5200.00
02528            5400.00
02529            5600.00
02530            5800.00
02531            5800.00
02532            6200.00
02533            6200.00
02534            6200.00
02535            6600.00
02536            6800.00
02537            6800.00
02538            7200.00
02539            7200.00
02540            7400.00
02541            7600.00
02542            7600.00
02543            7800.00
02544            7800.00
02545            8000.00
02546            8200.00
02547            8400.00
02548            8400.00
02549            8400.00
02550            8400.00
02551            9000.00
02552            9000.00
02553            9000.00
02554            9000.00
02555            9000.00
02556            9200.00
02557            9200.00
02558            9400.00
02559            9400.00
02560            9400.00
02561            9800.00
02562            9800.00
02563            9800.00
02564           10000.00
02565           10000.00
02566           10000.00
02567           10000.00
02568           10200.00
02569           10200.00
02570           10200.00
02571           10200.00
02572           10200.00
02573           10200.00
02574           10400.00
02575           10400.00
02576           10600.00
02577           10600.00
02578           10200.00
02579           10600.00
02580           10400.00
02581           10600.00
02582           10600.00
02583           10400.00
02584           10600.00
02585           10600.00
02586           10200.00
02587           10200.00
02588           10600.00
02589           10200.00
02590           10200.00
02591           10200.00
02592           10200.00
02593           10000.00
02594           10000.00
02595           10000.00
02596           10000.00
02597           10000.00
02598            9800.00
02599            9800.00
02600            9800.00
02601            9800.00
02602            9800.00
02603            9400.00
02604            9400.00
02605            9400.00
02606            9200.00
02607            9200.00
02608            9200.00
02609            9000.00
02610            9000.00
02611            8800.00
02612            8600.00
02613            8400.00
02614            8400.00
02615            8400.00
02616            8400.00
02617            8200.00
02618            8200.00
02619            7800.00
02620            7600.00
02621            7600.00
02622            7600.00
02623            7400.00
02624            7000.00
02625            7000.00
02626            7000.00
02627            6800.00
02628            6800.00
02629            6600.00
02630            6200.00
02631            6200.00
02632            6000.00
02633            6000.00
02634            5800.00
02635            5400.00
02636            5400.00
02637            5200.00
02638            5000.00
02639            5000.00
02640            4600.00
02641            4400.00
02642            4200.00
02643            4200.00
02644            3800.00
02645            3800.00
02646            3600.00
02647            3400.00
02648            3400.00
02649            3000.00
02650            2800.00
02651            2600.00
02652            2200.00
02653            2200.00
02654            2000.00
02655            1800.00
02656            1400.00
02657            1400.00
02658            1200.00
02659            1000.00
02660             800.00
02661             600.00
02662             400.00
02663             200.00
02664             200.00
02665            -200.00
02666            -200.00
02667            -600.00
02668            -600.00
02669           -1000.00
02670           -1000.00
02671           -1200.00
02672           -1400.00
02673           -1400.00
02674           -2000.00
02675           -2200.00
02676           -2600.00
02677           -2200.00
02678           -2200.00
02679           -2800.00
02680           -3000.00
02681           -3000.00
02682           -3200.00
02683           -3600.00
02684           -3600.00
02685           -3800.00
02686           -4200.00
02687           -4200.00
02688           -4400.00
02689           -4600.00
02690           -4600.00
02691           -5000.00
02692           -5200.00
02693           -5200.00
02694           -5400.00
02695           -5800.00
02696           -5800.00
02697           -5800.00
02698           -6000.00
02699           -6200.00
02700           -6600.00
02701           -6600.00
02702           -6800.00
02703           -6800.00
02704           -7000.00
02705           -7000.00
02706           -7200.00
02707           -7400.00
02708           -7600.00
02709           -7600.00
02710           -7800.00
02711           -7800.00
02712           -8200.00
02713           -8200.00
02714           -8200.00
02715           -8600.00
02716           -8600.00
02717           -8600.00
02718           -8800.00
02719           -9000.00
02720           -9200.00
02721           -9200.00
02722           -9200.00
02723           -9200.00
02724           -9400.00
02725           -9200.00
02726           -9400.00
02727           -9800.00
02728           -9800.00
02729           -9800.00
02730          -10000.00
02731          -10000.00
02732          -10000.00
02733          -10000.00
02734          -10000.00
02735          -10000.00
02736          -10200.00
02737          -10200.00
02738          -10200.00
02739          -10200.00
02740          -10200.00
02741          -10200.00
02742          -10200.00
02743          -10200.00
02744          -10200.00
02745          -10200.00
02746          -10200.00
02747          -10400.00
02748          -10400.00
02749          -10200.00
02750          -10400.00
02751          -10200.00
02752          -10200.00
02753          -10200.00
02754          -10200.00
02755          -10400.00
02756          -10200.00
02757          -10200.00
02758          -10000.00
02759          -10200.00
02760          -10000.00
02761          -10000.00
02762          -10000.00
02763          -10000.00
02764           -9800.00
02765           -9800.00
02766           -9800.00
02767           -9600.00
02768           -9400.00
02769           -9400.00
02770           -9400.00
02771           -9400.00
02772           -9200.00
02773           -9200.00
02774           -9200.00
02775           -9000.00
02776           -9000.00
02777           -8600.00
02778           -8600.00
02779           -8600.00
02780           -8400.00
02781           -8400.00
02782           -8200.00
02783           -8200.00
02784           -7800.00
02785           -7800.00
02786           -7800.00
02787           -7600.00
02788           -7600.00
02789           -7400.00
02790           -7400.00
02791           -7000.00
02792           -7000.00
02793           -6800.00
02794           -6600.00
02795           -6600.00
02796           -6200.00
02797           -6200.00
02798           -6000.00
02799           -5800.00
02800           -5800.00
02801           -5400.00
02802           -5200.00
02803           -5200.00
02804           -5000.00
02805           -4600.00
02806           -4600.00
02807           -4400.00
02808           -4400.00
02809           -4000.00
02810           -3800.00
02811           -3600.00
02812           -3400.00
02813           -3200.00
02814           -3000.00
02815           -3000.00
02816           -2800.00
02817           -2600.00
02818           -2200.00
02819           -2200.00
02820           -2000.00
02821           -1800.00
02822           -1400.00
02823           -1200.00
02824           -1200.00
02825           -1000.00
02826            -600.00
02827            -600.00
02828            -400.00
02829            -200.00
02830             200.00
02831             200.00
02832             400.00
02833             400.00
02834             600.00
02835            1000.00
02836            1200.00
02837            1200.00
02838            1400.00
02839            1800.00
02840            1800.00
02841            2200.00
02842            2600.00
02843            2600.00
02844            2600.00
02845            2800.00
02846            3000.00
02847            3400.00
02848            3400.00
02849            3600.00
02850            3800.00
02851            3800.00
02852            4200.00
02853            4200.00
02854            4400.00
02855            4400.00
02856            4600.00
02857            5000.00
02858            5200.00
02859            5200.00
02860            5400.00
02861            5800.00
02862            5800.00
02863            5800.00
02864            6000.00
02865            6200.00
02866            6600.00
02867            6800.00
02868            6800.00
02869            6800.00
02870            7000.00
02871            7400.00
02872            7400.00
02873            7400.00
02874            7600.00
02875            7800.00
02876            8000.00
02877            8000.00
02878            8200.00
02879            8400.00
02880            8400.00
02881            8600.00
02882            8400.00
02883            9000.00
02884            9000.00
02885            9000.00
02886            9000.00
02887            9200.00
02888            9200.00
02889            9400.00
02890            9400.00
02891            9400.00
02892            9800.00
02893            9800.00
02894            9800.00
02895            9800.00
02896           10000.00
02897           10000.00
02898           10200.00
02899           10000.00
02900           10000.00
02901           10000.00
02902           10000.00
02903           10200.00
02904           10200.00
02905           10600.00
02906           10400.00
02907           10600.00
02908           10600.00
02909           10600.00
02910           10600.00
02911           10400.00
02912           10400.00
02913           10600.00
02914           10600.00
02915           10200.00
02916           10400.00
02917           10400.00
02918           10400.00
02919           10600.00
02920           10200.00
02921           10200.00
02922           10400.00
02923           10200.00
02924           10000.00
02925           10000.00
02926           10000.00
02927           10000.00
02928           10000.00
02929           10000.00
02930           10000.00
02931            9800.00
02932            9800.00
02933            9800.00
02934            9600.00
02935            9400.00
02936            9400.00
02937            9400.00
02938            9200.00
02939            9200.00
02940            9000.00
02941            9000.00
02942            9000.00
02943            9000.00
02944            8600.00
02945            8600.00
02946            8400.00
02947            8400.00
02948            8400.00
02949            8200.00
02950            8000.00
02951            7800.00
02952            7800.00
02953            7600.00
02954            7400.00
02955            7400.00
02956            7200.00
02957            7000.00
02958            7000.00
02959            6800.00
02960            6600.00
02961            6600.00
02962            6200.00
02963            6200.00
02964            6000.00
02965            5800.00
02966            5800.00
02967            5400.00
02968            5200.00
02969            5200.00
02970            5000.00
02971            4800.00
02972            4600.00
02973            4400.00
02974            4200.00
02975            4000.00
02976            3800.00
02977            3800.00
02978            3600.00
02979            3400.00
02980            3400.00
02981            2800.00
02982            2800.00
02983            2600.00
02984            2600.00
02985            2200.00
02986            2000.00
02987            1800.00
02988            1800.00
02989            1400.00
02990            1200.00
02991            1000.00
02992            1000.00
02993             600.00
02994             400.00
02995             200.00
02996             200.00
02997            -200.00
02998            -200.00
02999            -600.00
03000            -600.00
03001           -1000.00
03002           -1000.00
03003           -1200.00
03004           -1400.00
03005           -1400.00
03006           -2000.00
03007           -2200.00
03008           -2600.00
03009           -2200.00
03010           -2200.00
03011           -2800.00
03012           -3000.00
03013           -3000.00
03014           -3200.00
03015           -3600.00
03016           -3600.00
03017           -3800.00
03018           -4200.00
03019           -4400.00
03020           -4400.00
03021           -4600.00
03022           -4600.00
03023           -5000.00
03024           -5000.00
03025           -5200.00
03026           -5400.00
03027           -5800.00
03028           -5800.00
03029           -6000.00
03030           -6200.00
03031           -6200.00
03032           -6600.00
03033           -6600.00
03034           -6800.00
03035           -7000.00
03036           -7000.00
03037           -7000.00
03038           -7400.00
03039           -7600.00
03040           -7600.00
03041           -7800.00
03042           -7800.00
03043           -8200.00
03044           -8200.00
03045           -8400.00
03046           -8400.00
03047           -8400.00
03048           -8600.00
03049           -8600.00
03050           -8800.00
03051           -9000.00
03052           -9200.00
03053           -9000.00
03054           -9200.00
03055           -9400.00
03056           -9400.00
03057           -9400.00
03058           -9600.00
03059           -9800.00
03060           -9600.00
03061           -9800.00
03062           -9800.00
03063          -10000.00
03064          -10000.00
03065          -10000.00
03066          -10000.00
03067          -10200.00
03068          -10200.00
03069          -10200.00
03070          -10200.00
03071          -10200.00
03072          -10200.00
03073          -10200.00
03074          -10200.00
03075          -10200.00
03076          -10600.00
03077          -10200.00
03078          -10400.00
03079          -10600.00
03080          -10200.00
03081          -10200.00
03082          -10200.00
03083          -10200.00
03084          -10200.00
03085          -10200.00
03086          -10200.00
03087          -10200.00
03088          -10200.00
03089          -10200.00
03090          -10200.00
03091          -10000.00
03092          -10200.00
03093          -10000.00
03094          -10000.00
03095          -10000.00
03096          -10000.00
03097           -9800.00
03098           -9800.00
03099           -9600.00
03100           -9400.00
03101           -9400.00
03102           -9400.00
03103           -9200.00
03104           -9200.00
03105           -9200.00
03106           -9200.00
03107           -9200.00
03108           -9000.00
03109           -8600.00
03110           -8600.00
03111           -8600.00
03112           -8600.00
03113           -8400.00
03114           -8200.00
03115           -8200.00
03116           -8200.00
03117           -8000.00
03118           -7600.00
03119           -7600.00
03120           -7600.00
03121           -7400.00
03122           -7000.00
03123           -7000.00
03124           -6800.00
03125           -6800.00
03126           -6800.00
03127           -6600.00
03128           -6200.00
03129           -6200.00
03130           -6000.00
03131           -5800.00
03132           -5800.00
03133           -5400.00
03134           -5400.00
03135           -5200.00
03136           -5000.00
03137           -4600.00
03138           -4600.00
03139           -4400.00
03140           -4400.00
03141           -3800.00
03142           -3800.00
03143           -3800.00
03144           -3400.00
03145           -3400.00
03146           -3200.00
03147           -2800.00
03148           -2800.00
03149           -2600.00
03150           -2200.00
03151           -2200.00
03152           -2000.00
03153           -1800.00
03154           -1400.00
03155           -1400.00
03156           -1200.00
03157           -1000.00
03158            -600.00
03159            -600.00
03160            -400.00
03161            -200.00
03162            -200.00
03163             200.00
03164             400.00
03165             600.00
03166             600.00
03167            1000.00
03168            1200.00
03169            1200.00
03170            1400.00
03171            1800.00
03172            2000.00
03173            2200.00
03174            2200.00
03175            2200.00
03176            2600.00
03177            2800.00
03178            2800.00
03179            3000.00
03180            3400.00
03181            3600.00
03182            3600.00
03183            3800.00
03184            3800.00
03185            4200.00
03186            4400.00
03187            4400.00
03188            4800.00
03189            5000.00
03190            5200.00
03191            5200.00
03192            5400.00
03193            5800.00
03194            5800.00
03195            6000.00
03196            6200.00
03197            6200.00
03198            6600.00
03199            6600.00
03200            6600.00
03201            6800.00
03202            7000.00
03203            7400.00
03204            7600.00
03205            7600.00
03206            7600.00
03207            7800.00
03208            7800.00
03209            8200.00
03210            8200.00
03211            8200.00
03212            8400.00
03213            8400.00
03214            8600.00
03215            8800.00
03216            9000.00
03217            9000.00
03218            9000.00
03219            9000.00
03220            9200.00
03221            9400.00
03222            9400.00
03223            9600.00
03224            9600.00
03225            9800.00
03226            9800.00
03227            9800.00
03228            9800.00
03229           10000.00
03230           10000.00
03231           10200.00
03232           10000.00
03233           10200.00
03234           10200.00
03235           10200.00
03236           10200.00
03237           10200.00
03238           10400.00
03239           10400.00
03240           10600.00
03241           10600.00
03242           10600.00
03243           10200.00
03244           10600.00
03245           10400.00
03246           10200.00
03247           10400.00
03248           10400.00
03249           10600.00
03250           10200.00
03251           10200.00
03252           10200.00
03253           10200.00
03254           10200.00
03255           10200.00
03256           10200.00
03257           10200.00
03258           10000.00
03259           10000.00
03260           10000.00
03261           10000.00
03262           10000.00
03263            9800.00
03264           10000.00
03265            9600.00
03266            9600.00
03267            9400.00
03268            9600.00
03269            9400.00
03270            9200.00
03271            9200.00
03272            9000.00
03273            9200.00
03274            9000.00
03275            8800.00
03276            8600.00
03277            8400.00
03278            8400.00
03279            8400.00
03280            8200.00
03281            8200.00
03282            8000.00
03283            7800.00
03284            7800.00
03285            7600.00
03286            7600.00
03287            7400.00
03288            7400.00
03289            7000.00
03290            6800.00
03291            6800.00
03292            6600.00
03293            6600.00
03294            6200.00
03295            6000.00
03296            6000.00
03297            5800.00
03298            5600.00
03299            5600.00
03300            5400.00
03301            5200.00
03302            5000.00
03303            5000.00
03304            4600.00
03305            4400.00
03306            4200.00
03307            4200.00
03308            3800.00
03309            3600.00
03310            3600.00
03311            3400.00
03312            3000.00
03313            3000.00
03314            2800.00
03315            2600.00
03316            2200.00
03317            2000.00
03318            2000.00
03319            1800.00
03320            1600.00
03321            1400.00
03322            1200.00
03323            1000.00
03324            1000.00
03325             400.00
03326             400.00
03327             200.00
03328             200.00
03329            -200.00
03330            -400.00
03331            -600.00
03332            -600.00
03333           -1000.00
03334           -1000.00
03335           -1200.00
03336           -1200.00
03337           -1800.00
03338           -1800.00
03339           -2200.00
03340           -2400.00
03341           -2400.00
03342           -2200.00
03343           -2800.00
03344           -3000.00
03345           -2800.00
03346           -3200.00
03347           -3600.00
03348           -3600.00
03349           -3800.00
03350           -4200.00
03351           -4200.00
03352           -4200.00
03353           -4600.00
03354           -4600.00
03355           -5000.00
03356           -5200.00
03357           -5200.00
03358           -5400.00
03359           -5800.00
03360           -5800.00
03361           -6000.00
03362           -6000.00
03363           -6200.00
03364           -6400.00
03365           -6600.00
03366           -6800.00
03367           -6800.00
03368           -7000.00
03369           -7000.00
03370           -7400.00
03371           -7600.00
03372           -7800.00
03373           -7800.00
03374           -7800.00
03375           -8200.00
03376           -8200.00
03377           -8400.00
03378           -8600.00
03379           -8400.00
03380           -8600.00
03381           -8600.00
03382           -9000.00
03383           -8800.00
03384           -9200.00
03385           -9200.00
03386           -9200.00
03387           -9200.00
03388           -9400.00
03389           -9400.00
03390           -9400.00
03391           -9600.00
03392           -9600.00
03393           -9800.00
03394          -10000.00
03395          -10000.00
03396          -10000.00
03397          -10200.00
03398          -10000.00
03399          -10000.00
03400          -10200.00
03401          -10200.00
03402          -10200.00
03403          -10200.00
03404          -10200.00
03405          -10200.00
03406          -10400.00
03407          -10200.00
03408          -10200.00
03409          -10200.00
03410          -10200.00
03411          -10400.00
03412          -10200.00
03413          -10200.00
03414          -10200.00
03415          -10200.00
03416          -10200.00
03417          -10200.00
03418          -10200.00
03419          -10200.00
03420          -10200.00
03421          -10200.00
03422          -10200.00
03423          -10200.00
03424          -10000.00
03425          -10000.00
03426          -10000.00
03427           -9800.00
03428           -9800.00
03429           -9800.00
03430           -9800.00
03431           -9800.00
03432           -9400.00
03433           -9400.00
03434           -9400.00
03435           -9200.00
03436           -9200.00
03437           -9200.00
03438           -9200.00
03439           -9200.00
03440           -9000.00
03441           -8800.00
03442           -8600.00
03443           -8600.00
03444           -8600.00
03445           -8400.00
03446           -8200.00
03447           -8200.00
03448           -7800.00
03449           -7800.00
03450           -7600.00
03451           -7600.00
03452           -7600.00
03453           -7200.00
03454           -7200.00
03455           -7000.00
03456           -7000.00
03457           -6800.00
03458           -6800.00
03459           -6600.00
03460           -6200.00
03461           -6200.00
03462           -6000.00
03463           -5800.00
03464           -5600.00
03465           -5400.00
03466           -5200.00
03467           -5000.00
03468           -5200.00
03469           -4600.00
03470           -4600.00
03471           -4400.00
03472           -4200.00
03473           -4200.00
03474           -3800.00
03475           -3800.00
03476           -3600.00
03477           -3400.00
03478           -3000.00
03479           -2800.00
03480           -2800.00
03481           -2600.00
03482           -2400.00
03483           -2000.00
03484           -2000.00
03485           -1800.00
03486           -1400.00
03487           -1200.00
03488           -1200.00
03489           -1000.00
03490            -800.00
03491            -600.00
03492            -400.00
03493            -200.00
03494            -200.00
03495             200.00
03496             200.00
03497             600.00
03498             600.00
03499            1000.00
03500            1200.00
03501            1200.00
03502            1400.00
03503            1400.00
03504            1800.00
03505            2200.00
03506            2200.00
03507            2200.00
03508            2600.00
03509            2800.00
03510            2800.00
03511            3000.00
03512            3400.00
03513            3600.00
03514            3600.00
03515            3800.00
03516            3800.00
03517            4400.00
03518            4200.00
03519            4600.00
03520            4600.00
03521            5000.00
03522            5200.00
03523            5200.00
03524            5400.00
03525            5800.00
03526            5800.00
03527            5800.00
03528            6000.00
03529            6200.00
03530            6600.00
03531            6600.00
03532            6800.00
03533            6800.00
03534            7000.00
03535            7400.00
03536            7400.00
03537            7400.00
03538            7600.00
03539            7800.00
03540            7800.00
03541            8200.00
03542            8200.00
03543            8400.00
03544            8400.00
03545            8600.00
03546            8600.00
03547            8600.00
03548            9000.00
03549            9000.00
03550            9000.00
03551            9200.00
03552            9200.00
03553            9400.00
03554            9400.00
03555            9400.00
03556            9600.00
03557            9800.00
03558            9800.00
03559           10000.00
03560           10000.00
03561           10000.00
03562           10000.00
03563           10000.00
03564           10000.00
03565           10200.00
03566           10200.00
03567           10200.00
03568           10400.00
03569           10200.00
03570           10200.00
03571           10200.00
03572           10200.00
03573           10400.00
03574           10400.00
03575           10200.00
03576           10600.00
03577           10600.00
03578           10400.00
03579           10200.00
03580           10600.00
03581           10400.00
03582           10200.00
03583           10200.00
03584           10200.00
03585           10200.00
03586           10200.00
03587           10200.00
03588           10000.00
03589           10000.00
03590           10000.00
03591           10000.00
03592           10000.00
03593           10000.00
03594            9800.00
03595           10000.00
03596            9800.00
03597            9800.00
03598            9600.00
03599            9400.00
03600            9400.00
03601            9200.00
03602            9200.00
03603            9200.00
03604            9200.00
03605            9000.00
03606            9000.00
03607            9000.00
03608            8600.00
03609            8600.00
03610            8400.00
03611            8400.00
03612            8200.00
03613            8200.00
03614            8000.00
03615            7800.00
03616            7800.00
03617            7800.00
03618            7400.00
03619            7400.00
03620            7200.00
03621            7000.00
03622            6800.00
03623            6800.00
03624            6600.00
03625            6600.00
03626            6400.00
03627            6200.00
03628            6000.00
03629            5800.00
03630            5800.00
03631            5400.00
03632            5200.00
03633            5200.00
03634            5000.00
03635            4800.00
03636            4400.00
03637            4400.00
03638            4200.00
03639            4000.00
03640            3800.00
03641            3600.00
03642            3600.00
03643            3400.00
03644            3200.00
03645            3000.00
03646            2600.00
03647            2600.00
03648            2400.00
03649            2200.00
03650            2000.00
03651            1800.00
03652            1800.00
03653            1400.00
03654            1200.00
03655            1000.00
03656            1000.00
03657             600.00
03658             400.00
03659             200.00
03660               0.00
03661            -200.00
03662            -400.00
03663            -600.00
03664            -600.00
03665           -1000.00
03666           -1000.00
03667           -1200.00
03668           -1200.00
03669           -1600.00
03670           -1800.00
03671           -2200.00
03672           -2600.00
03673           -2200.00
03674           -2200.00
03675           -2800.00
03676           -3000.00
03677           -3000.00
03678           -3400.00
03679           -3600.00
03680           -3600.00
03681           -3800.00
03682           -4200.00
03683           -4400.00
03684           -4200.00
03685           -4600.00
03686           -4600.00
03687           -5000.00
03688           -5200.00
03689           -5200.00
03690           -5400.00
03691           -5800.00
03692           -5800.00
03693           -6000.00
03694           -6200.00
03695           -6200.00
03696           -6600.00
03697           -6800.00
03698           -6800.00
03699           -7000.00
03700           -7000.00
03701           -7400.00
03702           -7400.00
03703           -7600.00
03704           -7600.00
03705           -7800.00
03706           -8000.00
03707           -8000.00
03708           -8200.00
03709           -8400.00
03710           -8400.00
03711           -8600.00
03712           -8600.00
03713           -8800.00
03714           -8800.00
03715           -9000.00
03716           -9200.00
03717           -9200.00
03718           -9200.00
03719           -9200.00
03720           -9400.00
03721           -9400.00
03722           -9400.00
03723           -9800.00
03724           -9800.00
03725           -9800.00
03726           -9800.00
03727           -9800.00
03728          -10000.00
03729          -10000.00
03730          -10200.00
03731          -10000.00
03732          -10200.00
03733          -10200.00
03734          -10200.00
03735          -10200.00
03736          -10200.00
03737          -10200.00
03738          -10200.00
03739          -10200.00
03740          -10200.00
03741          -10200.00
03742          -10200.00
03743          -10200.00
03744          -10200.00
03745          -10200.00
03746          -10200.00
03747          -10200.00
03748          -10200.00
03749          -10200.00
03750          -10200.00
03751          -10200.00
03752          -10200.00
03753          -10200.00
03754          -10200.00
03755          -10200.00
03756          -10000.00
03757          -10000.00
03758          -10000.00
03759           -9800.00
03760           -9800.00
03761           -9800.00
03762           -9800.00
03763           -9800.00
03764           -9400.00
03765           -9400.00
03766           -9400.00
03767           -9400.00
03768           -9400.00
03769           -9200.00
03770           -9200.00
03771           -9000.00
03772           -9000.00
03773           -8800.00
03774           -8600.00
03775           -8600.00
03776           -8400.00
03777           -8600.00
03778           -8400.00
03779           -8200.00
03780           -7800.00
03781           -7800.00
03782           -7600.00
03783           -7600.00
03784           -7600.00
03785           -7400.00
03786           -7000.00
03787           -7000.00
03788           -6800.00
03789           -6800.00
03790           -6600.00
03791           -6200.00
03792           -6200.00
03793           -6000.00
03794           -6000.00
03795           -5800.00
03796           -5800.00
03797           -5400.00
03798           -5400.00
03799           -5000.00
03800           -4800.00
03801           -4600.00
03802           -4400.00
03803           -4400.00
03804           -4200.00
03805           -3800.00
03806           -3800.00
03807           -3600.00
03808           -3400.00
03809           -3000.00
03810           -3000.00
03811           -2800.00
03812           -2800.00
03813           -2600.00
03814           -2200.00
03815           -2200.00
03816           -2000.00
03817           -1800.00
03818           -1400.00
03819           -1200.00
03820           -1200.00
03821           -1000.00
03822            -800.00
03823            -600.00
03824            -400.00
03825            -400.00
03826             200.00
03827             200.00
03828             200.00
03829             400.00
03830             600.00
03831            1000.00
03832            1000.00
03833            1200.00
03834            1400.00
03835            1600.00
03836            1800.00
03837            2000.00
03838            2200.00
03839            2600.00
03840            2600.00
03841            2800.00
03842            2800.00
03843            3000.00
03844            3400.00
03845            3600.00
03846            3600.00
03847            3800.00
03848            4200.00
03849            4200.00
03850            4400.00
03851            4400.00
03852            4800.00
03853            5000.00
03854            5200.00
03855            5200.00
03856            5400.00
03857            5800.00
03858            5800.00
03859            5800.00
03860            6200.00
03861            6200.00
03862            6600.00
03863            6800.00
03864            6800.00
03865            6800.00
03866            7000.00
03867            7400.00
03868            7400.00
03869            7600.00
03870            7600.00
03871            7800.00
03872            7800.00
03873            8200.00
03874            8200.00
03875            8200.00
03876            8400.00
03877            8600.00
03878            8400.00
03879            9000.00
03880            8600.00
03881            9000.00
03882            9200.00
03883            9000.00
03884            9200.00
03885            9400.00
03886            9400.00
03887            9800.00
03888            9400.00
03889            9800.00
03890            9800.00
03891            9800.00
03892            9800.00
03893           10000.00
03894           10000.00
03895           10000.00
03896           10000.00
03897           10200.00
03898           10000.00
03899           10200.00
03900           10200.00
03901           10200.00
03902           10200.00
03903           10200.00
03904           10400.00
03905           10600.00
03906           10200.00
03907           10400.00
03908           10400.00
03909           10200.00
03910           10400.00
03911           10600.00
03912           10200.00
03913           10600.00
03914           10200.00
03915           10200.00
03916           10200.00
03917           10400.00
03918           10200.00
03919           10200.00
03920           10000.00
03921           10200.00
03922           10000.00
03923           10200.00
03924           10000.00
03925           10000.00
03926           10000.00
03927            9800.00
03928            9800.00
03929            9800.00
03930            9600.00
03931            9800.00
03932            9600.00
03933            9400.00
03934            9200.00
03935            9200.00
03936            9200.00
03937            9000.00
03938            9000.00
03939            9000.00
03940            8600.00
03941            8600.00
03942            8600.00
03943            8400.00
03944            8400.00
03945            8200.00
03946            8200.00
03947            8000.00
03948            7800.00
03949            7600.00
03950            7600.00
03951            7400.00
03952            7200.00
03953            7000.00
03954            7000.00
03955            6800.00
03956            6600.00
03957            6600.00
03958            6200.00
03959            6000.00
03960            5800.00
03961            5800.00
03962            5800.00
03963            5400.00
03964            5200.00
03965            5200.00
03966            5000.00
03967            4800.00
03968            4400.00
03969            4400.00
03970            4200.00
03971            4200.00
03972            3800.00
03973            3600.00
03974            3400.00
03975            3400.00
03976            3000.00
03977            2800.00
03978            2800.00
03979            2600.00
03980            2200.00
03981            2200.00
03982            2000.00
03983            1800.00
03984            1800.00
03985            1600.00
03986            1200.00
03987            1000.00
03988            1000.00
03989             600.00
03990             400.00
03991             400.00
03992             200.00
03993            -200.00
03994            -400.00
03995            -400.00
03996            -600.00
03997            -600.00
03998           -1000.00
03999           -1200.00
04000           -1200.00
04001           -1400.00
04002           -1800.00
04003           -2200.00
04004           -2200.00
04005           -2200.00
04006           -2200.00
04007           -2800.00
04008           -2800.00
04009           -3000.00
04010           -3400.00
04011           -3600.00
04012           -3600.00
04013           -3800.00
04014           -4400.00
04015           -4200.00
04016           -4200.00
04017           -4600.00
04018           -4600.00
04019           -5000.00
04020           -5000.00
04021           -5200.00
04022           -5400.00
04023           -5800.00
04024           -5800.00
04025           -6000.00
04026           -6200.00
04027           -6200.00
04028           -6400.00
04029           -6800.00
04030           -6800.00
04031           -7000.00
04032           -7000.00
04033           -7000.00
04034           -7400.00
04035           -7600.00
04036           -7600.00
04037           -7800.00
04038           -8000.00
04039           -8000.00
04040           -8400.00
04041           -8400.00
04042           -8400.00
04043           -8400.00
04044           -8600.00
04045           -8600.00
04046           -8800.00
04047           -9000.00
04048           -9200.00
04049           -9200.00
04050           -9200.00
04051           -9400.00
04052           -9200.00
04053           -9400.00
04054           -9400.00
04055           -9400.00
04056           -9800.00
04057           -9800.00
04058           -9800.00
04059           -9800.00
04060          -10000.00
04061          -10000.00
04062          -10000.00
04063          -10000.00
04064          -10200.00
04065          -10200.00
04066          -10200.00
04067          -10200.00
04068          -10200.00
04069          -10200.00
04070          -10200.00
04071          -10400.00
04072          -10200.00
04073          -10400.00
04074          -10200.00
04075          -10600.00
04076          -10200.00
04077          -10200.00
04078          -10200.00
04079          -10200.00
04080          -10200.00
04081          -10200.00
04082          -10200.00
04083          -10200.00
04084          -10200.00
04085          -10200.00
04086          -10200.00
04087          -10200.00
04088          -10200.00
04089          -10200.00
04090          -10000.00
04091          -10000.00
04092          -10000.00
04093           -9800.00
04094           -9800.00
04095           -9800.00
04096           -9600.00
04097           -9600.00
04098           -9400.00
04099           -9400.00
04100           -9200.00
04101           -9200.00
04102           -9000.00
04103           -9200.00
04104           -9000.00
04105           -8600.00
04106           -8600.00
04107           -8600.00
04108           -8400.00
04109           -8400.00
04110           -8400.00
04111           -8200.00
04112           -8000.00
04113           -7600.00
04114           -7800.00
04115           -7600.00
04116           -7400.00
04117           -7400.00
04118           -7000.00
04119           -7000.00
04120           -7000.00
04121           -6800.00
04122           -6800.00
04123           -6200.00
04124           -6200.00
04125           -6200.00
04126           -6000.00
04127           -5800.00
04128           -5600.00
04129           -5400.00
04130           -5200.00
04131           -5000.00
04132           -5000.00
04133           -4600.00
04134           -4600.00
04135           -4400.00
04136           -4200.00
04137           -3800.00
04138           -3800.00
04139           -3800.00
04140           -3600.00
04141           -3400.00
04142           -3000.00
04143           -2800.00
04144           -2800.00
04145           -2600.00
04146           -2200.00
04147           -2200.00
04148           -2000.00
04149           -1800.00
04150           -1400.00
04151           -1400.00
04152           -1200.00
04153           -1000.00
04154            -600.00
04155            -600.00
04156            -600.00
04157            -400.00
04158            -200.00
04159             200.00
04160             200.00
04161             400.00
04162             400.00
04163            1000.00
04164            1200.00
04165            1200.00
04166            1400.00
04167            1400.00
04168            1800.00
04169            2000.00
04170            2200.00
04171            2200.00
04172            2600.00
04173            2600.00
04174            3000.00
04175            3000.00
04176            3400.00
04177            3400.00
04178            3600.00
04179            3800.00
04180            4200.00
04181            4200.00
04182            4400.00
04183            4600.00
04184            4600.00
04185            5000.00
04186            5200.00
04187            5200.00
04188            5400.00
04189            5800.00
04190            5800.00
04191            6000.00
04192            6200.00
04193            6200.00
04194            6600.00
04195            6800.00
04196            6800.00
04197            7000.00
04198            7200.00
04199            7400.00
04200            7400.00
04201            7400.00
04202            7800.00
04203            7800.00
04204            8000.00
04205            7800.00
04206            8200.00
04207            8400.00
04208            8600.00
04209            8600.00
04210            8600.00
04211            9000.00
04212            8600.00
04213            9000.00
04214            9200.00
04215            9200.00
04216            9200.00
04217            9200.00
04218            9400.00
04219            9400.00
04220            9400.00
04221            9800.00
04222            9800.00
04223            9800.00
04224            9800.00
04225           10000.00
04226           10000.00
04227           10000.00
04228           10000.00
04229           10000.00
04230           10200.00
04231           10200.00
04232           10200.00
04233           10200.00
04234           10200.00
04235           10200.00
04236           10600.00
04237           10200.00
04238           10400.00
04239           10400.00
04240           10600.00
04241           10400.00
04242           10400.00
04243           10600.00
04244           10400.00
04245           10600.00
04246           10600.00
04247           10600.00
04248           10200.00
04249           10200.00
04250           10200.00
04251           10200.00
04252           10200.00
04253           10000.00
04254           10000.00
04255           10000.00
04256           10200.00
04257           10000.00
04258           10000.00
04259            9800.00
04260           10000.00
04261            9800.00
04262            9600.00
04263            9800.00
04264            9600.00
04265            9400.00
04266            9400.00
04267            9200.00
04268            9200.00
04269            9000.00
04270            9000.00
04271            9000.00
04272            8600.00
04273            8600.00
04274            8400.00
04275            8400.00
04276            8400.00
04277            8200.00
04278            8200.00
04279            7800.00
04280            7800.00
04281            7600.00
04282            7400.00
04283            7400.00
04284            7200.00
04285            7000.00
04286            6800.00
04287            6800.00
04288            6600.00
04289            6600.00
04290            6200.00
04291            6200.00
04292            5800.00
04293            5800.00
04294            5800.00
04295            5200.00
04296            5200.00
04297            5200.00
04298            5000.00
04299            4600.00
04300            4600.00
04301            4400.00
04302            4200.00
04303            4200.00
04304            3800.00
04305            3600.00
04306            3600.00
04307            3400.00
04308            3200.00
04309            3000.00
04310            2800.00
04311            2600.00
04312            2400.00
04313            2200.00
04314            2000.00
04315            2000.00
04316            1800.00
04317            1400.00
04318            1200.00
04319            1200.00
04320            1000.00
04321             600.00
04322             400.00
04323             400.00
04324             200.00
04325            -200.00
04326            -200.00
04327            -400.00
04328            -600.00
04329            -600.00
04330           -1000.00
04331           -1200.00
04332           -1200.00
04333           -1400.00
04334           -1800.00
04335           -2200.00
04336           -2400.00
04337           -2200.00
04338           -2200.00
04339           -2800.00
04340           -3000.00
04341           -3000.00
04342           -3200.00
04343           -3600.00
04344           -3600.00
04345           -3800.00
04346           -4200.00
04347           -4400.00
04348           -4400.00
04349           -4600.00
04350           -4800.00
04351           -5000.00
04352           -5200.00
04353           -5200.00
04354           -5400.00
04355           -5800.00
04356           -5800.00
04357           -6000.00
04358           -6200.00
04359           -6200.00
04360           -6600.00
04361           -6600.00
04362           -6800.00
04363           -7000.00
04364           -7000.00
04365           -7200.00
04366           -7400.00
04367           -7400.00
04368           -7600.00
04369           -7800.00
04370           -8000.00
04371           -8000.00
04372           -8200.00
04373           -8400.00
04374           -8400.00
04375           -8400.00
04376           -8600.00
04377           -8600.00
04378           -8800.00
04379           -9000.00
04380           -9000.00
04381           -9200.00
04382           -9200.00
04383           -9200.00
04384           -9400.00
04385           -9400.00
04386           -9400.00
04387           -9600.00
04388           -9800.00
04389           -9800.00
04390          -10000.00
04391          -10000.00
04392          -10000.00
04393          -10000.00
04394          -10000.00
04395          -10000.00
04396          -10200.00
04397          -10200.00
04398          -10200.00
04399          -10200.00
04400          -10200.00
04401          -10200.00
04402          -10200.00
04403          -10200.00
04404          -10200.00
04405          -10200.00
04406          -10200.00
04407          -10400.00
04408          -10400.00
04409          -10200.00
04410          -10600.00
04411          -10200.00
04412          -10200.00
04413          -10400.00
04414          -10200.00
04415          -10200.00
04416          -10200.00
04417          -10200.00
04418          -10200.00
04419          -10200.00
04420          -10200.00
04421          -10000.00
04422          -10200.00
04423          -10000.00
04424          -10000.00
04425           -9800.00
04426           -9800.00
04427           -9800.00
04428           -9600.00
04429           -9800.00
04430           -9400.00
04431           -9400.00
04432           -9400.00
04433           -9200.00
04434           -9200.00
04435           -9000.00
04436           -9000.00
04437           -9000.00
04438           -8600.00
04439           -8600.00
04440           -8400.00
04441           -8400.00
04442           -8200.00
04443           -8200.00
04444           -7800.00
04445           -7800.00
04446           -7800.00
04447           -7600.00
04448           -7600.00
04449           -7400.00
04450           -7000.00
04451           -7000.00
04452           -7000.00
04453           -6800.00
04454           -6600.00
04455           -6200.00
04456           -6000.00
04457           -6200.00
04458           -5800.00
04459           -5800.00
04460           -5600.00
04461           -5400.00
04462           -5200.00
04463           -5200.00
04464           -5000.00
04465           -4800.00
04466           -4400.00
04467           -4400.00
04468           -4200.00
04469           -3800.00
04470           -3800.00
04471           -3800.00
04472           -3600.00
04473           -3200.00
04474           -3000.00
04475           -2800.00
04476           -2800.00
04477           -2600.00
04478           -2400.00
04479           -2200.00
04480           -2000.00
04481           -2000.00
04482           -1800.00
04483           -1400.00
04484           -1200.00
04485           -1200.00
04486            -800.00
04487            -600.00
04488            -400.00
04489            -200.00
04490            -200.00
04491             200.00
04492             200.00
04493             400.00
04494             400.00
04495            1000.00
04496            1000.00
04497            1200.00
04498            1200.00
04499            1600.00
04500            1800.00
04501            2200.00
04502            2200.00
04503            2400.00
04504            2600.00
04505            2800.00
04506            3000.00
04507            3400.00
04508            3400.00
04509            3600.00
04510            3600.00
04511            3800.00
04512            4200.00
04513            4200.00
04514            4400.00
04515            4600.00
04516            5000.00
04517            5000.00
04518            5200.00
04519            5200.00
04520            5800.00
04521            5800.00
04522            5800.00
04523            6000.00
04524            6200.00
04525            6400.00
04526            6600.00
04527            6600.00
04528            6800.00
04529            7000.00
04530            7000.00
04531            7400.00
04532            7600.00
04533            7600.00
04534            7600.00
04535            8000.00
04536            7800.00
04537            8200.00
04538            8200.00
04539            8400.00
04540            8400.00
04541            8400.00
04542            8600.00
04543            9000.00
04544            9000.00
04545            9000.00
04546            9000.00
04547            9000.00
04548            9200.00
04549            9400.00
04550            9400.00
04551            9400.00
04552            9400.00
04553            9800.00
04554            9800.00
04555            9800.00
04556            9800.00
04557           10000.00
04558           10000.00
04559           10000.00
04560           10000.00
04561           10200.00
04562           10200.00
04563           10000.00
04564           10400.00
04565           10200.00
04566           10200.00
04567           10400.00
04568           10400.00
04569           10600.00
04570           10200.00
04571           10600.00
04572           10600.00
04573           10600.00
04574           10400.00
04575           10600.00
04576           10400.00
04577           10600.00
04578           10200.00
04579           10600.00
04580           10400.00
04581           10200.00
04582           10400.00
04583           10200.00
04584           10200.00
04585           10200.00
04586           10200.00
04587           10000.00
04588           10000.00
04589           10000.00
04590           10000.00
04591           10000.00
04592            9800.00
04593            9800.00
04594            9800.00
04595            9600.00
04596            9800.00
04597            9400.00
04598            9400.00
04599            9200.00
04600            9200.00
04601            9200.00
04602            9000.00
04603            8800.00
04604            8600.00
04605            8600.00
04606            8400.00
04607            8400.00
04608            8200.00
04609            8200.00
04610            7800.00
04611            7800.00
04612            7800.00
04613            7600.00
04614            7400.00
04615            7400.00
04616            7000.00
04617            7000.00
04618            6800.00
04619            6800.00
04620            6600.00
04621            6600.00
04622            6200.00
04623            6000.00
04624            6000.00
04625            5800.00
04626            5800.00
04627            5400.00
04628            5200.00
04629            5200.00
04630            5000.00
04631            5000.00
04632            4600.00
04633            4400.00
04634            4200.00
04635            4200.00
04636            4000.00
04637            3600.00
04638            3600.00
04639            3400.00
04640            3200.00
04641            3000.00
04642            2800.00
04643            2600.00
04644            2400.00
04645            2200.00
04646            2000.00
04647            2000.00
04648            1800.00
04649            1400.00
04650            1400.00
04651            1200.00
04652            1000.00
04653             800.00
04654             400.00
04655             400.00
04656             200.00
04657               0.00
04658            -400.00
04659            -400.00
04660            -600.00
04661            -600.00
04662           -1000.00
04663           -1000.00
04664           -1400.00
04665           -1400.00
04666           -1800.00
04667           -2200.00
04668           -2200.00
04669           -2200.00
04670           -2200.00
04671           -2800.00
04672           -3000.00
04673           -3000.00
04674           -3400.00
04675           -3600.00
04676           -3800.00
04677           -3800.00
04678           -4200.00
04679           -4200.00
04680           -4400.00
04681           -4600.00
04682           -4600.00
04683           -5000.00
04684           -5000.00
04685           -5400.00
04686           -5400.00
04687           -5800.00
04688           -5800.00
04689           -6000.00
04690           -6200.00
04691           -6200.00
04692           -6600.00
04693           -6800.00
04694           -6800.00
04695           -7000.00
04696           -7000.00
04697           -7400.00
04698           -7400.00
04699           -7600.00
04700           -7600.00
04701           -7800.00
04702           -8000.00
04703           -8000.00
04704           -8200.00
04705           -8400.00
04706           -8400.00
04707           -8600.00
04708           -8600.00
04709           -8600.00
04710           -9000.00
04711           -9000.00
04712           -8800.00
04713           -9200.00
04714           -9200.00
04715           -9400.00
04716           -9400.00
04717           -9200.00
04718           -9400.00
04719           -9800.00
04720           -9800.00
04721           -9800.00
04722           -9800.00
04723           -9800.00
04724          -10000.00
04725          -10000.00
04726          -10000.00
04727          -10200.00
04728          -10200.00
04729          -10200.00
04730          -10200.00
04731          -10200.00
04732          -10200.00
04733          -10200.00
04734          -10200.00
04735          -10200.00
04736          -10200.00
04737          -10600.00
04738          -10200.00
04739          -10400.00
04740          -10400.00
04741          -10200.00
04742          -10400.00
04743          -10600.00
04744          -10400.00
04745          -10200.00
04746          -10200.00
04747          -10200.00
04748          -10200.00
04749          -10200.00
04750          -10000.00
04751          -10200.00
04752          -10200.00
04753          -10000.00
04754          -10200.00
04755           -9800.00
04756          -10000.00
04757           -9800.00
04758           -9800.00
04759           -9800.00
04760           -9800.00
04761           -9400.00
04762           -9400.00
04763           -9400.00
04764           -9200.00
04765           -9200.00
04766           -9200.00
04767           -9000.00
04768           -9000.00
04769           -8600.00
04770           -8600.00
04771           -8400.00
04772           -8400.00
04773           -8400.00
04774           -8200.00
04775           -8200.00
04776           -8000.00
04777           -7800.00
04778           -7600.00
04779           -7600.00
04780           -7400.00
04781           -7200.00
04782           -7000.00
04783           -7000.00
04784           -6800.00
04785           -6800.00
04786           -6600.00
04787           -6400.00
04788           -6200.00
04789           -6000.00
04790           -6000.00
04791           -5800.00
04792           -5600.00
04793           -5400.00
04794           -5200.00
04795           -5000.00
04796           -5000.00
04797           -4600.00
04798           -4600.00
04799           -4400.00
04800           -4400.00
04801           -3800.00
04802           -3800.00
04803           -3600.00
04804           -3600.00
04805           -3400.00
04806           -3200.00
04807           -3000.00
04808           -2800.00
04809           -2800.00
04810           -2200.00
04811           -2200.00
04812           -2000.00
04813           -2000.00
04814           -1600.00
04815           -1400.00
04816           -1200.00
04817           -1000.00
04818            -800.00
04819            -600.00
04820            -600.00
04821            -200.00
04822            -200.00
04823               0.00
04824             200.00
04825             600.00
04826             600.00
04827             800.00
04828            1000.00
04829            1200.00
04830            1200.00
04831            1600.00
04832            1800.00
04833            2000.00
04834            2200.00
04835            2400.00
04836            2600.00
04837            2800.00
04838            3000.00
04839            3000.00
04840            3400.00
04841            3600.00
04842            3600.00
04843            3800.00
04844            4200.00
04845            4200.00
04846            4400.00
04847            4400.00
04848            5000.00
04849            5000.00
04850            5200.00
04851            5200.00
04852            5400.00
04853            5800.00
04854            5800.00
04855            6000.00
04856            6000.00
04857            6200.00
04858            6600.00
04859            6800.00
04860            6800.00
04861            7000.00
04862            7000.00
04863            7000.00
04864            7400.00
04865            7600.00
04866            7600.00
04867            7800.00
04868            7800.00
04869            8000.00
04870            8200.00
04871            8200.00
04872            8400.00
04873            8400.00
04874            8600.00
04875            8600.00
04876            8600.00
04877            9000.00
04878            9000.00
04879            9000.00
04880            9200.00
04881            9400.00
04882            9200.00
04883            9400.00
04884            9600.00
04885            9600.00
04886            9800.00
04887            9800.00
04888            9800.00
04889            9800.00
04890           10000.00
04891           10000.00
04892           10000.00
04893           10200.00
04894           10000.00
04895           10200.00
04896           10200.00
04897           10200.00
04898           10200.00
04899           10400.00
04900           10400.00
04901           10400.00
04902           10200.00
04903           10200.00
04904           10600.00
04905           10600.00
04906           10600.00
04907           10600.00
04908           10600.00
04909           10600.00
04910           10600.00
04911           10600.00
04912           10200.00
04913           10400.00
04914           10200.00
04915           10200.00
04916           10200.00
04917           10200.00
04918           10000.00
04919           10000.00
04920           10000.00
04921           10000.00
04922            9800.00
04923           10000.00
04924            9800.00
04925            9800.00
04926            9800.00
04927            9800.00
04928            9400.00
04929            9400.00
04930            9200.00
04931            9400.00
04932            9000.00
04933            9000.00
04934            9000.00
04935            8600.00
04936            9000.00
04937            8400.00
04938            8400.00
04939            8400.00
04940            8200.00
04941            8200.00
04942            8000.00
04943            7800.00
04944            7600.00
04945            7600.00
04946            7400.00
04947            7400.00
04948            7000.00
04949            7000.00
04950            6800.00
04951            6600.00
04952            6600.00
04953            6200.00
04954            6200.00
04955            6200.00
04956            5800.00
04957            5800.00
04958            5400.00
04959            5400.00
04960            5200.00
04961            5200.00
04962            5000.00
04963            4600.00
04964            4600.00
04965            4600.00
04966            4400.00
04967            4200.00
04968            3800.00
04969            3800.00
04970            3600.00
04971            3400.00
04972            3400.00
04973            3000.00
04974            2800.00
04975            2600.00
04976            2600.00
04977            2200.00
04978            2000.00
04979            1800.00
04980            1800.00
04981            1600.00
04982            1200.00
04983            1200.00
04984            1000.00
04985             600.00
04986             400.00
04987             400.00
04988             200.00
04989            -200.00
04990            -200.00
04991            -600.00
04992            -600.00
04993            -800.00
04994           -1000.00
04995           -1200.00
04996           -1400.00
04997           -1400.00
04998           -2000.00
04999           -2000.00
05000           -2600.00
