Unit:(mV)
                     CH1
Frequency    301.043 kHz
00001            2200.00
00002            1800.00
00003            1200.00
00004            1000.00
00005             400.00
00006             200.00
00007            -400.00
00008            -600.00
00009           -1200.00
00010           -1600.00
00011           -2000.00
00012           -2200.00
00013           -2800.00
00014           -2800.00
00015           -3600.00
00016           -4200.00
00017           -4600.00
00018           -5000.00
00019           -5200.00
00020           -5400.00
00021           -5800.00
00022           -6400.00
00023           -6800.00
00024           -7200.00
00025           -7600.00
00026           -7800.00
00027           -8400.00
00028           -8800.00
00029           -9200.00
00030           -9400.00
00031           -9800.00
00032          -10200.00
00033          -10800.00
00034          -10800.00
00035          -11400.00
00036          -11600.00
00037          -12200.00
00038          -12400.00
00039          -12600.00
00040          -13200.00
00041          -13400.00
00042          -13800.00
00043          -14000.00
00044          -14600.00
00045          -14800.00
00046          -15000.00
00047          -15400.00
00048          -15600.00
00049          -16000.00
00050          -16200.00
00051          -16600.00
00052          -17000.00
00053          -17200.00
00054          -17200.00
00055          -17400.00
00056          -18000.00
00057          -18200.00
00058          -18400.00
00059          -18800.00
00060          -18800.00
00061          -19000.00
00062          -19400.00
00063          -19600.00
00064          -19800.00
00065          -19800.00
00066          -20000.00
00067          -20200.00
00068          -20400.00
00069          -20600.00
00070          -20600.00
00071          -21000.00
00072          -21200.00
00073          -21400.00
00074          -21200.00
00075          -21400.00
00076          -21400.00
00077          -21600.00
00078          -21800.00
00079          -22000.00
00080          -22000.00
00081          -22000.00
00082          -22000.00
00083          -22200.00
00084          -22200.00
00085          -22200.00
00086          -22200.00
00087          -22200.00
00088          -22200.00
00089          -22200.00
00090          -22200.00
00091          -22200.00
00092          -22000.00
00093          -22200.00
00094          -22200.00
00095          -22000.00
00096          -22000.00
00097          -22000.00
00098          -22000.00
00099          -21800.00
00100          -21800.00
00101          -21600.00
00102          -21400.00
00103          -21400.00
00104          -21200.00
00105          -21200.00
00106          -21000.00
00107          -21000.00
00108          -20600.00
00109          -20600.00
00110          -20400.00
00111          -20200.00
00112          -20200.00
00113          -20200.00
00114          -19800.00
00115          -19600.00
00116          -19400.00
00117          -19000.00
00118          -19000.00
00119          -18800.00
00120          -18600.00
00121          -18200.00
00122          -18000.00
00123          -17600.00
00124          -17400.00
00125          -17200.00
00126          -17000.00
00127          -16600.00
00128          -16400.00
00129          -16200.00
00130          -15800.00
00131          -15600.00
00132          -15400.00
00133          -14800.00
00134          -14600.00
00135          -14200.00
00136          -14000.00
00137          -13800.00
00138          -13400.00
00139          -13000.00
00140          -12600.00
00141          -12400.00
00142          -11800.00
00143          -11600.00
00144          -11400.00
00145          -10800.00
00146          -10600.00
00147          -10200.00
00148           -9800.00
00149           -9400.00
00150           -9000.00
00151           -8600.00
00152           -8200.00
00153           -7800.00
00154           -7600.00
00155           -7000.00
00156           -6600.00
00157           -6200.00
00158           -5800.00
00159           -5400.00
00160           -4800.00
00161           -4600.00
00162           -4200.00
00163           -3800.00
00164           -3400.00
00165           -2800.00
00166           -2600.00
00167           -2200.00
00168           -1800.00
00169           -1200.00
00170            -600.00
00171            -600.00
00172            -200.00
00173             400.00
00174            1000.00
00175            1200.00
00176            1400.00
00177            2000.00
00178            2200.00
00179            2600.00
00180            3000.00
00181            3600.00
00182            3800.00
00183            4400.00
00184            5000.00
00185            5400.00
00186            5600.00
00187            6000.00
00188            6600.00
00189            6600.00
00190            7000.00
00191            7600.00
00192            7800.00
00193            8400.00
00194            8600.00
00195            9000.00
00196            9400.00
00197           10000.00
00198           10200.00
00199           10600.00
00200           10800.00
00201           11400.00
00202           11600.00
00203           12200.00
00204           12400.00
00205           12800.00
00206           13000.00
00207           13400.00
00208           13800.00
00209           14200.00
00210           14600.00
00211           14800.00
00212           15000.00
00213           15400.00
00214           15800.00
00215           16200.00
00216           16400.00
00217           16400.00
00218           16800.00
00219           17000.00
00220           17400.00
00221           17400.00
00222           18000.00
00223           18200.00
00224           18400.00
00225           18600.00
00226           18800.00
00227           19000.00
00228           19400.00
00229           19600.00
00230           19600.00
00231           19800.00
00232           20200.00
00233           20400.00
00234           20400.00
00235           20600.00
00236           20600.00
00237           21000.00
00238           21000.00
00239           21200.00
00240           21200.00
00241           21400.00
00242           21400.00
00243           21800.00
00244           21800.00
00245           21800.00
00246           21800.00
00247           22000.00
00248           22000.00
00249           22000.00
00250           22200.00
00251           22000.00
00252           22200.00
00253           22200.00
00254           22200.00
00255           22200.00
00256           22200.00
00257           22200.00
00258           22200.00
00259           22000.00
00260           22000.00
00261           21800.00
00262           22000.00
00263           21800.00
00264           22000.00
00265           21800.00
00266           21800.00
00267           21400.00
00268           21400.00
00269           21400.00
00270           21200.00
00271           21200.00
00272           21200.00
00273           21000.00
00274           20800.00
00275           20600.00
00276           20400.00
00277           20400.00
00278           20200.00
00279           20000.00
00280           19600.00
00281           19600.00
00282           19400.00
00283           19000.00
00284           19000.00
00285           18800.00
00286           18600.00
00287           18200.00
00288           18000.00
00289           17800.00
00290           17400.00
00291           17200.00
00292           17000.00
00293           16600.00
00294           16600.00
00295           16200.00
00296           15800.00
00297           15400.00
00298           15400.00
00299           14800.00
00300           14800.00
00301           14600.00
00302           14000.00
00303           13800.00
00304           13400.00
00305           13200.00
00306           12600.00
00307           12400.00
00308           11800.00
00309           11800.00
00310           11400.00
00311           11000.00
00312           10600.00
00313           10200.00
00314            9800.00
00315            9400.00
00316            9000.00
00317            8600.00
00318            8200.00
00319            8000.00
00320            7600.00
00321            7000.00
00322            6600.00
00323            6200.00
00324            5800.00
00325            5600.00
00326            5200.00
00327            4600.00
00328            4200.00
00329            3800.00
00330            3400.00
00331            3000.00
00332            2600.00
00333            2200.00
00334            1800.00
00335            1400.00
00336            1000.00
00337             400.00
00338             200.00
00339            -400.00
00340            -600.00
00341           -1200.00
00342           -1400.00
00343           -1800.00
00344           -2200.00
00345           -2600.00
00346           -2800.00
00347           -3400.00
00348           -4000.00
00349           -4600.00
00350           -5000.00
00351           -5400.00
00352           -5200.00
00353           -5800.00
00354           -6200.00
00355           -6800.00
00356           -7000.00
00357           -7400.00
00358           -7800.00
00359           -8200.00
00360           -8600.00
00361           -9200.00
00362           -9400.00
00363           -9600.00
00364          -10200.00
00365          -10600.00
00366          -10800.00
00367          -11000.00
00368          -11600.00
00369          -11800.00
00370          -12400.00
00371          -12600.00
00372          -13000.00
00373          -13400.00
00374          -13800.00
00375          -14000.00
00376          -14400.00
00377          -14800.00
00378          -15000.00
00379          -15400.00
00380          -15600.00
00381          -15800.00
00382          -16200.00
00383          -16600.00
00384          -17000.00
00385          -17000.00
00386          -17400.00
00387          -17600.00
00388          -18000.00
00389          -18000.00
00390          -18600.00
00391          -18800.00
00392          -19000.00
00393          -19000.00
00394          -19400.00
00395          -19600.00
00396          -19600.00
00397          -19800.00
00398          -20200.00
00399          -20200.00
00400          -20400.00
00401          -20600.00
00402          -20600.00
00403          -21000.00
00404          -21000.00
00405          -21200.00
00406          -21200.00
00407          -21400.00
00408          -21400.00
00409          -21800.00
00410          -21800.00
00411          -22000.00
00412          -22000.00
00413          -22000.00
00414          -22000.00
00415          -22000.00
00416          -22200.00
00417          -22200.00
00418          -22200.00
00419          -22200.00
00420          -22200.00
00421          -22200.00
00422          -22200.00
00423          -22000.00
00424          -22200.00
00425          -22200.00
00426          -22200.00
00427          -22000.00
00428          -22000.00
00429          -22000.00
00430          -21800.00
00431          -21800.00
00432          -21400.00
00433          -21400.00
00434          -21400.00
00435          -21400.00
00436          -21400.00
00437          -21200.00
00438          -21200.00
00439          -21000.00
00440          -20600.00
00441          -20600.00
00442          -20400.00
00443          -20400.00
00444          -20400.00
00445          -19800.00
00446          -19800.00
00447          -19600.00
00448          -19200.00
00449          -19000.00
00450          -18800.00
00451          -18800.00
00452          -18400.00
00453          -18200.00
00454          -18000.00
00455          -17800.00
00456          -17400.00
00457          -17200.00
00458          -17000.00
00459          -16600.00
00460          -16600.00
00461          -16000.00
00462          -15800.00
00463          -15600.00
00464          -15400.00
00465          -15000.00
00466          -14600.00
00467          -14200.00
00468          -14000.00
00469          -13800.00
00470          -13400.00
00471          -13200.00
00472          -12600.00
00473          -12400.00
00474          -11800.00
00475          -11600.00
00476          -11400.00
00477          -10800.00
00478          -10600.00
00479          -10200.00
00480           -9800.00
00481           -9400.00
00482           -9000.00
00483           -8600.00
00484           -8400.00
00485           -7800.00
00486           -7600.00
00487           -7000.00
00488           -6800.00
00489           -6200.00
00490           -6000.00
00491           -5400.00
00492           -5000.00
00493           -4600.00
00494           -4200.00
00495           -3800.00
00496           -3400.00
00497           -3000.00
00498           -2600.00
00499           -2200.00
00500           -1600.00
00501           -1200.00
00502           -1000.00
00503            -600.00
00504               0.00
00505             400.00
00506             600.00
00507            1200.00
00508            1400.00
00509            2000.00
00510            2200.00
00511            2600.00
00512            3000.00
00513            3400.00
00514            4000.00
00515            4400.00
00516            5000.00
00517            5200.00
00518            5600.00
00519            5800.00
00520            6200.00
00521            6600.00
00522            6800.00
00523            7400.00
00524            7800.00
00525            8200.00
00526            8400.00
00527            9000.00
00528            9400.00
00529            9800.00
00530           10000.00
00531           10600.00
00532           10800.00
00533           11400.00
00534           11600.00
00535           11800.00
00536           12400.00
00537           12600.00
00538           13000.00
00539           13400.00
00540           13800.00
00541           14000.00
00542           14400.00
00543           14600.00
00544           15000.00
00545           15400.00
00546           15600.00
00547           15800.00
00548           16200.00
00549           16600.00
00550           17000.00
00551           17000.00
00552           17200.00
00553           17600.00
00554           18000.00
00555           18200.00
00556           18400.00
00557           18600.00
00558           18800.00
00559           19000.00
00560           19400.00
00561           19400.00
00562           19600.00
00563           19800.00
00564           20200.00
00565           20200.00
00566           20400.00
00567           20400.00
00568           21000.00
00569           21000.00
00570           21200.00
00571           21200.00
00572           21200.00
00573           21400.00
00574           21400.00
00575           21800.00
00576           21800.00
00577           21800.00
00578           21800.00
00579           21800.00
00580           22000.00
00581           22000.00
00582           22200.00
00583           22200.00
00584           22200.00
00585           22200.00
00586           22200.00
00587           22200.00
00588           22200.00
00589           22200.00
00590           22200.00
00591           22200.00
00592           22000.00
00593           22000.00
00594           22000.00
00595           22000.00
00596           21800.00
00597           21800.00
00598           21800.00
00599           21600.00
00600           21400.00
00601           21400.00
00602           21200.00
00603           21200.00
00604           21200.00
00605           21000.00
00606           20800.00
00607           20600.00
00608           20400.00
00609           20400.00
00610           20200.00
00611           20200.00
00612           19800.00
00613           19600.00
00614           19600.00
00615           19200.00
00616           19000.00
00617           18800.00
00618           18600.00
00619           18200.00
00620           18000.00
00621           18000.00
00622           17400.00
00623           17400.00
00624           17000.00
00625           17000.00
00626           16400.00
00627           16200.00
00628           16000.00
00629           15600.00
00630           15400.00
00631           15000.00
00632           14800.00
00633           14600.00
00634           14000.00
00635           13800.00
00636           13400.00
00637           13200.00
00638           12800.00
00639           12400.00
00640           12200.00
00641           11600.00
00642           11400.00
00643           11000.00
00644           10600.00
00645           10000.00
00646           10000.00
00647            9400.00
00648            9200.00
00649            8600.00
00650            8400.00
00651            8000.00
00652            7400.00
00653            7000.00
00654            6600.00
00655            6200.00
00656            5800.00
00657            5400.00
00658            5200.00
00659            4600.00
00660            4200.00
00661            3800.00
00662            3600.00
00663            3000.00
00664            2600.00
00665            2400.00
00666            1800.00
00667            1200.00
00668            1000.00
00669             400.00
00670             200.00
00671            -400.00
00672            -600.00
00673           -1000.00
00674           -1400.00
00675           -1800.00
00676           -2200.00
00677           -2600.00
00678           -2800.00
00679           -3400.00
00680           -3800.00
00681           -4400.00
00682           -5000.00
00683           -5200.00
00684           -5400.00
00685           -5400.00
00686           -6200.00
00687           -6800.00
00688           -7000.00
00689           -7600.00
00690           -7800.00
00691           -8200.00
00692           -8600.00
00693           -9000.00
00694           -9400.00
00695           -9400.00
00696          -10200.00
00697          -10600.00
00698          -10800.00
00699          -11200.00
00700          -11600.00
00701          -12000.00
00702          -12400.00
00703          -12600.00
00704          -13000.00
00705          -13200.00
00706          -13800.00
00707          -14000.00
00708          -14200.00
00709          -14800.00
00710          -15000.00
00711          -15400.00
00712          -15600.00
00713          -15800.00
00714          -16200.00
00715          -16400.00
00716          -16600.00
00717          -17200.00
00718          -17400.00
00719          -17600.00
00720          -18000.00
00721          -18000.00
00722          -18400.00
00723          -18600.00
00724          -18800.00
00725          -19000.00
00726          -19200.00
00727          -19600.00
00728          -19800.00
00729          -19800.00
00730          -20200.00
00731          -20200.00
00732          -20400.00
00733          -20600.00
00734          -20600.00
00735          -21000.00
00736          -21200.00
00737          -21200.00
00738          -21400.00
00739          -21400.00
00740          -21400.00
00741          -21400.00
00742          -21800.00
00743          -21800.00
00744          -22000.00
00745          -22000.00
00746          -22000.00
00747          -22000.00
00748          -22200.00
00749          -22000.00
00750          -22000.00
00751          -22000.00
00752          -22200.00
00753          -22200.00
00754          -22200.00
00755          -22000.00
00756          -22200.00
00757          -22000.00
00758          -22000.00
00759          -22000.00
00760          -22000.00
00761          -22000.00
00762          -21800.00
00763          -21800.00
00764          -21600.00
00765          -21400.00
00766          -21400.00
00767          -21400.00
00768          -21400.00
00769          -21200.00
00770          -21000.00
00771          -21000.00
00772          -20600.00
00773          -20600.00
00774          -20600.00
00775          -20200.00
00776          -20400.00
00777          -19800.00
00778          -19800.00
00779          -19400.00
00780          -19400.00
00781          -19400.00
00782          -19000.00
00783          -18800.00
00784          -18600.00
00785          -18600.00
00786          -18200.00
00787          -18000.00
00788          -17400.00
00789          -17400.00
00790          -17200.00
00791          -16800.00
00792          -16400.00
00793          -16200.00
00794          -15800.00
00795          -15600.00
00796          -15400.00
00797          -15000.00
00798          -14600.00
00799          -14400.00
00800          -14000.00
00801          -13600.00
00802          -13400.00
00803          -13200.00
00804          -13000.00
00805          -12400.00
00806          -12000.00
00807          -11600.00
00808          -11400.00
00809          -11000.00
00810          -10600.00
00811          -10200.00
00812          -10000.00
00813           -9400.00
00814           -9200.00
00815           -8600.00
00816           -8400.00
00817           -7800.00
00818           -7600.00
00819           -7000.00
00820           -6600.00
00821           -6200.00
00822           -6000.00
00823           -5600.00
00824           -5000.00
00825           -4600.00
00826           -4400.00
00827           -3800.00
00828           -3400.00
00829           -3000.00
00830           -2600.00
00831           -2200.00
00832           -1800.00
00833           -1400.00
00834           -1000.00
00835            -600.00
00836            -200.00
00837             400.00
00838             600.00
00839            1200.00
00840            1400.00
00841            1800.00
00842            2000.00
00843            2600.00
00844            3000.00
00845            3400.00
00846            3600.00
00847            4400.00
00848            4800.00
00849            5200.00
00850            5400.00
00851            5800.00
00852            6200.00
00853            6600.00
00854            6800.00
00855            7400.00
00856            7800.00
00857            8200.00
00858            8400.00
00859            9000.00
00860            9200.00
00861            9800.00
00862           10000.00
00863           10400.00
00864           10800.00
00865           11000.00
00866           11600.00
00867           11800.00
00868           12200.00
00869           12400.00
00870           13000.00
00871           13200.00
00872           13800.00
00873           14000.00
00874           14200.00
00875           14600.00
00876           15000.00
00877           15400.00
00878           15600.00
00879           16200.00
00880           16000.00
00881           16600.00
00882           17000.00
00883           17000.00
00884           17400.00
00885           17800.00
00886           18000.00
00887           18000.00
00888           18200.00
00889           18600.00
00890           18800.00
00891           19200.00
00892           19400.00
00893           19400.00
00894           19600.00
00895           19800.00
00896           20000.00
00897           20200.00
00898           20400.00
00899           20600.00
00900           20600.00
00901           21000.00
00902           21200.00
00903           21200.00
00904           21200.00
00905           21400.00
00906           21600.00
00907           21800.00
00908           21800.00
00909           21800.00
00910           21800.00
00911           22000.00
00912           22000.00
00913           22000.00
00914           22000.00
00915           22200.00
00916           22000.00
00917           22200.00
00918           22200.00
00919           22200.00
00920           22200.00
00921           22200.00
00922           22200.00
00923           22000.00
00924           22200.00
00925           22000.00
00926           22000.00
00927           22000.00
00928           21800.00
00929           21800.00
00930           21800.00
00931           21800.00
00932           21600.00
00933           21400.00
00934           21200.00
00935           21200.00
00936           21200.00
00937           21000.00
00938           21000.00
00939           20600.00
00940           20400.00
00941           20400.00
00942           20400.00
00943           20200.00
00944           19800.00
00945           19600.00
00946           19400.00
00947           19400.00
00948           19000.00
00949           18800.00
00950           18600.00
00951           18200.00
00952           18200.00
00953           17800.00
00954           17400.00
00955           17200.00
00956           17000.00
00957           16800.00
00958           16400.00
00959           16200.00
00960           16200.00
00961           15600.00
00962           15400.00
00963           15000.00
00964           14800.00
00965           14600.00
00966           14000.00
00967           13800.00
00968           13400.00
00969           13200.00
00970           12800.00
00971           12400.00
00972           12200.00
00973           11800.00
00974           11400.00
00975           11000.00
00976           10600.00
00977           10200.00
00978            9800.00
00979            9600.00
00980            9000.00
00981            8600.00
00982            8400.00
00983            7800.00
00984            7600.00
00985            7000.00
00986            6800.00
00987            6200.00
00988            6000.00
00989            5600.00
00990            5200.00
00991            4600.00
00992            4200.00
00993            3800.00
00994            3600.00
00995            3000.00
00996            2600.00
00997            2200.00
00998            2000.00
00999            1400.00
01000            1000.00
01001             600.00
01002             200.00
01003            -200.00
01004            -600.00
01005           -1000.00
01006           -1400.00
01007           -2000.00
01008           -2000.00
01009           -2400.00
01010           -2800.00
01011           -3000.00
01012           -3800.00
01013           -4400.00
01014           -5000.00
01015           -5200.00
01016           -5400.00
01017           -5600.00
01018           -6000.00
01019           -6600.00
01020           -6600.00
01021           -7400.00
01022           -7600.00
01023           -8000.00
01024           -8600.00
01025           -8800.00
01026           -9400.00
01027           -9600.00
01028          -10000.00
01029          -10400.00
01030          -10800.00
01031          -11000.00
01032          -11600.00
01033          -11600.00
01034          -12400.00
01035          -12600.00
01036          -13000.00
01037          -13400.00
01038          -13400.00
01039          -14000.00
01040          -14200.00
01041          -14600.00
01042          -15000.00
01043          -15400.00
01044          -15600.00
01045          -15800.00
01046          -16200.00
01047          -16400.00
01048          -16800.00
01049          -17000.00
01050          -17400.00
01051          -17400.00
01052          -17800.00
01053          -18200.00
01054          -18400.00
01055          -18600.00
01056          -18800.00
01057          -19000.00
01058          -19200.00
01059          -19400.00
01060          -19800.00
01061          -19800.00
01062          -20000.00
01063          -20200.00
01064          -20400.00
01065          -20400.00
01066          -20600.00
01067          -21000.00
01068          -21000.00
01069          -21200.00
01070          -21200.00
01071          -21400.00
01072          -21400.00
01073          -21400.00
01074          -21600.00
01075          -21800.00
01076          -21800.00
01077          -21800.00
01078          -22000.00
01079          -22000.00
01080          -22200.00
01081          -22000.00
01082          -22000.00
01083          -22200.00
01084          -22200.00
01085          -22200.00
01086          -22000.00
01087          -22200.00
01088          -22000.00
01089          -22200.00
01090          -22000.00
01091          -22000.00
01092          -22000.00
01093          -22000.00
01094          -21800.00
01095          -21800.00
01096          -21800.00
01097          -21600.00
01098          -21400.00
01099          -21400.00
01100          -21200.00
01101          -21200.00
01102          -21000.00
01103          -21000.00
01104          -20600.00
01105          -20600.00
01106          -20400.00
01107          -20400.00
01108          -20200.00
01109          -19800.00
01110          -19800.00
01111          -19600.00
01112          -19600.00
01113          -19200.00
01114          -19000.00
01115          -19000.00
01116          -18600.00
01117          -18600.00
01118          -18200.00
01119          -17800.00
01120          -17400.00
01121          -17200.00
01122          -17200.00
01123          -17000.00
01124          -16600.00
01125          -16200.00
01126          -15800.00
01127          -15600.00
01128          -15400.00
01129          -15000.00
01130          -14800.00
01131          -14600.00
01132          -14000.00
01133          -13800.00
01134          -13400.00
01135          -13000.00
01136          -12800.00
01137          -12400.00
01138          -12200.00
01139          -11800.00
01140          -11400.00
01141          -11000.00
01142          -10600.00
01143          -10200.00
01144          -10000.00
01145           -9400.00
01146           -9200.00
01147           -8800.00
01148           -8400.00
01149           -7800.00
01150           -7600.00
01151           -7000.00
01152           -6800.00
01153           -6200.00
01154           -6000.00
01155           -5400.00
01156           -5000.00
01157           -4600.00
01158           -4200.00
01159           -3800.00
01160           -3600.00
01161           -3000.00
01162           -2800.00
01163           -2200.00
01164           -2000.00
01165           -1400.00
01166           -1000.00
01167            -600.00
01168            -200.00
01169             200.00
01170             400.00
01171            1000.00
01172            1400.00
01173            1800.00
01174            2000.00
01175            2400.00
01176            2800.00
01177            3400.00
01178            3600.00
01179            4200.00
01180            4600.00
01181            5200.00
01182            5400.00
01183            5800.00
01184            6200.00
01185            6600.00
01186            6800.00
01187            7200.00
01188            7600.00
01189            8200.00
01190            8400.00
01191            8600.00
01192            9200.00
01193            9800.00
01194           10000.00
01195           10400.00
01196           10800.00
01197           11000.00
01198           11400.00
01199           12000.00
01200           12200.00
01201           12600.00
01202           13000.00
01203           13200.00
01204           13600.00
01205           14000.00
01206           14200.00
01207           14600.00
01208           14800.00
01209           15400.00
01210           15600.00
01211           15800.00
01212           16200.00
01213           16400.00
01214           17000.00
01215           17000.00
01216           17200.00
01217           17800.00
01218           17800.00
01219           18000.00
01220           18400.00
01221           18600.00
01222           18800.00
01223           19000.00
01224           19400.00
01225           19400.00
01226           19600.00
01227           19800.00
01228           20200.00
01229           20200.00
01230           20400.00
01231           20400.00
01232           20600.00
01233           21000.00
01234           21000.00
01235           21200.00
01236           21200.00
01237           21400.00
01238           21400.00
01239           21600.00
01240           21800.00
01241           21800.00
01242           21800.00
01243           21800.00
01244           22000.00
01245           22000.00
01246           22200.00
01247           22000.00
01248           22000.00
01249           22200.00
01250           22200.00
01251           22200.00
01252           22000.00
01253           22200.00
01254           22200.00
01255           22000.00
01256           22000.00
01257           22000.00
01258           22000.00
01259           21800.00
01260           22000.00
01261           21800.00
01262           21800.00
01263           21600.00
01264           21800.00
01265           21400.00
01266           21200.00
01267           21400.00
01268           21200.00
01269           21000.00
01270           21000.00
01271           20600.00
01272           20600.00
01273           20400.00
01274           20400.00
01275           20200.00
01276           19800.00
01277           19600.00
01278           19600.00
01279           19400.00
01280           19000.00
01281           18800.00
01282           18600.00
01283           18600.00
01284           18200.00
01285           18000.00
01286           17800.00
01287           17400.00
01288           17200.00
01289           17000.00
01290           16400.00
01291           16400.00
01292           15800.00
01293           15800.00
01294           15400.00
01295           15000.00
01296           14800.00
01297           14600.00
01298           14200.00
01299           13800.00
01300           13600.00
01301           13200.00
01302           13000.00
01303           12400.00
01304           12200.00
01305           11800.00
01306           11600.00
01307           11200.00
01308           10800.00
01309           10200.00
01310           10000.00
01311            9600.00
01312            9200.00
01313            8800.00
01314            8400.00
01315            7800.00
01316            7600.00
01317            7000.00
01318            6800.00
01319            6200.00
01320            6000.00
01321            5800.00
01322            5200.00
01323            4600.00
01324            4400.00
01325            3800.00
01326            3600.00
01327            3400.00
01328            2600.00
01329            2200.00
01330            2000.00
01331            1600.00
01332            1200.00
01333             600.00
01334             400.00
01335             200.00
01336            -600.00
01337           -1000.00
01338           -1200.00
01339           -1800.00
01340           -2200.00
01341           -2400.00
01342           -2800.00
01343           -3000.00
01344           -3600.00
01345           -4400.00
01346           -4600.00
01347           -5200.00
01348           -5400.00
01349           -5400.00
01350           -6000.00
01351           -6400.00
01352           -6800.00
01353           -7200.00
01354           -7600.00
01355           -7800.00
01356           -8400.00
01357           -8800.00
01358           -9200.00
01359           -9400.00
01360          -10000.00
01361          -10200.00
01362          -10800.00
01363          -11000.00
01364          -11600.00
01365          -11800.00
01366          -12200.00
01367          -12600.00
01368          -13000.00
01369          -13200.00
01370          -13400.00
01371          -13800.00
01372          -14200.00
01373          -14800.00
01374          -14800.00
01375          -15400.00
01376          -15600.00
01377          -15800.00
01378          -16200.00
01379          -16400.00
01380          -16600.00
01381          -17000.00
01382          -17200.00
01383          -17400.00
01384          -17800.00
01385          -18000.00
01386          -18200.00
01387          -18600.00
01388          -18800.00
01389          -19000.00
01390          -19000.00
01391          -19600.00
01392          -19600.00
01393          -19800.00
01394          -20000.00
01395          -20200.00
01396          -20400.00
01397          -20600.00
01398          -20600.00
01399          -20600.00
01400          -21000.00
01401          -21200.00
01402          -21200.00
01403          -21400.00
01404          -21400.00
01405          -21400.00
01406          -21600.00
01407          -21800.00
01408          -21800.00
01409          -22000.00
01410          -21800.00
01411          -22000.00
01412          -22000.00
01413          -22000.00
01414          -22000.00
01415          -22200.00
01416          -22000.00
01417          -22200.00
01418          -22200.00
01419          -22000.00
01420          -22000.00
01421          -22000.00
01422          -22000.00
01423          -22000.00
01424          -22000.00
01425          -22000.00
01426          -21800.00
01427          -21800.00
01428          -21600.00
01429          -21800.00
01430          -21400.00
01431          -21400.00
01432          -21400.00
01433          -21200.00
01434          -21200.00
01435          -21000.00
01436          -21000.00
01437          -20800.00
01438          -20400.00
01439          -20400.00
01440          -20200.00
01441          -20200.00
01442          -19800.00
01443          -19800.00
01444          -19600.00
01445          -19400.00
01446          -19000.00
01447          -18800.00
01448          -18800.00
01449          -18600.00
01450          -18200.00
01451          -18000.00
01452          -17400.00
01453          -17400.00
01454          -17200.00
01455          -16800.00
01456          -16600.00
01457          -16400.00
01458          -16200.00
01459          -15600.00
01460          -15400.00
01461          -15000.00
01462          -14800.00
01463          -14600.00
01464          -14000.00
01465          -13800.00
01466          -13400.00
01467          -13200.00
01468          -12800.00
01469          -12400.00
01470          -12200.00
01471          -11800.00
01472          -11600.00
01473          -11000.00
01474          -10800.00
01475          -10200.00
01476          -10000.00
01477           -9800.00
01478           -9200.00
01479           -9000.00
01480           -8400.00
01481           -8000.00
01482           -7600.00
01483           -7000.00
01484           -6800.00
01485           -6200.00
01486           -6000.00
01487           -5800.00
01488           -5200.00
01489           -4600.00
01490           -4400.00
01491           -4200.00
01492           -3400.00
01493           -3200.00
01494           -2800.00
01495           -2200.00
01496           -2000.00
01497           -1400.00
01498           -1200.00
01499            -600.00
01500            -400.00
01501             200.00
01502             400.00
01503             800.00
01504            1200.00
01505            1800.00
01506            2000.00
01507            2400.00
01508            2800.00
01509            3000.00
01510            3600.00
01511            4200.00
01512            4400.00
01513            5000.00
01514            5400.00
01515            5800.00
01516            6000.00
01517            6600.00
01518            6800.00
01519            7200.00
01520            7600.00
01521            7800.00
01522            8600.00
01523            8600.00
01524            9200.00
01525            9400.00
01526           10000.00
01527           10400.00
01528           10800.00
01529           11000.00
01530           11400.00
01531           11800.00
01532           12200.00
01533           12600.00
01534           13000.00
01535           13200.00
01536           13600.00
01537           13800.00
01538           14200.00
01539           14600.00
01540           15000.00
01541           15400.00
01542           15600.00
01543           15800.00
01544           16200.00
01545           16400.00
01546           16600.00
01547           17000.00
01548           17200.00
01549           17400.00
01550           17800.00
01551           18000.00
01552           18200.00
01553           18600.00
01554           18800.00
01555           19000.00
01556           19000.00
01557           19400.00
01558           19600.00
01559           19800.00
01560           19800.00
01561           20200.00
01562           20400.00
01563           20400.00
01564           20600.00
01565           20800.00
01566           21000.00
01567           21000.00
01568           21200.00
01569           21400.00
01570           21400.00
01571           21400.00
01572           21800.00
01573           21800.00
01574           21800.00
01575           21800.00
01576           22000.00
01577           22000.00
01578           22000.00
01579           22000.00
01580           22200.00
01581           22000.00
01582           22200.00
01583           22200.00
01584           22200.00
01585           22200.00
01586           22000.00
01587           22200.00
01588           22000.00
01589           22000.00
01590           22000.00
01591           22000.00
01592           22000.00
01593           21800.00
01594           21800.00
01595           21800.00
01596           21400.00
01597           21400.00
01598           21400.00
01599           21200.00
01600           21200.00
01601           21000.00
01602           21000.00
01603           20600.00
01604           20600.00
01605           20400.00
01606           20400.00
01607           20200.00
01608           20000.00
01609           19600.00
01610           19600.00
01611           19400.00
01612           19200.00
01613           19000.00
01614           18600.00
01615           18600.00
01616           18000.00
01617           18000.00
01618           17600.00
01619           17400.00
01620           17200.00
01621           17000.00
01622           16600.00
01623           16400.00
01624           16200.00
01625           15800.00
01626           15400.00
01627           15200.00
01628           14800.00
01629           14600.00
01630           14200.00
01631           14000.00
01632           13400.00
01633           13200.00
01634           13000.00
01635           12400.00
01636           12200.00
01637           11800.00
01638           11400.00
01639           11000.00
01640           10800.00
01641           10600.00
01642           10000.00
01643            9400.00
01644            9200.00
01645            9000.00
01646            8400.00
01647            8200.00
01648            7600.00
01649            7400.00
01650            6800.00
01651            6600.00
01652            6000.00
01653            5800.00
01654            5200.00
01655            4800.00
01656            4400.00
01657            4000.00
01658            3600.00
01659            3200.00
01660            2800.00
01661            2600.00
01662            2000.00
01663            1800.00
01664            1200.00
01665            1000.00
01666             400.00
01667               0.00
01668            -600.00
01669            -800.00
01670           -1200.00
01671           -1600.00
01672           -1800.00
01673           -2200.00
01674           -2800.00
01675           -3000.00
01676           -3600.00
01677           -4200.00
01678           -5000.00
01679           -5200.00
01680           -5400.00
01681           -5400.00
01682           -6000.00
01683           -6600.00
01684           -6800.00
01685           -7200.00
01686           -7600.00
01687           -7800.00
01688           -8400.00
01689           -9000.00
01690           -9200.00
01691           -9400.00
01692           -9800.00
01693          -10200.00
01694          -10800.00
01695          -11000.00
01696          -11400.00
01697          -11600.00
01698          -12200.00
01699          -12600.00
01700          -13000.00
01701          -13400.00
01702          -13400.00
01703          -14000.00
01704          -14200.00
01705          -14600.00
01706          -14800.00
01707          -15000.00
01708          -15600.00
01709          -15800.00
01710          -16000.00
01711          -16400.00
01712          -16600.00
01713          -17000.00
01714          -17200.00
01715          -17400.00
01716          -17800.00
01717          -18000.00
01718          -18200.00
01719          -18400.00
01720          -18800.00
01721          -18800.00
01722          -19000.00
01723          -19400.00
01724          -19600.00
01725          -19800.00
01726          -19800.00
01727          -20200.00
01728          -20400.00
01729          -20600.00
01730          -20600.00
01731          -21000.00
01732          -21000.00
01733          -21200.00
01734          -21200.00
01735          -21400.00
01736          -21400.00
01737          -21400.00
01738          -21600.00
01739          -21800.00
01740          -22000.00
01741          -22000.00
01742          -22000.00
01743          -22000.00
01744          -22000.00
01745          -22000.00
01746          -22200.00
01747          -22000.00
01748          -22200.00
01749          -22200.00
01750          -22000.00
01751          -22200.00
01752          -22000.00
01753          -22000.00
01754          -22000.00
01755          -22000.00
01756          -22000.00
01757          -22000.00
01758          -22000.00
01759          -22000.00
01760          -21800.00
01761          -21800.00
01762          -21400.00
01763          -21400.00
01764          -21400.00
01765          -21400.00
01766          -21200.00
01767          -21200.00
01768          -21000.00
01769          -21000.00
01770          -20600.00
01771          -20400.00
01772          -20400.00
01773          -20000.00
01774          -20200.00
01775          -19800.00
01776          -19600.00
01777          -19400.00
01778          -19000.00
01779          -18800.00
01780          -18800.00
01781          -18400.00
01782          -18200.00
01783          -18000.00
01784          -17800.00
01785          -17400.00
01786          -17200.00
01787          -17000.00
01788          -16600.00
01789          -16400.00
01790          -15800.00
01791          -15600.00
01792          -15600.00
01793          -15000.00
01794          -14800.00
01795          -14600.00
01796          -14200.00
01797          -14000.00
01798          -13400.00
01799          -13400.00
01800          -13000.00
01801          -12600.00
01802          -12200.00
01803          -11800.00
01804          -11600.00
01805          -11000.00
01806          -10800.00
01807          -10200.00
01808          -10000.00
01809           -9400.00
01810           -9400.00
01811           -8800.00
01812           -8400.00
01813           -8200.00
01814           -7600.00
01815           -7400.00
01816           -6800.00
01817           -6600.00
01818           -6200.00
01819           -5800.00
01820           -5400.00
01821           -4800.00
01822           -4400.00
01823           -4200.00
01824           -3600.00
01825           -3400.00
01826           -2800.00
01827           -2600.00
01828           -2200.00
01829           -1600.00
01830           -1200.00
01831            -800.00
01832            -400.00
01833               0.00
01834             400.00
01835             600.00
01836            1200.00
01837            1400.00
01838            1800.00
01839            2200.00
01840            2600.00
01841            3000.00
01842            3600.00
01843            4200.00
01844            4400.00
01845            5000.00
01846            5200.00
01847            5800.00
01848            5800.00
01849            6400.00
01850            6600.00
01851            6800.00
01852            7600.00
01853            7800.00
01854            8400.00
01855            9000.00
01856            9200.00
01857            9400.00
01858           10000.00
01859           10200.00
01860           10600.00
01861           11000.00
01862           11400.00
01863           11800.00
01864           12200.00
01865           12400.00
01866           13000.00
01867           13200.00
01868           13400.00
01869           13800.00
01870           14200.00
01871           14600.00
01872           14800.00
01873           15400.00
01874           15400.00
01875           15600.00
01876           16200.00
01877           16400.00
01878           16600.00
01879           17000.00
01880           17200.00
01881           17400.00
01882           17800.00
01883           18000.00
01884           18200.00
01885           18400.00
01886           18600.00
01887           19000.00
01888           19000.00
01889           19400.00
01890           19600.00
01891           19600.00
01892           19800.00
01893           20200.00
01894           20200.00
01895           20200.00
01896           20400.00
01897           21000.00
01898           21000.00
01899           21000.00
01900           21000.00
01901           21200.00
01902           21200.00
01903           21400.00
01904           21400.00
01905           21800.00
01906           21800.00
01907           21800.00
01908           21800.00
01909           21800.00
01910           22000.00
01911           22000.00
01912           22000.00
01913           22000.00
01914           22200.00
01915           22000.00
01916           22000.00
01917           22000.00
01918           22000.00
01919           22200.00
01920           22000.00
01921           22000.00
01922           22000.00
01923           22000.00
01924           21800.00
01925           22000.00
01926           21800.00
01927           21800.00
01928           21800.00
01929           21400.00
01930           21400.00
01931           21400.00
01932           21200.00
01933           21200.00
01934           21000.00
01935           21000.00
01936           20600.00
01937           20400.00
01938           20400.00
01939           20200.00
01940           19800.00
01941           19600.00
01942           19600.00
01943           19400.00
01944           19400.00
01945           19000.00
01946           18800.00
01947           18600.00
01948           18200.00
01949           18000.00
01950           17800.00
01951           17400.00
01952           17200.00
01953           17000.00
01954           16600.00
01955           16400.00
01956           16200.00
01957           15600.00
01958           15600.00
01959           15000.00
01960           14800.00
01961           14600.00
01962           14200.00
01963           14000.00
01964           13600.00
01965           13200.00
01966           12600.00
01967           12600.00
01968           12200.00
01969           11800.00
01970           11600.00
01971           11000.00
01972           10800.00
01973           10400.00
01974           10000.00
01975            9800.00
01976            9200.00
01977            9000.00
01978            8400.00
01979            8000.00
01980            7800.00
01981            7400.00
01982            7000.00
01983            6600.00
01984            6200.00
01985            5800.00
01986            5400.00
01987            5000.00
01988            4400.00
01989            4200.00
01990            3600.00
01991            3400.00
01992            3000.00
01993            2600.00
01994            2200.00
01995            1800.00
01996            1200.00
01997            1000.00
01998             400.00
01999             200.00
02000            -400.00
02001            -600.00
02002           -1000.00
02003           -1400.00
02004           -2000.00
02005           -2200.00
02006           -2600.00
02007           -3000.00
02008           -3400.00
02009           -4200.00
02010           -4600.00
02011           -5000.00
02012           -5200.00
02013           -5400.00
02014           -5800.00
02015           -6200.00
02016           -6800.00
02017           -7000.00
02018           -7600.00
02019           -7600.00
02020           -8400.00
02021           -8600.00
02022           -9200.00
02023           -9400.00
02024           -9800.00
02025          -10200.00
02026          -10600.00
02027          -11000.00
02028          -11400.00
02029          -11800.00
02030          -12000.00
02031          -12600.00
02032          -13000.00
02033          -13200.00
02034          -13400.00
02035          -13800.00
02036          -14200.00
02037          -14600.00
02038          -14800.00
02039          -15200.00
02040          -15600.00
02041          -15800.00
02042          -15800.00
02043          -16400.00
02044          -16600.00
02045          -17000.00
02046          -17200.00
02047          -17400.00
02048          -17800.00
02049          -18000.00
02050          -18200.00
02051          -18600.00
02052          -18600.00
02053          -18800.00
02054          -19000.00
02055          -19200.00
02056          -19600.00
02057          -19800.00
02058          -19800.00
02059          -20200.00
02060          -20200.00
02061          -20400.00
02062          -20400.00
02063          -20800.00
02064          -20800.00
02065          -21200.00
02066          -21200.00
02067          -21400.00
02068          -21400.00
02069          -21400.00
02070          -21400.00
02071          -21800.00
02072          -21800.00
02073          -22000.00
02074          -21800.00
02075          -22000.00
02076          -22200.00
02077          -22200.00
02078          -22200.00
02079          -22000.00
02080          -22000.00
02081          -22200.00
02082          -22200.00
02083          -22000.00
02084          -22000.00
02085          -22200.00
02086          -22000.00
02087          -22000.00
02088          -22200.00
02089          -22000.00
02090          -22000.00
02091          -22000.00
02092          -21800.00
02093          -21800.00
02094          -21800.00
02095          -21400.00
02096          -21400.00
02097          -21400.00
02098          -21200.00
02099          -21200.00
02100          -21000.00
02101          -21000.00
02102          -20600.00
02103          -20400.00
02104          -20400.00
02105          -20200.00
02106          -19800.00
02107          -19800.00
02108          -19600.00
02109          -19600.00
02110          -19000.00
02111          -19000.00
02112          -18800.00
02113          -18600.00
02114          -18200.00
02115          -17800.00
02116          -17800.00
02117          -17600.00
02118          -17200.00
02119          -17000.00
02120          -16600.00
02121          -16400.00
02122          -16000.00
02123          -15800.00
02124          -15600.00
02125          -15400.00
02126          -14800.00
02127          -14600.00
02128          -14200.00
02129          -13800.00
02130          -13400.00
02131          -13200.00
02132          -13000.00
02133          -12400.00
02134          -12400.00
02135          -11800.00
02136          -11600.00
02137          -11000.00
02138          -10800.00
02139          -10600.00
02140          -10000.00
02141           -9800.00
02142           -9200.00
02143           -8800.00
02144           -8600.00
02145           -8200.00
02146           -7600.00
02147           -7400.00
02148           -7000.00
02149           -6600.00
02150           -6200.00
02151           -5800.00
02152           -5400.00
02153           -5000.00
02154           -4600.00
02155           -4200.00
02156           -3800.00
02157           -3400.00
02158           -3000.00
02159           -2600.00
02160           -2200.00
02161           -1800.00
02162           -1200.00
02163           -1000.00
02164            -600.00
02165            -200.00
02166             400.00
02167             600.00
02168            1000.00
02169            1400.00
02170            2000.00
02171            2200.00
02172            2600.00
02173            3000.00
02174            3400.00
02175            3800.00
02176            4400.00
02177            5000.00
02178            5200.00
02179            5400.00
02180            5800.00
02181            6200.00
02182            6800.00
02183            7000.00
02184            7600.00
02185            7800.00
02186            8200.00
02187            8600.00
02188            9000.00
02189            9400.00
02190           10000.00
02191           10000.00
02192           10600.00
02193           11000.00
02194           11400.00
02195           11800.00
02196           12200.00
02197           12400.00
02198           12600.00
02199           13000.00
02200           13400.00
02201           13800.00
02202           14200.00
02203           14600.00
02204           14800.00
02205           15000.00
02206           15400.00
02207           15800.00
02208           16200.00
02209           16200.00
02210           16600.00
02211           17000.00
02212           17000.00
02213           17400.00
02214           17600.00
02215           18000.00
02216           18000.00
02217           18200.00
02218           18800.00
02219           18800.00
02220           19000.00
02221           19200.00
02222           19400.00
02223           19600.00
02224           19800.00
02225           20200.00
02226           20200.00
02227           20400.00
02228           20600.00
02229           21000.00
02230           21000.00
02231           21000.00
02232           21200.00
02233           21200.00
02234           21200.00
02235           21400.00
02236           21400.00
02237           21800.00
02238           21800.00
02239           21800.00
02240           22000.00
02241           22000.00
02242           22000.00
02243           22000.00
02244           22200.00
02245           22000.00
02246           22000.00
02247           22200.00
02248           22200.00
02249           22200.00
02250           22200.00
02251           22000.00
02252           22000.00
02253           22000.00
02254           22000.00
02255           22200.00
02256           22000.00
02257           21800.00
02258           21800.00
02259           21800.00
02260           21600.00
02261           21400.00
02262           21400.00
02263           21400.00
02264           21200.00
02265           21000.00
02266           21000.00
02267           21000.00
02268           20600.00
02269           20400.00
02270           20400.00
02271           20200.00
02272           19800.00
02273           19800.00
02274           19600.00
02275           19600.00
02276           19200.00
02277           19000.00
02278           18600.00
02279           18600.00
02280           18200.00
02281           18000.00
02282           17800.00
02283           17400.00
02284           17200.00
02285           17000.00
02286           16600.00
02287           16400.00
02288           16200.00
02289           15800.00
02290           15400.00
02291           15200.00
02292           15000.00
02293           14600.00
02294           14200.00
02295           14000.00
02296           13400.00
02297           13200.00
02298           13000.00
02299           12600.00
02300           12200.00
02301           12200.00
02302           11600.00
02303           11400.00
02304           10800.00
02305           10600.00
02306           10000.00
02307            9800.00
02308            9400.00
02309            9000.00
02310            8600.00
02311            8400.00
02312            7800.00
02313            7400.00
02314            7000.00
02315            6800.00
02316            6200.00
02317            5800.00
02318            5400.00
02319            5200.00
02320            4600.00
02321            4200.00
02322            3800.00
02323            3400.00
02324            3000.00
02325            2600.00
02326            2000.00
02327            1800.00
02328            1400.00
02329            1000.00
02330             400.00
02331             200.00
02332            -400.00
02333            -600.00
02334           -1000.00
02335           -1400.00
02336           -2000.00
02337           -2200.00
02338           -2600.00
02339           -2800.00
02340           -3400.00
02341           -4000.00
02342           -4600.00
02343           -5000.00
02344           -5200.00
02345           -5200.00
02346           -5800.00
02347           -6400.00
02348           -6600.00
02349           -7000.00
02350           -7600.00
02351           -7800.00
02352           -8200.00
02353           -8800.00
02354           -9200.00
02355           -9600.00
02356           -9800.00
02357          -10200.00
02358          -10600.00
02359          -10800.00
02360          -11400.00
02361          -11800.00
02362          -12200.00
02363          -12400.00
02364          -12600.00
02365          -13200.00
02366          -13400.00
02367          -13800.00
02368          -14000.00
02369          -14400.00
02370          -14800.00
02371          -15000.00
02372          -15600.00
02373          -15600.00
02374          -15800.00
02375          -16200.00
02376          -16600.00
02377          -17000.00
02378          -17200.00
02379          -17400.00
02380          -17800.00
02381          -17800.00
02382          -18200.00
02383          -18400.00
02384          -18600.00
02385          -18800.00
02386          -19000.00
02387          -19200.00
02388          -19400.00
02389          -19800.00
02390          -19800.00
02391          -20000.00
02392          -20200.00
02393          -20400.00
02394          -20400.00
02395          -20600.00
02396          -20800.00
02397          -21000.00
02398          -21200.00
02399          -21200.00
02400          -21400.00
02401          -21400.00
02402          -21800.00
02403          -21800.00
02404          -21800.00
02405          -22000.00
02406          -21800.00
02407          -22000.00
02408          -22000.00
02409          -22000.00
02410          -22000.00
02411          -22200.00
02412          -22200.00
02413          -22200.00
02414          -22200.00
02415          -22200.00
02416          -22200.00
02417          -22200.00
02418          -22200.00
02419          -22200.00
02420          -22000.00
02421          -22000.00
02422          -22000.00
02423          -22000.00
02424          -22000.00
02425          -21800.00
02426          -21600.00
02427          -21800.00
02428          -21400.00
02429          -21400.00
02430          -21200.00
02431          -21200.00
02432          -21000.00
02433          -21000.00
02434          -20600.00
02435          -20400.00
02436          -20400.00
02437          -20200.00
02438          -20000.00
02439          -19800.00
02440          -19600.00
02441          -19400.00
02442          -19200.00
02443          -19000.00
02444          -18800.00
02445          -18600.00
02446          -18200.00
02447          -18000.00
02448          -17800.00
02449          -17400.00
02450          -17200.00
02451          -17000.00
02452          -16600.00
02453          -16400.00
02454          -16200.00
02455          -15800.00
02456          -15600.00
02457          -15400.00
02458          -15000.00
02459          -14600.00
02460          -14200.00
02461          -14000.00
02462          -13600.00
02463          -13400.00
02464          -13200.00
02465          -12600.00
02466          -12400.00
02467          -11800.00
02468          -11600.00
02469          -11400.00
02470          -10800.00
02471          -10600.00
02472          -10200.00
02473           -9800.00
02474           -9200.00
02475           -9000.00
02476           -8600.00
02477           -8200.00
02478           -7800.00
02479           -7400.00
02480           -7000.00
02481           -6800.00
02482           -6200.00
02483           -5800.00
02484           -5400.00
02485           -5000.00
02486           -4600.00
02487           -4200.00
02488           -3800.00
02489           -3400.00
02490           -3000.00
02491           -2600.00
02492           -2200.00
02493           -2000.00
02494           -1200.00
02495           -1000.00
02496            -600.00
02497            -200.00
02498             200.00
02499             600.00
02500            1000.00
02501            1400.00
02502            2000.00
02503            2200.00
02504            2600.00
02505            2800.00
02506            3400.00
02507            3800.00
02508            4400.00
02509            4600.00
02510            5200.00
02511            5400.00
02512            5800.00
02513            6000.00
02514            6600.00
02515            7000.00
02516            7400.00
02517            7800.00
02518            8200.00
02519            8600.00
02520            9000.00
02521            9200.00
02522            9800.00
02523           10000.00
02524           10600.00
02525           10800.00
02526           11400.00
02527           11600.00
02528           11800.00
02529           12400.00
02530           12600.00
02531           13200.00
02532           13400.00
02533           13800.00
02534           14000.00
02535           14600.00
02536           14600.00
02537           15000.00
02538           15400.00
02539           15600.00
02540           15800.00
02541           16200.00
02542           16400.00
02543           16600.00
02544           17000.00
02545           17200.00
02546           17800.00
02547           18000.00
02548           18000.00
02549           18200.00
02550           18600.00
02551           18800.00
02552           19000.00
02553           19400.00
02554           19400.00
02555           19600.00
02556           19800.00
02557           20000.00
02558           20200.00
02559           20200.00
02560           20400.00
02561           20600.00
02562           20800.00
02563           21200.00
02564           21000.00
02565           21200.00
02566           21400.00
02567           21200.00
02568           21400.00
02569           21800.00
02570           21800.00
02571           21800.00
02572           21800.00
02573           22000.00
02574           22200.00
02575           22000.00
02576           22200.00
02577           22000.00
02578           22200.00
02579           22200.00
02580           22200.00
02581           22000.00
02582           22200.00
02583           22200.00
02584           22000.00
02585           22200.00
02586           22000.00
02587           22000.00
02588           22000.00
02589           22000.00
02590           21800.00
02591           21800.00
02592           21600.00
02593           21800.00
02594           21400.00
02595           21400.00
02596           21200.00
02597           21200.00
02598           21000.00
02599           21000.00
02600           20600.00
02601           20400.00
02602           20400.00
02603           20200.00
02604           20200.00
02605           19600.00
02606           19600.00
02607           19400.00
02608           19000.00
02609           19000.00
02610           18600.00
02611           18600.00
02612           18200.00
02613           18000.00
02614           17800.00
02615           17400.00
02616           17200.00
02617           17000.00
02618           16600.00
02619           16400.00
02620           16200.00
02621           15800.00
02622           15600.00
02623           15200.00
02624           14800.00
02625           14600.00
02626           14200.00
02627           14000.00
02628           13600.00
02629           13400.00
02630           13000.00
02631           12600.00
02632           12200.00
02633           12200.00
02634           11600.00
02635           11400.00
02636           11000.00
02637           10600.00
02638           10200.00
02639           10000.00
02640            9400.00
02641            9000.00
02642            8600.00
02643            8200.00
02644            7800.00
02645            7400.00
02646            7200.00
02647            6800.00
02648            6200.00
02649            6000.00
02650            5800.00
02651            5200.00
02652            4800.00
02653            4400.00
02654            3800.00
02655            3400.00
02656            3000.00
02657            2600.00
02658            2200.00
02659            2000.00
02660            1400.00
02661            1000.00
02662             600.00
02663             200.00
02664            -200.00
02665            -600.00
02666           -1000.00
02667           -1400.00
02668           -1800.00
02669           -2200.00
02670           -2600.00
02671           -2800.00
02672           -3200.00
02673           -3800.00
02674           -4600.00
02675           -5200.00
02676           -5200.00
02677           -5400.00
02678           -5600.00
02679           -6200.00
02680           -6600.00
02681           -7000.00
02682           -7600.00
02683           -7600.00
02684           -8400.00
02685           -8600.00
02686           -9000.00
02687           -9400.00
02688           -9600.00
02689          -10200.00
02690          -10600.00
02691          -10800.00
02692          -11400.00
02693          -11600.00
02694          -12200.00
02695          -12400.00
02696          -12600.00
02697          -13000.00
02698          -13400.00
02699          -13800.00
02700          -14000.00
02701          -14400.00
02702          -14800.00
02703          -15000.00
02704          -15000.00
02705          -15600.00
02706          -15800.00
02707          -16200.00
02708          -16400.00
02709          -16600.00
02710          -17200.00
02711          -17400.00
02712          -17400.00
02713          -17800.00
02714          -18200.00
02715          -18200.00
02716          -18600.00
02717          -18800.00
02718          -19000.00
02719          -19400.00
02720          -19400.00
02721          -19600.00
02722          -19800.00
02723          -20000.00
02724          -20200.00
02725          -20200.00
02726          -20400.00
02727          -20600.00
02728          -20800.00
02729          -21000.00
02730          -21200.00
02731          -21200.00
02732          -21200.00
02733          -21400.00
02734          -21400.00
02735          -21600.00
02736          -21800.00
02737          -22000.00
02738          -21800.00
02739          -22000.00
02740          -22000.00
02741          -22200.00
02742          -22000.00
02743          -22200.00
02744          -22200.00
02745          -22200.00
02746          -22200.00
02747          -22200.00
02748          -22200.00
02749          -22000.00
02750          -22000.00
02751          -22200.00
02752          -22000.00
02753          -22000.00
02754          -22000.00
02755          -22000.00
02756          -21800.00
02757          -21800.00
02758          -21800.00
02759          -21400.00
02760          -21600.00
02761          -21400.00
02762          -21200.00
02763          -21200.00
02764          -21200.00
02765          -20800.00
02766          -20600.00
02767          -20400.00
02768          -20400.00
02769          -20200.00
02770          -20200.00
02771          -19800.00
02772          -19800.00
02773          -19400.00
02774          -19200.00
02775          -19000.00
02776          -18800.00
02777          -18600.00
02778          -18200.00
02779          -18000.00
02780          -17600.00
02781          -17400.00
02782          -17200.00
02783          -17000.00
02784          -16600.00
02785          -16400.00
02786          -16200.00
02787          -15800.00
02788          -15600.00
02789          -15400.00
02790          -15000.00
02791          -14800.00
02792          -14200.00
02793          -14000.00
02794          -13800.00
02795          -13400.00
02796          -13000.00
02797          -12600.00
02798          -12400.00
02799          -12200.00
02800          -11600.00
02801          -11400.00
02802          -10800.00
02803          -10600.00
02804          -10200.00
02805           -9800.00
02806           -9200.00
02807           -9200.00
02808           -8800.00
02809           -8400.00
02810           -7800.00
02811           -7600.00
02812           -7000.00
02813           -6800.00
02814           -6200.00
02815           -6000.00
02816           -5400.00
02817           -5200.00
02818           -4800.00
02819           -4200.00
02820           -4000.00
02821           -3400.00
02822           -3000.00
02823           -2800.00
02824           -2200.00
02825           -2000.00
02826           -1400.00
02827           -1000.00
02828            -600.00
02829            -200.00
02830             400.00
02831             600.00
02832            1000.00
02833            1400.00
02834            1800.00
02835            2200.00
02836            2600.00
02837            3000.00
02838            3400.00
02839            3600.00
02840            4400.00
02841            4800.00
02842            5200.00
02843            5400.00
02844            5800.00
02845            6200.00
02846            6600.00
02847            7000.00
02848            7400.00
02849            7800.00
02850            8200.00
02851            8600.00
02852            9000.00
02853            9200.00
02854            9800.00
02855           10000.00
02856           10600.00
02857           10800.00
02858           11200.00
02859           11600.00
02860           11800.00
02861           12200.00
02862           12600.00
02863           13000.00
02864           13200.00
02865           13800.00
02866           14000.00
02867           14200.00
02868           14600.00
02869           15000.00
02870           15400.00
02871           15600.00
02872           15800.00
02873           16200.00
02874           16400.00
02875           16600.00
02876           17000.00
02877           17200.00
02878           17400.00
02879           17800.00
02880           18000.00
02881           18200.00
02882           18600.00
02883           18800.00
02884           19000.00
02885           19400.00
02886           19400.00
02887           19600.00
02888           19800.00
02889           20200.00
02890           20200.00
02891           20400.00
02892           20600.00
02893           20600.00
02894           21000.00
02895           21000.00
02896           21200.00
02897           21200.00
02898           21400.00
02899           21400.00
02900           21400.00
02901           21600.00
02902           21800.00
02903           21800.00
02904           21800.00
02905           22000.00
02906           22000.00
02907           22000.00
02908           22000.00
02909           22200.00
02910           22200.00
02911           22200.00
02912           22200.00
02913           22000.00
02914           22200.00
02915           22000.00
02916           22200.00
02917           22000.00
02918           22000.00
02919           22000.00
02920           22000.00
02921           22000.00
02922           21800.00
02923           21800.00
02924           21800.00
02925           21400.00
02926           21400.00
02927           21200.00
02928           21200.00
02929           21200.00
02930           21000.00
02931           21000.00
02932           20600.00
02933           20400.00
02934           20400.00
02935           20200.00
02936           19800.00
02937           19800.00
02938           19600.00
02939           19400.00
02940           19000.00
02941           19000.00
02942           18600.00
02943           18600.00
02944           18200.00
02945           18000.00
02946           18000.00
02947           17400.00
02948           17200.00
02949           17000.00
02950           16800.00
02951           16400.00
02952           16200.00
02953           15800.00
02954           15600.00
02955           15400.00
02956           15000.00
02957           14800.00
02958           14200.00
02959           14000.00
02960           13800.00
02961           13400.00
02962           13000.00
02963           12600.00
02964           12400.00
02965           12200.00
02966           11600.00
02967           11400.00
02968           11000.00
02969           10600.00
02970           10200.00
02971           10000.00
02972            9600.00
02973            9200.00
02974            8800.00
02975            8400.00
02976            8200.00
02977            7600.00
02978            7000.00
02979            6800.00
02980            6400.00
02981            5800.00
02982            5800.00
02983            5200.00
02984            5000.00
02985            4400.00
02986            4000.00
02987            3600.00
02988            3400.00
02989            2600.00
02990            2200.00
02991            2000.00
02992            1600.00
02993            1000.00
02994            1000.00
02995             200.00
02996            -200.00
02997            -600.00
02998           -1000.00
02999           -1400.00
03000           -1800.00
03001           -2200.00
03002           -2600.00
03003           -2800.00
03004           -3000.00
03005           -3800.00
03006           -4400.00
03007           -5000.00
03008           -5200.00
03009           -5400.00
03010           -5600.00
03011           -6200.00
03012           -6600.00
03013           -6800.00
03014           -7600.00
03015           -7600.00
03016           -8200.00
03017           -8600.00
03018           -9000.00
03019           -9200.00
03020           -9800.00
03021          -10000.00
03022          -10200.00
03023          -10800.00
03024          -11000.00
03025          -11600.00
03026          -11800.00
03027          -12200.00
03028          -12600.00
03029          -13000.00
03030          -13200.00
03031          -13400.00
03032          -14000.00
03033          -14200.00
03034          -14800.00
03035          -15000.00
03036          -15400.00
03037          -15600.00
03038          -15800.00
03039          -16200.00
03040          -16400.00
03041          -16600.00
03042          -17000.00
03043          -17200.00
03044          -17400.00
03045          -17800.00
03046          -18200.00
03047          -18200.00
03048          -18600.00
03049          -18800.00
03050          -19000.00
03051          -19000.00
03052          -19600.00
03053          -19600.00
03054          -19800.00
03055          -20200.00
03056          -20200.00
03057          -20400.00
03058          -20400.00
03059          -20400.00
03060          -20800.00
03061          -21000.00
03062          -21000.00
03063          -21200.00
03064          -21200.00
03065          -21600.00
03066          -21400.00
03067          -21800.00
03068          -22000.00
03069          -21800.00
03070          -22000.00
03071          -22000.00
03072          -22000.00
03073          -22000.00
03074          -22000.00
03075          -22200.00
03076          -22000.00
03077          -22200.00
03078          -22200.00
03079          -22200.00
03080          -22200.00
03081          -22200.00
03082          -22200.00
03083          -22200.00
03084          -22000.00
03085          -22000.00
03086          -22000.00
03087          -22000.00
03088          -22000.00
03089          -21800.00
03090          -21800.00
03091          -21400.00
03092          -21400.00
03093          -21400.00
03094          -21200.00
03095          -21200.00
03096          -21200.00
03097          -20800.00
03098          -20600.00
03099          -20400.00
03100          -20400.00
03101          -20200.00
03102          -20200.00
03103          -19800.00
03104          -19600.00
03105          -19400.00
03106          -19000.00
03107          -19000.00
03108          -18800.00
03109          -18600.00
03110          -18400.00
03111          -18000.00
03112          -18000.00
03113          -17400.00
03114          -17200.00
03115          -17200.00
03116          -17000.00
03117          -16400.00
03118          -16200.00
03119          -15800.00
03120          -15600.00
03121          -15400.00
03122          -15000.00
03123          -14800.00
03124          -14600.00
03125          -14000.00
03126          -13800.00
03127          -13400.00
03128          -13200.00
03129          -12800.00
03130          -12600.00
03131          -12200.00
03132          -11600.00
03133          -11400.00
03134          -11000.00
03135          -10800.00
03136          -10200.00
03137          -10000.00
03138           -9400.00
03139           -9000.00
03140           -8600.00
03141           -8400.00
03142           -8000.00
03143           -7600.00
03144           -7000.00
03145           -6800.00
03146           -6400.00
03147           -6000.00
03148           -5800.00
03149           -5200.00
03150           -4800.00
03151           -4400.00
03152           -4200.00
03153           -3600.00
03154           -3200.00
03155           -2800.00
03156           -2200.00
03157           -2000.00
03158           -1400.00
03159           -1000.00
03160            -600.00
03161            -200.00
03162             200.00
03163             600.00
03164            1000.00
03165            1400.00
03166            1800.00
03167            2000.00
03168            2600.00
03169            2800.00
03170            3200.00
03171            3600.00
03172            4200.00
03173            4600.00
03174            5000.00
03175            5600.00
03176            5800.00
03177            6200.00
03178            6600.00
03179            6800.00
03180            7400.00
03181            7800.00
03182            8200.00
03183            8600.00
03184            9000.00
03185            9200.00
03186            9800.00
03187           10000.00
03188           10600.00
03189           10800.00
03190           11000.00
03191           11600.00
03192           12000.00
03193           12200.00
03194           12600.00
03195           13000.00
03196           13200.00
03197           13400.00
03198           14000.00
03199           14200.00
03200           14600.00
03201           15000.00
03202           15400.00
03203           15400.00
03204           15800.00
03205           16200.00
03206           16400.00
03207           16600.00
03208           17000.00
03209           17200.00
03210           17400.00
03211           17800.00
03212           18000.00
03213           18200.00
03214           18600.00
03215           18600.00
03216           19000.00
03217           19400.00
03218           19400.00
03219           19600.00
03220           19600.00
03221           20200.00
03222           20200.00
03223           20400.00
03224           20400.00
03225           20600.00
03226           21000.00
03227           21000.00
03228           21200.00
03229           21200.00
03230           21200.00
03231           21400.00
03232           21800.00
03233           21800.00
03234           21800.00
03235           21800.00
03236           22000.00
03237           22000.00
03238           22000.00
03239           22000.00
03240           22200.00
03241           22200.00
03242           22000.00
03243           22200.00
03244           22200.00
03245           22200.00
03246           22200.00
03247           22200.00
03248           22200.00
03249           22200.00
03250           22000.00
03251           22000.00
03252           22000.00
03253           22000.00
03254           21800.00
03255           21800.00
03256           21800.00
03257           21600.00
03258           21400.00
03259           21400.00
03260           21200.00
03261           21200.00
03262           21000.00
03263           20800.00
03264           21000.00
03265           20400.00
03266           20400.00
03267           20200.00
03268           20000.00
03269           19800.00
03270           19600.00
03271           19400.00
03272           19400.00
03273           19000.00
03274           18800.00
03275           18600.00
03276           18200.00
03277           18000.00
03278           18000.00
03279           17800.00
03280           17200.00
03281           17000.00
03282           16800.00
03283           16400.00
03284           16400.00
03285           16200.00
03286           15800.00
03287           15400.00
03288           15000.00
03289           14800.00
03290           14600.00
03291           14200.00
03292           14000.00
03293           13400.00
03294           13000.00
03295           13000.00
03296           12400.00
03297           12200.00
03298           11800.00
03299           11400.00
03300           11200.00
03301           10800.00
03302           10600.00
03303           10000.00
03304            9800.00
03305            9200.00
03306            9000.00
03307            8400.00
03308            8200.00
03309            7600.00
03310            7200.00
03311            6800.00
03312            6600.00
03313            6200.00
03314            5800.00
03315            5200.00
03316            5000.00
03317            4400.00
03318            4200.00
03319            3600.00
03320            3200.00
03321            2800.00
03322            2600.00
03323            2000.00
03324            1400.00
03325            1200.00
03326             600.00
03327             200.00
03328            -200.00
03329            -600.00
03330           -1000.00
03331           -1200.00
03332           -1800.00
03333           -2000.00
03334           -2600.00
03335           -2800.00
03336           -3000.00
03337           -3800.00
03338           -4400.00
03339           -5000.00
03340           -5200.00
03341           -5400.00
03342           -5400.00
03343           -6000.00
03344           -6600.00
03345           -6800.00
03346           -7400.00
03347           -7600.00
03348           -8200.00
03349           -8600.00
03350           -8800.00
03351           -9200.00
03352           -9600.00
03353          -10000.00
03354          -10400.00
03355          -10800.00
03356          -11000.00
03357          -11400.00
03358          -11600.00
03359          -12200.00
03360          -12600.00
03361          -13000.00
03362          -13200.00
03363          -13400.00
03364          -14000.00
03365          -14200.00
03366          -14600.00
03367          -15000.00
03368          -15000.00
03369          -15600.00
03370          -15800.00
03371          -16000.00
03372          -16400.00
03373          -16600.00
03374          -17200.00
03375          -17200.00
03376          -17400.00
03377          -17800.00
03378          -18000.00
03379          -18200.00
03380          -18400.00
03381          -18600.00
03382          -19000.00
03383          -19000.00
03384          -19600.00
03385          -19600.00
03386          -19800.00
03387          -19800.00
03388          -20200.00
03389          -20400.00
03390          -20400.00
03391          -20600.00
03392          -20600.00
03393          -21000.00
03394          -21000.00
03395          -21200.00
03396          -21200.00
03397          -21400.00
03398          -21400.00
03399          -21600.00
03400          -21800.00
03401          -22000.00
03402          -22000.00
03403          -22000.00
03404          -22000.00
03405          -22000.00
03406          -22000.00
03407          -22200.00
03408          -22200.00
03409          -22200.00
03410          -22200.00
03411          -22200.00
03412          -22200.00
03413          -22200.00
03414          -22200.00
03415          -22200.00
03416          -22000.00
03417          -22000.00
03418          -22000.00
03419          -22000.00
03420          -21800.00
03421          -21600.00
03422          -21600.00
03423          -21400.00
03424          -21400.00
03425          -21400.00
03426          -21200.00
03427          -21200.00
03428          -21000.00
03429          -20800.00
03430          -20600.00
03431          -20600.00
03432          -20400.00
03433          -20200.00
03434          -20200.00
03435          -19800.00
03436          -19600.00
03437          -19600.00
03438          -19200.00
03439          -19000.00
03440          -18800.00
03441          -18600.00
03442          -18200.00
03443          -18000.00
03444          -17800.00
03445          -17400.00
03446          -17400.00
03447          -17000.00
03448          -17000.00
03449          -16400.00
03450          -16200.00
03451          -15800.00
03452          -15600.00
03453          -15400.00
03454          -15000.00
03455          -14800.00
03456          -14600.00
03457          -14200.00
03458          -14000.00
03459          -13600.00
03460          -13200.00
03461          -12800.00
03462          -12400.00
03463          -12200.00
03464          -11800.00
03465          -11400.00
03466          -11000.00
03467          -10800.00
03468          -10200.00
03469          -10000.00
03470           -9800.00
03471           -9400.00
03472           -8800.00
03473           -8600.00
03474           -8200.00
03475           -7600.00
03476           -7200.00
03477           -7000.00
03478           -6400.00
03479           -6000.00
03480           -5600.00
03481           -5200.00
03482           -5000.00
03483           -4400.00
03484           -4000.00
03485           -3600.00
03486           -3200.00
03487           -2800.00
03488           -2400.00
03489           -2200.00
03490           -1600.00
03491           -1200.00
03492            -600.00
03493            -200.00
03494             200.00
03495             600.00
03496             800.00
03497            1400.00
03498            1800.00
03499            2000.00
03500            2600.00
03501            2800.00
03502            3000.00
03503            3600.00
03504            4200.00
03505            4400.00
03506            5000.00
03507            5400.00
03508            5800.00
03509            6000.00
03510            6600.00
03511            6800.00
03512            7400.00
03513            7600.00
03514            8000.00
03515            8400.00
03516            8800.00
03517            9200.00
03518            9600.00
03519           10000.00
03520           10200.00
03521           10600.00
03522           11000.00
03523           11400.00
03524           11800.00
03525           12200.00
03526           12400.00
03527           13000.00
03528           13000.00
03529           13600.00
03530           13800.00
03531           14200.00
03532           14600.00
03533           14800.00
03534           15200.00
03535           15400.00
03536           15800.00
03537           16200.00
03538           16400.00
03539           16600.00
03540           17000.00
03541           17200.00
03542           17400.00
03543           18000.00
03544           18000.00
03545           18200.00
03546           18600.00
03547           18800.00
03548           19000.00
03549           19400.00
03550           19400.00
03551           19400.00
03552           19600.00
03553           20200.00
03554           20200.00
03555           20400.00
03556           20400.00
03557           20600.00
03558           20800.00
03559           21000.00
03560           21000.00
03561           21200.00
03562           21200.00
03563           21400.00
03564           21600.00
03565           21800.00
03566           21800.00
03567           21800.00
03568           22000.00
03569           21800.00
03570           22000.00
03571           22000.00
03572           22000.00
03573           22200.00
03574           22000.00
03575           22200.00
03576           22200.00
03577           22000.00
03578           22200.00
03579           22200.00
03580           22200.00
03581           22200.00
03582           22200.00
03583           22000.00
03584           22000.00
03585           21800.00
03586           21800.00
03587           21800.00
03588           21800.00
03589           21400.00
03590           21400.00
03591           21200.00
03592           21200.00
03593           21200.00
03594           21200.00
03595           21000.00
03596           20800.00
03597           20600.00
03598           20400.00
03599           20200.00
03600           20200.00
03601           19800.00
03602           19600.00
03603           19600.00
03604           19400.00
03605           19000.00
03606           18800.00
03607           18600.00
03608           18200.00
03609           18000.00
03610           18000.00
03611           17800.00
03612           17400.00
03613           17200.00
03614           17000.00
03615           16600.00
03616           16400.00
03617           16200.00
03618           15800.00
03619           15600.00
03620           15000.00
03621           14800.00
03622           14600.00
03623           14200.00
03624           14000.00
03625           13400.00
03626           13200.00
03627           13000.00
03628           12400.00
03629           12400.00
03630           11800.00
03631           11600.00
03632           11400.00
03633           10800.00
03634           10200.00
03635           10200.00
03636            9800.00
03637            9200.00
03638            9000.00
03639            8400.00
03640            8200.00
03641            7600.00
03642            7400.00
03643            6800.00
03644            6600.00
03645            6000.00
03646            5800.00
03647            5200.00
03648            5000.00
03649            4400.00
03650            4000.00
03651            3800.00
03652            3200.00
03653            2800.00
03654            2600.00
03655            2000.00
03656            1600.00
03657            1200.00
03658             600.00
03659             400.00
03660            -200.00
03661            -400.00
03662            -600.00
03663           -1200.00
03664           -1800.00
03665           -2000.00
03666           -2200.00
03667           -2600.00
03668           -3000.00
03669           -3600.00
03670           -4200.00
03671           -4800.00
03672           -5000.00
03673           -5200.00
03674           -5400.00
03675           -6000.00
03676           -6600.00
03677           -6800.00
03678           -7000.00
03679           -7600.00
03680           -7800.00
03681           -8600.00
03682           -8600.00
03683           -9200.00
03684           -9400.00
03685           -9800.00
03686          -10400.00
03687          -10800.00
03688          -11000.00
03689          -11400.00
03690          -11600.00
03691          -12200.00
03692          -12600.00
03693          -12600.00
03694          -13200.00
03695          -13400.00
03696          -14000.00
03697          -14000.00
03698          -14600.00
03699          -14800.00
03700          -15000.00
03701          -15400.00
03702          -15600.00
03703          -15800.00
03704          -16400.00
03705          -16600.00
03706          -17000.00
03707          -17200.00
03708          -17400.00
03709          -17800.00
03710          -18000.00
03711          -18200.00
03712          -18400.00
03713          -18600.00
03714          -19000.00
03715          -19000.00
03716          -19400.00
03717          -19600.00
03718          -19800.00
03719          -19800.00
03720          -20200.00
03721          -20400.00
03722          -20400.00
03723          -20600.00
03724          -20600.00
03725          -21000.00
03726          -21000.00
03727          -21200.00
03728          -21400.00
03729          -21400.00
03730          -21600.00
03731          -21600.00
03732          -21800.00
03733          -22000.00
03734          -22000.00
03735          -22000.00
03736          -22000.00
03737          -22200.00
03738          -22000.00
03739          -22000.00
03740          -22200.00
03741          -22200.00
03742          -22200.00
03743          -22200.00
03744          -22200.00
03745          -22000.00
03746          -22200.00
03747          -22000.00
03748          -22000.00
03749          -22000.00
03750          -22000.00
03751          -22000.00
03752          -21800.00
03753          -21800.00
03754          -21800.00
03755          -21600.00
03756          -21400.00
03757          -21400.00
03758          -21200.00
03759          -21200.00
03760          -21000.00
03761          -21000.00
03762          -20600.00
03763          -20600.00
03764          -20400.00
03765          -20200.00
03766          -20200.00
03767          -19800.00
03768          -19600.00
03769          -19600.00
03770          -19400.00
03771          -19000.00
03772          -18800.00
03773          -18600.00
03774          -18400.00
03775          -18200.00
03776          -18000.00
03777          -17600.00
03778          -17200.00
03779          -17200.00
03780          -17000.00
03781          -16600.00
03782          -16200.00
03783          -16200.00
03784          -15800.00
03785          -15600.00
03786          -15000.00
03787          -14800.00
03788          -14600.00
03789          -14200.00
03790          -14000.00
03791          -13600.00
03792          -13200.00
03793          -13000.00
03794          -12600.00
03795          -12400.00
03796          -11800.00
03797          -11600.00
03798          -11400.00
03799          -10800.00
03800          -10400.00
03801          -10000.00
03802           -9800.00
03803           -9400.00
03804           -9000.00
03805           -8600.00
03806           -8200.00
03807           -7600.00
03808           -7400.00
03809           -7000.00
03810           -6600.00
03811           -6200.00
03812           -5800.00
03813           -5200.00
03814           -4800.00
03815           -4600.00
03816           -4200.00
03817           -3600.00
03818           -3400.00
03819           -2800.00
03820           -2200.00
03821           -2000.00
03822           -1800.00
03823           -1200.00
03824            -600.00
03825            -400.00
03826             200.00
03827             400.00
03828            1000.00
03829            1400.00
03830            1800.00
03831            2000.00
03832            2400.00
03833            2600.00
03834            3000.00
03835            3600.00
03836            4000.00
03837            4600.00
03838            5000.00
03839            5400.00
03840            5800.00
03841            6000.00
03842            6600.00
03843            6600.00
03844            7200.00
03845            7600.00
03846            7800.00
03847            8200.00
03848            8600.00
03849            9000.00
03850            9400.00
03851           10000.00
03852           10200.00
03853           10600.00
03854           10800.00
03855           11400.00
03856           11600.00
03857           12200.00
03858           12400.00
03859           12600.00
03860           13200.00
03861           13400.00
03862           13800.00
03863           14000.00
03864           14600.00
03865           14800.00
03866           15000.00
03867           15400.00
03868           15600.00
03869           16000.00
03870           16400.00
03871           16600.00
03872           17000.00
03873           17000.00
03874           17400.00
03875           17800.00
03876           18000.00
03877           18200.00
03878           18600.00
03879           18600.00
03880           19000.00
03881           19000.00
03882           19400.00
03883           19600.00
03884           19600.00
03885           19800.00
03886           20200.00
03887           20400.00
03888           20400.00
03889           20600.00
03890           21000.00
03891           21000.00
03892           21200.00
03893           21200.00
03894           21400.00
03895           21400.00
03896           21800.00
03897           21600.00
03898           21800.00
03899           21800.00
03900           22000.00
03901           22000.00
03902           22000.00
03903           22000.00
03904           22200.00
03905           22200.00
03906           22200.00
03907           22200.00
03908           22200.00
03909           22200.00
03910           22200.00
03911           22000.00
03912           22000.00
03913           22000.00
03914           22000.00
03915           22000.00
03916           21800.00
03917           21800.00
03918           21800.00
03919           21800.00
03920           21800.00
03921           21400.00
03922           21400.00
03923           21400.00
03924           21200.00
03925           21200.00
03926           21000.00
03927           21000.00
03928           21000.00
03929           20600.00
03930           20400.00
03931           20400.00
03932           20200.00
03933           19800.00
03934           19800.00
03935           19400.00
03936           19400.00
03937           19000.00
03938           19000.00
03939           18800.00
03940           18600.00
03941           18200.00
03942           17800.00
03943           17800.00
03944           17400.00
03945           17200.00
03946           17000.00
03947           16600.00
03948           16400.00
03949           16200.00
03950           15800.00
03951           15600.00
03952           15400.00
03953           15000.00
03954           14600.00
03955           14600.00
03956           14000.00
03957           13800.00
03958           13200.00
03959           13000.00
03960           12600.00
03961           12400.00
03962           12000.00
03963           11600.00
03964           11200.00
03965           10800.00
03966           10600.00
03967           10000.00
03968            9800.00
03969            9400.00
03970            9000.00
03971            8600.00
03972            8400.00
03973            7800.00
03974            7600.00
03975            6800.00
03976            6800.00
03977            6000.00
03978            5800.00
03979            5400.00
03980            5000.00
03981            4400.00
03982            4200.00
03983            3600.00
03984            3400.00
03985            2800.00
03986            2600.00
03987            2200.00
03988            1800.00
03989            1200.00
03990             800.00
03991             400.00
03992            -200.00
03993            -600.00
03994           -1000.00
03995           -1200.00
03996           -1600.00
03997           -2000.00
03998           -2200.00
03999           -2800.00
04000           -3000.00
04001           -3600.00
04002           -4200.00
04003           -4800.00
04004           -5000.00
04005           -5200.00
04006           -5400.00
04007           -5800.00
04008           -6200.00
04009           -6800.00
04010           -7000.00
04011           -7600.00
04012           -7800.00
04013           -8400.00
04014           -8600.00
04015           -9200.00
04016           -9600.00
04017           -9800.00
04018          -10200.00
04019          -10600.00
04020          -10800.00
04021          -11000.00
04022          -11600.00
04023          -12200.00
04024          -12600.00
04025          -12600.00
04026          -13200.00
04027          -13400.00
04028          -13800.00
04029          -14000.00
04030          -14400.00
04031          -14800.00
04032          -15000.00
04033          -15400.00
04034          -15600.00
04035          -15800.00
04036          -16200.00
04037          -16600.00
04038          -17000.00
04039          -17200.00
04040          -17400.00
04041          -17800.00
04042          -18000.00
04043          -18200.00
04044          -18600.00
04045          -18600.00
04046          -19000.00
04047          -19000.00
04048          -19400.00
04049          -19400.00
04050          -19800.00
04051          -19800.00
04052          -20200.00
04053          -20400.00
04054          -20400.00
04055          -20600.00
04056          -20800.00
04057          -21000.00
04058          -21200.00
04059          -21200.00
04060          -21400.00
04061          -21400.00
04062          -21400.00
04063          -21800.00
04064          -21800.00
04065          -21600.00
04066          -22000.00
04067          -22000.00
04068          -22000.00
04069          -22000.00
04070          -22000.00
04071          -22200.00
04072          -22000.00
04073          -22200.00
04074          -22200.00
04075          -22000.00
04076          -22200.00
04077          -22200.00
04078          -22000.00
04079          -22000.00
04080          -22000.00
04081          -22000.00
04082          -22000.00
04083          -21800.00
04084          -22000.00
04085          -21800.00
04086          -21600.00
04087          -21400.00
04088          -21400.00
04089          -21400.00
04090          -21200.00
04091          -21200.00
04092          -21000.00
04093          -21000.00
04094          -20600.00
04095          -20600.00
04096          -20400.00
04097          -20200.00
04098          -20200.00
04099          -19800.00
04100          -19800.00
04101          -19600.00
04102          -19200.00
04103          -19400.00
04104          -18800.00
04105          -18600.00
04106          -18600.00
04107          -18200.00
04108          -18200.00
04109          -17800.00
04110          -17400.00
04111          -17200.00
04112          -17000.00
04113          -16600.00
04114          -16400.00
04115          -16200.00
04116          -15800.00
04117          -15600.00
04118          -15400.00
04119          -15000.00
04120          -14800.00
04121          -14200.00
04122          -14000.00
04123          -13600.00
04124          -13400.00
04125          -13000.00
04126          -12600.00
04127          -12400.00
04128          -11800.00
04129          -11600.00
04130          -11400.00
04131          -10800.00
04132          -10600.00
04133          -10200.00
04134           -9800.00
04135           -9200.00
04136           -8800.00
04137           -8600.00
04138           -8200.00
04139           -7800.00
04140           -7400.00
04141           -7000.00
04142           -6600.00
04143           -6200.00
04144           -5800.00
04145           -5400.00
04146           -5000.00
04147           -4600.00
04148           -4200.00
04149           -3800.00
04150           -3400.00
04151           -3000.00
04152           -2600.00
04153           -2200.00
04154           -1800.00
04155           -1200.00
04156            -600.00
04157            -400.00
04158            -200.00
04159             400.00
04160            1000.00
04161            1200.00
04162            1600.00
04163            2000.00
04164            2200.00
04165            2600.00
04166            3000.00
04167            3400.00
04168            3800.00
04169            4400.00
04170            4800.00
04171            5200.00
04172            5400.00
04173            5800.00
04174            6400.00
04175            6800.00
04176            6800.00
04177            7400.00
04178            7800.00
04179            8200.00
04180            8600.00
04181            9000.00
04182            9400.00
04183            9800.00
04184           10000.00
04185           10600.00
04186           10800.00
04187           11400.00
04188           11600.00
04189           12000.00
04190           12200.00
04191           12800.00
04192           13000.00
04193           13200.00
04194           13800.00
04195           14000.00
04196           14400.00
04197           14800.00
04198           15000.00
04199           15400.00
04200           15600.00
04201           16200.00
04202           16200.00
04203           16600.00
04204           17000.00
04205           17200.00
04206           17200.00
04207           17600.00
04208           17800.00
04209           18200.00
04210           18600.00
04211           18600.00
04212           19000.00
04213           19000.00
04214           19400.00
04215           19400.00
04216           19800.00
04217           19800.00
04218           20200.00
04219           20200.00
04220           20400.00
04221           20600.00
04222           21000.00
04223           21000.00
04224           21200.00
04225           21200.00
04226           21200.00
04227           21400.00
04228           21600.00
04229           21800.00
04230           21800.00
04231           21800.00
04232           21800.00
04233           21800.00
04234           22000.00
04235           22200.00
04236           22000.00
04237           22200.00
04238           22200.00
04239           22000.00
04240           22000.00
04241           22200.00
04242           22000.00
04243           22000.00
04244           22000.00
04245           22200.00
04246           22000.00
04247           22000.00
04248           22000.00
04249           21800.00
04250           21800.00
04251           21800.00
04252           21800.00
04253           21800.00
04254           21400.00
04255           21200.00
04256           21200.00
04257           21200.00
04258           21000.00
04259           21000.00
04260           21000.00
04261           20400.00
04262           20400.00
04263           20200.00
04264           20200.00
04265           20000.00
04266           19800.00
04267           19800.00
04268           19400.00
04269           19000.00
04270           19000.00
04271           18800.00
04272           18600.00
04273           18200.00
04274           18000.00
04275           17800.00
04276           17400.00
04277           17400.00
04278           17000.00
04279           16800.00
04280           16400.00
04281           16200.00
04282           15800.00
04283           15600.00
04284           15400.00
04285           15000.00
04286           14800.00
04287           14600.00
04288           14000.00
04289           13800.00
04290           13200.00
04291           13000.00
04292           12600.00
04293           12200.00
04294           12000.00
04295           11600.00
04296           11200.00
04297           10800.00
04298           10600.00
04299           10000.00
04300            9800.00
04301            9200.00
04302            9000.00
04303            8600.00
04304            8200.00
04305            7800.00
04306            7400.00
04307            7000.00
04308            6600.00
04309            6200.00
04310            5800.00
04311            5400.00
04312            5200.00
04313            4400.00
04314            4200.00
04315            3800.00
04316            3400.00
04317            3000.00
04318            2600.00
04319            2200.00
04320            1800.00
04321            1200.00
04322            1000.00
04323             400.00
04324             200.00
04325            -400.00
04326            -600.00
04327           -1200.00
04328           -1400.00
04329           -1800.00
04330           -2200.00
04331           -2600.00
04332           -3000.00
04333           -3200.00
04334           -4200.00
04335           -4600.00
04336           -5000.00
04337           -5400.00
04338           -5400.00
04339           -5800.00
04340           -6200.00
04341           -6600.00
04342           -7000.00
04343           -7600.00
04344           -7600.00
04345           -8200.00
04346           -8600.00
04347           -9000.00
04348           -9400.00
04349           -9800.00
04350          -10200.00
04351          -10600.00
04352          -10800.00
04353          -11400.00
04354          -11600.00
04355          -12200.00
04356          -12400.00
04357          -12600.00
04358          -13000.00
04359          -13400.00
04360          -13800.00
04361          -14200.00
04362          -14200.00
04363          -14800.00
04364          -15000.00
04365          -15400.00
04366          -15800.00
04367          -15800.00
04368          -16400.00
04369          -16600.00
04370          -17000.00
04371          -17200.00
04372          -17200.00
04373          -17800.00
04374          -18000.00
04375          -18200.00
04376          -18400.00
04377          -18800.00
04378          -19000.00
04379          -19000.00
04380          -19400.00
04381          -19600.00
04382          -19800.00
04383          -19800.00
04384          -20200.00
04385          -20400.00
04386          -20400.00
04387          -20400.00
04388          -20800.00
04389          -21000.00
04390          -21000.00
04391          -21200.00
04392          -21400.00
04393          -21400.00
04394          -21400.00
04395          -21600.00
04396          -21800.00
04397          -22000.00
04398          -21800.00
04399          -22000.00
04400          -22000.00
04401          -22000.00
04402          -22000.00
04403          -22000.00
04404          -22000.00
04405          -22000.00
04406          -22200.00
04407          -22200.00
04408          -22000.00
04409          -22200.00
04410          -22000.00
04411          -22000.00
04412          -22000.00
04413          -22000.00
04414          -22000.00
04415          -22000.00
04416          -22000.00
04417          -21800.00
04418          -21600.00
04419          -21400.00
04420          -21400.00
04421          -21400.00
04422          -21400.00
04423          -21200.00
04424          -21200.00
04425          -21000.00
04426          -20600.00
04427          -20600.00
04428          -20400.00
04429          -20200.00
04430          -20200.00
04431          -19800.00
04432          -19800.00
04433          -19600.00
04434          -19400.00
04435          -19000.00
04436          -19000.00
04437          -18800.00
04438          -18600.00
04439          -18200.00
04440          -18000.00
04441          -18000.00
04442          -17400.00
04443          -17200.00
04444          -17200.00
04445          -16800.00
04446          -16400.00
04447          -16200.00
04448          -15800.00
04449          -15600.00
04450          -15400.00
04451          -15000.00
04452          -14800.00
04453          -14200.00
04454          -14000.00
04455          -13800.00
04456          -13400.00
04457          -13200.00
04458          -12600.00
04459          -12400.00
04460          -11800.00
04461          -11600.00
04462          -11000.00
04463          -10800.00
04464          -10400.00
04465          -10200.00
04466           -9800.00
04467           -9400.00
04468           -9000.00
04469           -8600.00
04470           -8200.00
04471           -7800.00
04472           -7400.00
04473           -7000.00
04474           -6600.00
04475           -6200.00
04476           -5800.00
04477           -5400.00
04478           -5000.00
04479           -4600.00
04480           -4200.00
04481           -3800.00
04482           -3400.00
04483           -3000.00
04484           -2600.00
04485           -2200.00
04486           -1800.00
04487           -1200.00
04488            -800.00
04489            -600.00
04490            -200.00
04491             200.00
04492             800.00
04493            1200.00
04494            1400.00
04495            1800.00
04496            2200.00
04497            2600.00
04498            2800.00
04499            3400.00
04500            3800.00
04501            4200.00
04502            4600.00
04503            5200.00
04504            5400.00
04505            5800.00
04506            6200.00
04507            6600.00
04508            6800.00
04509            7400.00
04510            7800.00
04511            8200.00
04512            8600.00
04513            9000.00
04514            9200.00
04515            9800.00
04516           10000.00
04517           10600.00
04518           10800.00
04519           11400.00
04520           11600.00
04521           11800.00
04522           12200.00
04523           12600.00
04524           13000.00
04525           13400.00
04526           13800.00
04527           14000.00
04528           14200.00
04529           14800.00
04530           15000.00
04531           15400.00
04532           15600.00
04533           15800.00
04534           16200.00
04535           16400.00
04536           17000.00
04537           17000.00
04538           17200.00
04539           17800.00
04540           18000.00
04541           18000.00
04542           18200.00
04543           18600.00
04544           18800.00
04545           19000.00
04546           19400.00
04547           19600.00
04548           19600.00
04549           19800.00
04550           20200.00
04551           20400.00
04552           20400.00
04553           20400.00
04554           20600.00
04555           21000.00
04556           21000.00
04557           21200.00
04558           21200.00
04559           21400.00
04560           21600.00
04561           21400.00
04562           21800.00
04563           21800.00
04564           21800.00
04565           21800.00
04566           21800.00
04567           22000.00
04568           22000.00
04569           22000.00
04570           22000.00
04571           22000.00
04572           22000.00
04573           22000.00
04574           22000.00
04575           22200.00
04576           22000.00
04577           22000.00
04578           22200.00
04579           22000.00
04580           22000.00
04581           22000.00
04582           21800.00
04583           21800.00
04584           21800.00
04585           21600.00
04586           21400.00
04587           21200.00
04588           21200.00
04589           21200.00
04590           21200.00
04591           21000.00
04592           21000.00
04593           20800.00
04594           20400.00
04595           20400.00
04596           20200.00
04597           20200.00
04598           19800.00
04599           19600.00
04600           19400.00
04601           19400.00
04602           19000.00
04603           18800.00
04604           18600.00
04605           18400.00
04606           18200.00
04607           18000.00
04608           17400.00
04609           17200.00
04610           17000.00
04611           17000.00
04612           16600.00
04613           16200.00
04614           16000.00
04615           15600.00
04616           15400.00
04617           15000.00
04618           14800.00
04619           14600.00
04620           14200.00
04621           13800.00
04622           13400.00
04623           13200.00
04624           12800.00
04625           12400.00
04626           12200.00
04627           11600.00
04628           11400.00
04629           10800.00
04630           10600.00
04631           10000.00
04632            9800.00
04633            9400.00
04634            9000.00
04635            8600.00
04636            8200.00
04637            7800.00
04638            7400.00
04639            7000.00
04640            6600.00
04641            6200.00
04642            6000.00
04643            5600.00
04644            5200.00
04645            4600.00
04646            4200.00
04647            3800.00
04648            3400.00
04649            3000.00
04650            2600.00
04651            2200.00
04652            1800.00
04653            1400.00
04654            1000.00
04655             600.00
04656             200.00
04657            -200.00
04658            -600.00
04659           -1000.00
04660           -1400.00
04661           -1800.00
04662           -2200.00
04663           -2600.00
04664           -2800.00
04665           -3400.00
04666           -3800.00
04667           -4400.00
04668           -5000.00
04669           -5200.00
04670           -5200.00
04671           -5400.00
04672           -6200.00
04673           -6600.00
04674           -7000.00
04675           -7600.00
04676           -7600.00
04677           -8200.00
04678           -8600.00
04679           -9000.00
04680           -9200.00
04681           -9800.00
04682          -10000.00
04683          -10600.00
04684          -10800.00
04685          -11000.00
04686          -11600.00
04687          -11800.00
04688          -12400.00
04689          -12600.00
04690          -13000.00
04691          -13400.00
04692          -13800.00
04693          -14000.00
04694          -14200.00
04695          -14800.00
04696          -15000.00
04697          -15400.00
04698          -15600.00
04699          -15800.00
04700          -16200.00
04701          -16600.00
04702          -16800.00
04703          -17000.00
04704          -17200.00
04705          -17400.00
04706          -18000.00
04707          -18200.00
04708          -18600.00
04709          -18800.00
04710          -18800.00
04711          -19000.00
04712          -19400.00
04713          -19400.00
04714          -19800.00
04715          -19800.00
04716          -20200.00
04717          -20200.00
04718          -20400.00
04719          -20400.00
04720          -20600.00
04721          -21000.00
04722          -21000.00
04723          -21200.00
04724          -21200.00
04725          -21400.00
04726          -21400.00
04727          -21400.00
04728          -21800.00
04729          -22000.00
04730          -22000.00
04731          -21800.00
04732          -22000.00
04733          -22000.00
04734          -22000.00
04735          -22200.00
04736          -22200.00
04737          -22200.00
04738          -22200.00
04739          -22000.00
04740          -22000.00
04741          -22000.00
04742          -22000.00
04743          -22000.00
04744          -22000.00
04745          -22000.00
04746          -22000.00
04747          -21800.00
04748          -21800.00
04749          -21800.00
04750          -21800.00
04751          -21400.00
04752          -21400.00
04753          -21400.00
04754          -21200.00
04755          -21200.00
04756          -21200.00
04757          -21000.00
04758          -20600.00
04759          -20800.00
04760          -20400.00
04761          -20200.00
04762          -20200.00
04763          -20000.00
04764          -19800.00
04765          -19800.00
04766          -19400.00
04767          -19400.00
04768          -19000.00
04769          -18800.00
04770          -18600.00
04771          -18200.00
04772          -18000.00
04773          -17800.00
04774          -17400.00
04775          -17200.00
04776          -17200.00
04777          -16600.00
04778          -16600.00
04779          -16200.00
04780          -15800.00
04781          -15600.00
04782          -15400.00
04783          -15000.00
04784          -14800.00
04785          -14200.00
04786          -14000.00
04787          -13800.00
04788          -13400.00
04789          -13000.00
04790          -12600.00
04791          -12400.00
04792          -12200.00
04793          -11600.00
04794          -11400.00
04795          -11000.00
04796          -10400.00
04797          -10200.00
04798           -9800.00
04799           -9400.00
04800           -9200.00
04801           -8600.00
04802           -8200.00
04803           -7800.00
04804           -7400.00
04805           -7000.00
04806           -6800.00
04807           -6200.00
04808           -6000.00
04809           -5600.00
04810           -5000.00
04811           -4600.00
04812           -4400.00
04813           -3800.00
04814           -3400.00
04815           -3000.00
04816           -2800.00
04817           -2200.00
04818           -1800.00
04819           -1200.00
04820           -1000.00
04821            -600.00
04822            -200.00
04823             200.00
04824             600.00
04825            1000.00
04826            1400.00
04827            1800.00
04828            2000.00
04829            2600.00
04830            2800.00
04831            3200.00
04832            3800.00
04833            4400.00
04834            4600.00
04835            5200.00
04836            5400.00
04837            5800.00
04838            6200.00
04839            6600.00
04840            6800.00
04841            7400.00
04842            7600.00
04843            8200.00
04844            8400.00
04845            9000.00
04846            9200.00
04847            9800.00
04848           10000.00
04849           10600.00
04850           10800.00
04851           11000.00
04852           11600.00
04853           12200.00
04854           12400.00
04855           12600.00
04856           13000.00
04857           13200.00
04858           13800.00
04859           14000.00
04860           14200.00
04861           14600.00
04862           14800.00
04863           15400.00
04864           15600.00
04865           15800.00
04866           16200.00
04867           16400.00
04868           16800.00
04869           17000.00
04870           17400.00
04871           17400.00
04872           17800.00
04873           18000.00
04874           18600.00
04875           18600.00
04876           18800.00
04877           19000.00
04878           19400.00
04879           19400.00
04880           19600.00
04881           19800.00
04882           20200.00
04883           20200.00
04884           20400.00
04885           20600.00
04886           20800.00
04887           21000.00
04888           21000.00
04889           21200.00
04890           21200.00
04891           21400.00
04892           21400.00
04893           21400.00
04894           21400.00
04895           21800.00
04896           21800.00
04897           21800.00
04898           22000.00
04899           22000.00
04900           22000.00
04901           22000.00
04902           22200.00
04903           22000.00
04904           22200.00
04905           22000.00
04906           22200.00
04907           22200.00
04908           22000.00
04909           22200.00
04910           22000.00
04911           22000.00
04912           21800.00
04913           22000.00
04914           21800.00
04915           21800.00
04916           21800.00
04917           21800.00
04918           21400.00
04919           21400.00
04920           21200.00
04921           21200.00
04922           21200.00
04923           21000.00
04924           21000.00
04925           20600.00
04926           20600.00
04927           20400.00
04928           20200.00
04929           20200.00
04930           20000.00
04931           19600.00
04932           19600.00
04933           19400.00
04934           19000.00
04935           18800.00
04936           18600.00
04937           18600.00
04938           18200.00
04939           18000.00
04940           17600.00
04941           17400.00
04942           17200.00
04943           17000.00
04944           16600.00
04945           16200.00
04946           16200.00
04947           15600.00
04948           15400.00
04949           15400.00
04950           14800.00
04951           14400.00
04952           14000.00
04953           13800.00
04954           13400.00
04955           13200.00
04956           12800.00
04957           12400.00
04958           12200.00
04959           11600.00
04960           11600.00
04961           11000.00
04962           10600.00
04963           10200.00
04964            9800.00
04965            9400.00
04966            9200.00
04967            8800.00
04968            8400.00
04969            7800.00
04970            7600.00
04971            7000.00
04972            6800.00
04973            6600.00
04974            6000.00
04975            5800.00
04976            5200.00
04977            4800.00
04978            4200.00
04979            4000.00
04980            3600.00
04981            3200.00
04982            2800.00
04983            2200.00
04984            1800.00
04985            1400.00
04986            1000.00
04987             600.00
04988             200.00
04989            -200.00
04990            -600.00
04991            -600.00
04992           -1200.00
04993           -1800.00
04994           -2000.00
04995           -2600.00
04996           -2800.00
04997           -3000.00
04998           -3600.00
04999           -4400.00
05000           -5000.00
