Unit:(mV)
                     CH1
Frequency    301.461 kHz
00001            1200.00
00002            1200.00
00003            1000.00
00004            1000.00
00005             600.00
00006             400.00
00007             400.00
00008             200.00
00009               0.00
00010            -200.00
00011            -200.00
00012            -400.00
00013            -600.00
00014            -600.00
00015           -1000.00
00016           -1000.00
00017           -1000.00
00018           -1200.00
00019           -1600.00
00020           -2000.00
00021           -1800.00
00022           -1800.00
00023           -2200.00
00024           -2200.00
00025           -2600.00
00026           -2200.00
00027           -2800.00
00028           -3000.00
00029           -2800.00
00030           -3000.00
00031           -3400.00
00032           -3400.00
00033           -3600.00
00034           -3800.00
00035           -3800.00
00036           -4200.00
00037           -4200.00
00038           -4400.00
00039           -4400.00
00040           -4600.00
00041           -4600.00
00042           -4800.00
00043           -5000.00
00044           -5200.00
00045           -5200.00
00046           -5400.00
00047           -5400.00
00048           -5600.00
00049           -6000.00
00050           -6000.00
00051           -6000.00
00052           -6000.00
00053           -6200.00
00054           -6600.00
00055           -6400.00
00056           -6600.00
00057           -6800.00
00058           -6800.00
00059           -7000.00
00060           -7000.00
00061           -7000.00
00062           -7000.00
00063           -7400.00
00064           -7400.00
00065           -7400.00
00066           -7400.00
00067           -7400.00
00068           -7600.00
00069           -7600.00
00070           -7800.00
00071           -7800.00
00072           -7800.00
00073           -7800.00
00074           -8000.00
00075           -7800.00
00076           -8200.00
00077           -8200.00
00078           -8200.00
00079           -8400.00
00080           -8400.00
00081           -8400.00
00082           -8400.00
00083           -8400.00
00084           -8400.00
00085           -8400.00
00086           -8600.00
00087           -8400.00
00088           -8400.00
00089           -8400.00
00090           -8400.00
00091           -8600.00
00092           -8400.00
00093           -8400.00
00094           -8600.00
00095           -8400.00
00096           -8400.00
00097           -8400.00
00098           -8400.00
00099           -8400.00
00100           -8400.00
00101           -8400.00
00102           -8400.00
00103           -8400.00
00104           -8200.00
00105           -8400.00
00106           -8200.00
00107           -8200.00
00108           -8200.00
00109           -8000.00
00110           -8200.00
00111           -8200.00
00112           -7800.00
00113           -7800.00
00114           -7800.00
00115           -7800.00
00116           -7600.00
00117           -7600.00
00118           -7400.00
00119           -7400.00
00120           -7400.00
00121           -7200.00
00122           -7000.00
00123           -7000.00
00124           -7200.00
00125           -7000.00
00126           -6800.00
00127           -6800.00
00128           -6600.00
00129           -6600.00
00130           -6600.00
00131           -6200.00
00132           -6200.00
00133           -6000.00
00134           -6000.00
00135           -6000.00
00136           -5600.00
00137           -5600.00
00138           -5400.00
00139           -5400.00
00140           -5200.00
00141           -5200.00
00142           -5000.00
00143           -4800.00
00144           -4600.00
00145           -4600.00
00146           -4400.00
00147           -4200.00
00148           -4000.00
00149           -4000.00
00150           -3800.00
00151           -3800.00
00152           -3600.00
00153           -3400.00
00154           -3400.00
00155           -3000.00
00156           -3000.00
00157           -2800.00
00158           -2800.00
00159           -2600.00
00160           -2200.00
00161           -2200.00
00162           -2000.00
00163           -2000.00
00164           -1800.00
00165           -1800.00
00166           -1200.00
00167           -1200.00
00168           -1000.00
00169           -1000.00
00170            -600.00
00171            -600.00
00172            -600.00
00173            -400.00
00174            -200.00
00175               0.00
00176             200.00
00177             400.00
00178             400.00
00179             600.00
00180             800.00
00181            1000.00
00182            1000.00
00183            1200.00
00184            1400.00
00185            1400.00
00186            1800.00
00187            1800.00
00188            2000.00
00189            2200.00
00190            2400.00
00191            2400.00
00192            2600.00
00193            2600.00
00194            3000.00
00195            3200.00
00196            3200.00
00197            3400.00
00198            3400.00
00199            3600.00
00200            3800.00
00201            3800.00
00202            3800.00
00203            4200.00
00204            4200.00
00205            4400.00
00206            4800.00
00207            4600.00
00208            5000.00
00209            5200.00
00210            5200.00
00211            5200.00
00212            5400.00
00213            5800.00
00214            5800.00
00215            5800.00
00216            6000.00
00217            5800.00
00218            6200.00
00219            6200.00
00220            6600.00
00221            6600.00
00222            6600.00
00223            6600.00
00224            6800.00
00225            6800.00
00226            7000.00
00227            7200.00
00228            7400.00
00229            7200.00
00230            7400.00
00231            7600.00
00232            7400.00
00233            7600.00
00234            7600.00
00235            7600.00
00236            7800.00
00237            7800.00
00238            8000.00
00239            8200.00
00240            8000.00
00241            8200.00
00242            8200.00
00243            8200.00
00244            8200.00
00245            8200.00
00246            8200.00
00247            8200.00
00248            8400.00
00249            8200.00
00250            8400.00
00251            8400.00
00252            8400.00
00253            8400.00
00254            8400.00
00255            8400.00
00256            8400.00
00257            8400.00
00258            8400.00
00259            8400.00
00260            8400.00
00261            8600.00
00262            8400.00
00263            8400.00
00264            8400.00
00265            8400.00
00266            8400.00
00267            8200.00
00268            8400.00
00269            8400.00
00270            8200.00
00271            8200.00
00272            8200.00
00273            8200.00
00274            8200.00
00275            8200.00
00276            8200.00
00277            7800.00
00278            7800.00
00279            7800.00
00280            7600.00
00281            7600.00
00282            7400.00
00283            7400.00
00284            7600.00
00285            7400.00
00286            7400.00
00287            7200.00
00288            7000.00
00289            7000.00
00290            6800.00
00291            6800.00
00292            6800.00
00293            6800.00
00294            6600.00
00295            6600.00
00296            6200.00
00297            6200.00
00298            6200.00
00299            6000.00
00300            5800.00
00301            6000.00
00302            5800.00
00303            5600.00
00304            5400.00
00305            5400.00
00306            5200.00
00307            5200.00
00308            5000.00
00309            5000.00
00310            4600.00
00311            4400.00
00312            4400.00
00313            4200.00
00314            4200.00
00315            3800.00
00316            3800.00
00317            3600.00
00318            3400.00
00319            3400.00
00320            3200.00
00321            3200.00
00322            3000.00
00323            2800.00
00324            2600.00
00325            2600.00
00326            2600.00
00327            2200.00
00328            2000.00
00329            2000.00
00330            1800.00
00331            1400.00
00332            1400.00
00333            1200.00
00334            1200.00
00335            1000.00
00336             600.00
00337             400.00
00338             400.00
00339             200.00
00340             200.00
00341            -200.00
00342            -200.00
00343            -400.00
00344            -400.00
00345            -600.00
00346            -600.00
00347           -1000.00
00348           -1000.00
00349           -1200.00
00350           -1400.00
00351           -1600.00
00352           -2000.00
00353           -1800.00
00354           -1800.00
00355           -2200.00
00356           -2600.00
00357           -2200.00
00358           -2600.00
00359           -2800.00
00360           -2800.00
00361           -2800.00
00362           -3400.00
00363           -3400.00
00364           -3400.00
00365           -3600.00
00366           -3800.00
00367           -4000.00
00368           -4000.00
00369           -4400.00
00370           -4400.00
00371           -4400.00
00372           -4600.00
00373           -4800.00
00374           -5000.00
00375           -5200.00
00376           -5000.00
00377           -5400.00
00378           -5400.00
00379           -5600.00
00380           -5800.00
00381           -6000.00
00382           -6000.00
00383           -6000.00
00384           -6200.00
00385           -6200.00
00386           -6400.00
00387           -6600.00
00388           -6800.00
00389           -6800.00
00390           -6800.00
00391           -6800.00
00392           -7000.00
00393           -7000.00
00394           -7000.00
00395           -7400.00
00396           -7400.00
00397           -7400.00
00398           -7600.00
00399           -7600.00
00400           -7600.00
00401           -7600.00
00402           -7800.00
00403           -7800.00
00404           -7800.00
00405           -7800.00
00406           -8000.00
00407           -8200.00
00408           -8000.00
00409           -8400.00
00410           -8200.00
00411           -8200.00
00412           -8400.00
00413           -8400.00
00414           -8400.00
00415           -8400.00
00416           -8200.00
00417           -8400.00
00418           -8400.00
00419           -8400.00
00420           -8400.00
00421           -8400.00
00422           -8400.00
00423           -8600.00
00424           -8600.00
00425           -8400.00
00426           -8400.00
00427           -8400.00
00428           -8400.00
00429           -8200.00
00430           -8200.00
00431           -8400.00
00432           -8400.00
00433           -8400.00
00434           -8400.00
00435           -8200.00
00436           -8400.00
00437           -8200.00
00438           -8200.00
00439           -8200.00
00440           -8200.00
00441           -8000.00
00442           -7800.00
00443           -8000.00
00444           -7800.00
00445           -7800.00
00446           -7800.00
00447           -7600.00
00448           -7600.00
00449           -7600.00
00450           -7600.00
00451           -7400.00
00452           -7400.00
00453           -7400.00
00454           -7000.00
00455           -7000.00
00456           -7000.00
00457           -6800.00
00458           -7000.00
00459           -6800.00
00460           -6600.00
00461           -6600.00
00462           -6600.00
00463           -6200.00
00464           -6200.00
00465           -6000.00
00466           -6000.00
00467           -5800.00
00468           -5800.00
00469           -5400.00
00470           -5400.00
00471           -5400.00
00472           -5200.00
00473           -5000.00
00474           -5000.00
00475           -4600.00
00476           -4600.00
00477           -4400.00
00478           -4400.00
00479           -4400.00
00480           -4200.00
00481           -3800.00
00482           -3800.00
00483           -3800.00
00484           -3600.00
00485           -3400.00
00486           -3200.00
00487           -3000.00
00488           -2800.00
00489           -2800.00
00490           -2600.00
00491           -2600.00
00492           -2200.00
00493           -2200.00
00494           -2200.00
00495           -2000.00
00496           -1800.00
00497           -1400.00
00498           -1400.00
00499           -1200.00
00500           -1000.00
00501            -800.00
00502            -600.00
00503            -600.00
00504            -400.00
00505            -200.00
00506            -200.00
00507            -200.00
00508             200.00
00509             200.00
00510             400.00
00511             600.00
00512             600.00
00513            1000.00
00514            1000.00
00515            1200.00
00516            1400.00
00517            1800.00
00518            1800.00
00519            2000.00
00520            2000.00
00521            2200.00
00522            2600.00
00523            2200.00
00524            2600.00
00525            2600.00
00526            2800.00
00527            3000.00
00528            3000.00
00529            3400.00
00530            3600.00
00531            3600.00
00532            3800.00
00533            3800.00
00534            4200.00
00535            4200.00
00536            4400.00
00537            4400.00
00538            4600.00
00539            4600.00
00540            5000.00
00541            5200.00
00542            5200.00
00543            5200.00
00544            5400.00
00545            5600.00
00546            5800.00
00547            6000.00
00548            6000.00
00549            6000.00
00550            6200.00
00551            6600.00
00552            6600.00
00553            6600.00
00554            6800.00
00555            6800.00
00556            6800.00
00557            6800.00
00558            7000.00
00559            7400.00
00560            7000.00
00561            7400.00
00562            7400.00
00563            7400.00
00564            7600.00
00565            7600.00
00566            7600.00
00567            7800.00
00568            7800.00
00569            7800.00
00570            8000.00
00571            8000.00
00572            8000.00
00573            8200.00
00574            8200.00
00575            8200.00
00576            8200.00
00577            8200.00
00578            8200.00
00579            8400.00
00580            8400.00
00581            8400.00
00582            8400.00
00583            8400.00
00584            8400.00
00585            8400.00
00586            8400.00
00587            8400.00
00588            8400.00
00589            8400.00
00590            8400.00
00591            8400.00
00592            8400.00
00593            8400.00
00594            8600.00
00595            8400.00
00596            8400.00
00597            8400.00
00598            8400.00
00599            8200.00
00600            8200.00
00601            8400.00
00602            8200.00
00603            8200.00
00604            8200.00
00605            8200.00
00606            8200.00
00607            8200.00
00608            8200.00
00609            7800.00
00610            7600.00
00611            7800.00
00612            7600.00
00613            7800.00
00614            7600.00
00615            7600.00
00616            7400.00
00617            7600.00
00618            7400.00
00619            7000.00
00620            7400.00
00621            7000.00
00622            7000.00
00623            6800.00
00624            6800.00
00625            6800.00
00626            6600.00
00627            6600.00
00628            6200.00
00629            6200.00
00630            6000.00
00631            6000.00
00632            6000.00
00633            5800.00
00634            5800.00
00635            5600.00
00636            5400.00
00637            5200.00
00638            5200.00
00639            5200.00
00640            5000.00
00641            5000.00
00642            4400.00
00643            4400.00
00644            4400.00
00645            4200.00
00646            4200.00
00647            4000.00
00648            3600.00
00649            3600.00
00650            3400.00
00651            3400.00
00652            3200.00
00653            3000.00
00654            2800.00
00655            2600.00
00656            2600.00
00657            2600.00
00658            2200.00
00659            2000.00
00660            2000.00
00661            2000.00
00662            1800.00
00663            1400.00
00664            1400.00
00665            1200.00
00666            1000.00
00667            1000.00
00668             600.00
00669             600.00
00670             400.00
00671             400.00
00672             200.00
00673            -200.00
00674            -400.00
00675            -400.00
00676            -600.00
00677            -600.00
00678            -600.00
00679           -1000.00
00680            -800.00
00681           -1200.00
00682           -1400.00
00683           -1800.00
00684           -1800.00
00685           -1800.00
00686           -2000.00
00687           -2200.00
00688           -2600.00
00689           -2200.00
00690           -2800.00
00691           -2800.00
00692           -2800.00
00693           -3000.00
00694           -3400.00
00695           -3400.00
00696           -3600.00
00697           -3600.00
00698           -3800.00
00699           -3800.00
00700           -4200.00
00701           -4200.00
00702           -4400.00
00703           -4400.00
00704           -4600.00
00705           -4600.00
00706           -4800.00
00707           -5200.00
00708           -5200.00
00709           -5200.00
00710           -5400.00
00711           -5400.00
00712           -5800.00
00713           -5800.00
00714           -6000.00
00715           -6200.00
00716           -6200.00
00717           -6200.00
00718           -6400.00
00719           -6600.00
00720           -6600.00
00721           -6800.00
00722           -6800.00
00723           -7000.00
00724           -7000.00
00725           -7000.00
00726           -7000.00
00727           -7400.00
00728           -7400.00
00729           -7600.00
00730           -7600.00
00731           -7600.00
00732           -7600.00
00733           -7600.00
00734           -7800.00
00735           -7800.00
00736           -7800.00
00737           -7800.00
00738           -8200.00
00739           -8000.00
00740           -8200.00
00741           -8200.00
00742           -8200.00
00743           -8200.00
00744           -8400.00
00745           -8200.00
00746           -8400.00
00747           -8400.00
00748           -8400.00
00749           -8400.00
00750           -8400.00
00751           -8400.00
00752           -8400.00
00753           -8400.00
00754           -8400.00
00755           -8400.00
00756           -8600.00
00757           -8400.00
00758           -8400.00
00759           -8400.00
00760           -8400.00
00761           -8400.00
00762           -8400.00
00763           -8400.00
00764           -8400.00
00765           -8400.00
00766           -8200.00
00767           -8400.00
00768           -8400.00
00769           -8200.00
00770           -8200.00
00771           -8200.00
00772           -8200.00
00773           -8200.00
00774           -7800.00
00775           -7800.00
00776           -7800.00
00777           -7800.00
00778           -7800.00
00779           -7600.00
00780           -7600.00
00781           -7400.00
00782           -7600.00
00783           -7400.00
00784           -7200.00
00785           -7400.00
00786           -7000.00
00787           -7000.00
00788           -7000.00
00789           -6800.00
00790           -7000.00
00791           -6600.00
00792           -6600.00
00793           -6600.00
00794           -6200.00
00795           -6200.00
00796           -6000.00
00797           -6000.00
00798           -5800.00
00799           -5800.00
00800           -5800.00
00801           -5400.00
00802           -5400.00
00803           -5400.00
00804           -5200.00
00805           -5000.00
00806           -5000.00
00807           -4600.00
00808           -4400.00
00809           -4400.00
00810           -4400.00
00811           -4200.00
00812           -4200.00
00813           -3800.00
00814           -3800.00
00815           -3600.00
00816           -3400.00
00817           -3400.00
00818           -3000.00
00819           -3000.00
00820           -2800.00
00821           -2800.00
00822           -2600.00
00823           -2400.00
00824           -2200.00
00825           -2200.00
00826           -2000.00
00827           -2000.00
00828           -1600.00
00829           -1400.00
00830           -1400.00
00831           -1200.00
00832           -1000.00
00833           -1000.00
00834            -600.00
00835            -600.00
00836            -400.00
00837            -400.00
00838            -200.00
00839               0.00
00840             200.00
00841             200.00
00842             400.00
00843             400.00
00844             800.00
00845            1000.00
00846            1000.00
00847            1200.00
00848            1400.00
00849            1800.00
00850            1800.00
00851            2000.00
00852            2000.00
00853            2200.00
00854            2200.00
00855            2600.00
00856            2600.00
00857            2600.00
00858            2800.00
00859            3000.00
00860            3400.00
00861            3400.00
00862            3600.00
00863            3600.00
00864            3800.00
00865            4200.00
00866            4200.00
00867            4400.00
00868            4400.00
00869            4600.00
00870            4600.00
00871            4800.00
00872            5000.00
00873            5200.00
00874            5200.00
00875            5400.00
00876            5400.00
00877            5800.00
00878            5800.00
00879            5800.00
00880            6000.00
00881            6000.00
00882            6200.00
00883            6200.00
00884            6200.00
00885            6600.00
00886            6800.00
00887            6800.00
00888            6800.00
00889            6800.00
00890            7000.00
00891            7000.00
00892            7400.00
00893            7400.00
00894            7400.00
00895            7400.00
00896            7600.00
00897            7600.00
00898            7600.00
00899            7600.00
00900            7800.00
00901            7800.00
00902            7800.00
00903            8000.00
00904            8200.00
00905            8200.00
00906            8200.00
00907            8200.00
00908            8200.00
00909            8200.00
00910            8200.00
00911            8400.00
00912            8400.00
00913            8200.00
00914            8400.00
00915            8400.00
00916            8400.00
00917            8400.00
00918            8400.00
00919            8400.00
00920            8400.00
00921            8400.00
00922            8400.00
00923            8400.00
00924            8400.00
00925            8400.00
00926            8400.00
00927            8400.00
00928            8400.00
00929            8400.00
00930            8400.00
00931            8400.00
00932            8200.00
00933            8200.00
00934            8200.00
00935            8200.00
00936            8200.00
00937            8200.00
00938            8200.00
00939            8200.00
00940            8000.00
00941            8200.00
00942            7800.00
00943            7800.00
00944            7800.00
00945            7600.00
00946            7600.00
00947            7600.00
00948            7400.00
00949            7400.00
00950            7400.00
00951            7200.00
00952            7000.00
00953            7000.00
00954            7000.00
00955            6800.00
00956            6800.00
00957            6600.00
00958            6600.00
00959            6600.00
00960            6200.00
00961            6200.00
00962            6200.00
00963            6000.00
00964            6000.00
00965            5800.00
00966            5600.00
00967            5600.00
00968            5400.00
00969            5200.00
00970            5000.00
00971            5000.00
00972            4800.00
00973            4600.00
00974            4600.00
00975            4400.00
00976            4200.00
00977            4200.00
00978            4200.00
00979            3800.00
00980            3600.00
00981            3600.00
00982            3400.00
00983            3400.00
00984            3000.00
00985            3000.00
00986            3000.00
00987            2600.00
00988            2600.00
00989            2600.00
00990            2200.00
00991            2000.00
00992            2000.00
00993            1800.00
00994            1800.00
00995            1800.00
00996            1400.00
00997            1200.00
00998            1200.00
00999            1000.00
01000             600.00
01001             400.00
01002             400.00
01003             200.00
01004             200.00
01005            -200.00
01006            -200.00
01007            -400.00
01008            -600.00
01009            -600.00
01010            -800.00
01011           -1000.00
01012           -1200.00
01013           -1200.00
01014           -1600.00
01015           -2000.00
01016           -1800.00
01017           -1800.00
01018           -2000.00
01019           -2200.00
01020           -2600.00
01021           -2600.00
01022           -2800.00
01023           -2800.00
01024           -2800.00
01025           -3000.00
01026           -3400.00
01027           -3400.00
01028           -3600.00
01029           -3800.00
01030           -3800.00
01031           -4000.00
01032           -4400.00
01033           -4400.00
01034           -4600.00
01035           -4600.00
01036           -5000.00
01037           -4800.00
01038           -5200.00
01039           -5200.00
01040           -5400.00
01041           -5400.00
01042           -5600.00
01043           -5800.00
01044           -6000.00
01045           -6000.00
01046           -6000.00
01047           -6000.00
01048           -6200.00
01049           -6200.00
01050           -6600.00
01051           -6600.00
01052           -6800.00
01053           -6800.00
01054           -6800.00
01055           -7000.00
01056           -7000.00
01057           -7000.00
01058           -7000.00
01059           -7200.00
01060           -7400.00
01061           -7600.00
01062           -7600.00
01063           -7600.00
01064           -7600.00
01065           -7600.00
01066           -7800.00
01067           -7800.00
01068           -7800.00
01069           -7800.00
01070           -7800.00
01071           -8200.00
01072           -7800.00
01073           -8200.00
01074           -8400.00
01075           -8400.00
01076           -8200.00
01077           -8400.00
01078           -8400.00
01079           -8400.00
01080           -8400.00
01081           -8400.00
01082           -8400.00
01083           -8400.00
01084           -8600.00
01085           -8400.00
01086           -8600.00
01087           -8400.00
01088           -8600.00
01089           -8600.00
01090           -8400.00
01091           -8400.00
01092           -8400.00
01093           -8600.00
01094           -8400.00
01095           -8400.00
01096           -8400.00
01097           -8400.00
01098           -8400.00
01099           -8200.00
01100           -8400.00
01101           -8400.00
01102           -8200.00
01103           -8200.00
01104           -8200.00
01105           -8000.00
01106           -8000.00
01107           -7800.00
01108           -7800.00
01109           -7800.00
01110           -7800.00
01111           -7600.00
01112           -7600.00
01113           -7600.00
01114           -7400.00
01115           -7400.00
01116           -7400.00
01117           -7000.00
01118           -7000.00
01119           -7000.00
01120           -7000.00
01121           -6800.00
01122           -6800.00
01123           -6600.00
01124           -6600.00
01125           -6200.00
01126           -6200.00
01127           -6200.00
01128           -6000.00
01129           -6000.00
01130           -5800.00
01131           -5800.00
01132           -5400.00
01133           -5400.00
01134           -5400.00
01135           -5000.00
01136           -5000.00
01137           -5000.00
01138           -5000.00
01139           -4600.00
01140           -4600.00
01141           -4400.00
01142           -4400.00
01143           -4200.00
01144           -4000.00
01145           -3800.00
01146           -3600.00
01147           -3600.00
01148           -3400.00
01149           -3000.00
01150           -3200.00
01151           -3000.00
01152           -2800.00
01153           -2600.00
01154           -2600.00
01155           -2200.00
01156           -2200.00
01157           -2000.00
01158           -2000.00
01159           -1800.00
01160           -1800.00
01161           -1400.00
01162           -1400.00
01163           -1200.00
01164           -1000.00
01165           -1000.00
01166            -600.00
01167            -600.00
01168            -600.00
01169            -200.00
01170            -200.00
01171            -200.00
01172             200.00
01173             400.00
01174             400.00
01175             600.00
01176             600.00
01177            1000.00
01178            1000.00
01179            1400.00
01180            1400.00
01181            1800.00
01182            1800.00
01183            2000.00
01184            2000.00
01185            2200.00
01186            2400.00
01187            2600.00
01188            2800.00
01189            2800.00
01190            3000.00
01191            3400.00
01192            3400.00
01193            3400.00
01194            3600.00
01195            3800.00
01196            3800.00
01197            4200.00
01198            4200.00
01199            4200.00
01200            4600.00
01201            4600.00
01202            4800.00
01203            5000.00
01204            5200.00
01205            5200.00
01206            5200.00
01207            5400.00
01208            5400.00
01209            5800.00
01210            5800.00
01211            6000.00
01212            6000.00
01213            6200.00
01214            6200.00
01215            6200.00
01216            6600.00
01217            6600.00
01218            6600.00
01219            6800.00
01220            6800.00
01221            6800.00
01222            7000.00
01223            7200.00
01224            7400.00
01225            7400.00
01226            7400.00
01227            7600.00
01228            7400.00
01229            7600.00
01230            7600.00
01231            7800.00
01232            7600.00
01233            7800.00
01234            7800.00
01235            7800.00
01236            8200.00
01237            8200.00
01238            8200.00
01239            8200.00
01240            8200.00
01241            8400.00
01242            8200.00
01243            8400.00
01244            8400.00
01245            8400.00
01246            8400.00
01247            8400.00
01248            8400.00
01249            8400.00
01250            8600.00
01251            8400.00
01252            8400.00
01253            8400.00
01254            8400.00
01255            8400.00
01256            8400.00
01257            8400.00
01258            8600.00
01259            8400.00
01260            8400.00
01261            8400.00
01262            8400.00
01263            8400.00
01264            8400.00
01265            8400.00
01266            8400.00
01267            8200.00
01268            8200.00
01269            8200.00
01270            8200.00
01271            8200.00
01272            8000.00
01273            7800.00
01274            7800.00
01275            7800.00
01276            7800.00
01277            7800.00
01278            7600.00
01279            7600.00
01280            7400.00
01281            7400.00
01282            7400.00
01283            7200.00
01284            7000.00
01285            7000.00
01286            6800.00
01287            6800.00
01288            6800.00
01289            6600.00
01290            6600.00
01291            6400.00
01292            6200.00
01293            6000.00
01294            6000.00
01295            5800.00
01296            5800.00
01297            5800.00
01298            5400.00
01299            5400.00
01300            5400.00
01301            5200.00
01302            5200.00
01303            5000.00
01304            4600.00
01305            4600.00
01306            4600.00
01307            4400.00
01308            4200.00
01309            4200.00
01310            4000.00
01311            3800.00
01312            3600.00
01313            3600.00
01314            3600.00
01315            3400.00
01316            3200.00
01317            3000.00
01318            2800.00
01319            2800.00
01320            2600.00
01321            2600.00
01322            2200.00
01323            2000.00
01324            2000.00
01325            1800.00
01326            1800.00
01327            1400.00
01328            1400.00
01329            1000.00
01330            1000.00
01331             800.00
01332             600.00
01333             600.00
01334             400.00
01335             200.00
01336             200.00
01337            -200.00
01338            -200.00
01339            -400.00
01340            -600.00
01341            -600.00
01342           -1000.00
01343           -1000.00
01344           -1200.00
01345           -1200.00
01346           -1800.00
01347           -2000.00
01348           -1800.00
01349           -1800.00
01350           -2000.00
01351           -2400.00
01352           -2400.00
01353           -2600.00
01354           -2800.00
01355           -2800.00
01356           -3000.00
01357           -3400.00
01358           -3400.00
01359           -3600.00
01360           -3600.00
01361           -3800.00
01362           -4000.00
01363           -4200.00
01364           -4400.00
01365           -4400.00
01366           -4600.00
01367           -4600.00
01368           -4600.00
01369           -5000.00
01370           -5200.00
01371           -5200.00
01372           -5200.00
01373           -5600.00
01374           -5600.00
01375           -5800.00
01376           -5800.00
01377           -6000.00
01378           -6000.00
01379           -6000.00
01380           -6200.00
01381           -6600.00
01382           -6600.00
01383           -6600.00
01384           -6800.00
01385           -6800.00
01386           -6800.00
01387           -6800.00
01388           -7000.00
01389           -7000.00
01390           -7200.00
01391           -7200.00
01392           -7400.00
01393           -7600.00
01394           -7400.00
01395           -7600.00
01396           -7600.00
01397           -7600.00
01398           -7800.00
01399           -7800.00
01400           -7800.00
01401           -8000.00
01402           -8200.00
01403           -7800.00
01404           -8200.00
01405           -8400.00
01406           -8200.00
01407           -8200.00
01408           -8200.00
01409           -8200.00
01410           -8400.00
01411           -8400.00
01412           -8400.00
01413           -8400.00
01414           -8400.00
01415           -8600.00
01416           -8400.00
01417           -8400.00
01418           -8400.00
01419           -8600.00
01420           -8400.00
01421           -8600.00
01422           -8600.00
01423           -8400.00
01424           -8400.00
01425           -8600.00
01426           -8400.00
01427           -8400.00
01428           -8400.00
01429           -8400.00
01430           -8400.00
01431           -8400.00
01432           -8200.00
01433           -8200.00
01434           -8200.00
01435           -8400.00
01436           -7800.00
01437           -8000.00
01438           -8000.00
01439           -8000.00
01440           -7800.00
01441           -7800.00
01442           -7800.00
01443           -7600.00
01444           -7600.00
01445           -7600.00
01446           -7400.00
01447           -7400.00
01448           -7400.00
01449           -7000.00
01450           -7000.00
01451           -7000.00
01452           -6800.00
01453           -6800.00
01454           -6800.00
01455           -6600.00
01456           -6600.00
01457           -6200.00
01458           -6200.00
01459           -6200.00
01460           -6000.00
01461           -6000.00
01462           -5800.00
01463           -5600.00
01464           -5600.00
01465           -5400.00
01466           -5200.00
01467           -5200.00
01468           -5200.00
01469           -5000.00
01470           -4600.00
01471           -4600.00
01472           -4400.00
01473           -4400.00
01474           -4200.00
01475           -4200.00
01476           -3800.00
01477           -3800.00
01478           -3600.00
01479           -3600.00
01480           -3400.00
01481           -3000.00
01482           -3000.00
01483           -3000.00
01484           -2800.00
01485           -2800.00
01486           -2600.00
01487           -2200.00
01488           -2200.00
01489           -2000.00
01490           -2000.00
01491           -1800.00
01492           -1400.00
01493           -1400.00
01494           -1200.00
01495           -1200.00
01496           -1000.00
01497            -600.00
01498            -600.00
01499            -400.00
01500            -400.00
01501            -200.00
01502            -200.00
01503             200.00
01504             400.00
01505             400.00
01506             600.00
01507             600.00
01508            1000.00
01509            1000.00
01510            1200.00
01511            1200.00
01512            1800.00
01513            1800.00
01514            1800.00
01515            1800.00
01516            2200.00
01517            2400.00
01518            2400.00
01519            2600.00
01520            2800.00
01521            2800.00
01522            3000.00
01523            3400.00
01524            3400.00
01525            3600.00
01526            3600.00
01527            3800.00
01528            4200.00
01529            4200.00
01530            4400.00
01531            4400.00
01532            4400.00
01533            4600.00
01534            4800.00
01535            5000.00
01536            5200.00
01537            5200.00
01538            5200.00
01539            5400.00
01540            5400.00
01541            5800.00
01542            6000.00
01543            6000.00
01544            6000.00
01545            6200.00
01546            6600.00
01547            6600.00
01548            6600.00
01549            6600.00
01550            6800.00
01551            6800.00
01552            6800.00
01553            7000.00
01554            7000.00
01555            7000.00
01556            7200.00
01557            7400.00
01558            7400.00
01559            7400.00
01560            7600.00
01561            7400.00
01562            7600.00
01563            7800.00
01564            7800.00
01565            7800.00
01566            7800.00
01567            8200.00
01568            8200.00
01569            8200.00
01570            8000.00
01571            8200.00
01572            8200.00
01573            8200.00
01574            8400.00
01575            8400.00
01576            8400.00
01577            8400.00
01578            8400.00
01579            8400.00
01580            8400.00
01581            8400.00
01582            8400.00
01583            8400.00
01584            8600.00
01585            8400.00
01586            8400.00
01587            8400.00
01588            8400.00
01589            8400.00
01590            8400.00
01591            8400.00
01592            8400.00
01593            8400.00
01594            8400.00
01595            8400.00
01596            8400.00
01597            8400.00
01598            8200.00
01599            8200.00
01600            8200.00
01601            8200.00
01602            8000.00
01603            8200.00
01604            7800.00
01605            7800.00
01606            8000.00
01607            7800.00
01608            7600.00
01609            7600.00
01610            7600.00
01611            7600.00
01612            7400.00
01613            7400.00
01614            7200.00
01615            7400.00
01616            7000.00
01617            6800.00
01618            6800.00
01619            6800.00
01620            6600.00
01621            6600.00
01622            6200.00
01623            6200.00
01624            6000.00
01625            6000.00
01626            6000.00
01627            5800.00
01628            5800.00
01629            5800.00
01630            5400.00
01631            5400.00
01632            5200.00
01633            5200.00
01634            5000.00
01635            5000.00
01636            4600.00
01637            4600.00
01638            4400.00
01639            4400.00
01640            4200.00
01641            4200.00
01642            3800.00
01643            3800.00
01644            3600.00
01645            3400.00
01646            3400.00
01647            3400.00
01648            3000.00
01649            3000.00
01650            2800.00
01651            2600.00
01652            2600.00
01653            2200.00
01654            2000.00
01655            2000.00
01656            1800.00
01657            1800.00
01658            1800.00
01659            1400.00
01660            1200.00
01661            1200.00
01662            1000.00
01663             600.00
01664             600.00
01665             600.00
01666             400.00
01667             200.00
01668               0.00
01669            -200.00
01670            -200.00
01671            -400.00
01672            -600.00
01673            -600.00
01674            -800.00
01675           -1000.00
01676           -1200.00
01677           -1400.00
01678           -1800.00
01679           -1800.00
01680           -1800.00
01681           -1800.00
01682           -2200.00
01683           -2600.00
01684           -2400.00
01685           -2800.00
01686           -3000.00
01687           -3000.00
01688           -3000.00
01689           -3400.00
01690           -3600.00
01691           -3400.00
01692           -3600.00
01693           -4000.00
01694           -4000.00
01695           -4200.00
01696           -4400.00
01697           -4400.00
01698           -4400.00
01699           -4600.00
01700           -4800.00
01701           -5000.00
01702           -5000.00
01703           -5200.00
01704           -5200.00
01705           -5400.00
01706           -5400.00
01707           -5800.00
01708           -5800.00
01709           -6000.00
01710           -6200.00
01711           -6200.00
01712           -6200.00
01713           -6200.00
01714           -6400.00
01715           -6600.00
01716           -6800.00
01717           -6800.00
01718           -6800.00
01719           -7000.00
01720           -7000.00
01721           -7000.00
01722           -7000.00
01723           -7400.00
01724           -7400.00
01725           -7600.00
01726           -7600.00
01727           -7600.00
01728           -7600.00
01729           -7800.00
01730           -7800.00
01731           -7800.00
01732           -7800.00
01733           -8000.00
01734           -8200.00
01735           -8000.00
01736           -8200.00
01737           -8200.00
01738           -8400.00
01739           -8200.00
01740           -8400.00
01741           -8400.00
01742           -8400.00
01743           -8400.00
01744           -8400.00
01745           -8400.00
01746           -8400.00
01747           -8400.00
01748           -8600.00
01749           -8600.00
01750           -8400.00
01751           -8400.00
01752           -8600.00
01753           -8400.00
01754           -8600.00
01755           -8400.00
01756           -8400.00
01757           -8600.00
01758           -8400.00
01759           -8600.00
01760           -8400.00
01761           -8400.00
01762           -8400.00
01763           -8400.00
01764           -8200.00
01765           -8400.00
01766           -8200.00
01767           -8200.00
01768           -8200.00
01769           -7800.00
01770           -8000.00
01771           -7800.00
01772           -7800.00
01773           -7600.00
01774           -7600.00
01775           -7600.00
01776           -7600.00
01777           -7400.00
01778           -7400.00
01779           -7200.00
01780           -7000.00
01781           -7000.00
01782           -7000.00
01783           -7000.00
01784           -6800.00
01785           -6800.00
01786           -6600.00
01787           -6600.00
01788           -6200.00
01789           -6200.00
01790           -6200.00
01791           -6200.00
01792           -6000.00
01793           -6000.00
01794           -5800.00
01795           -5800.00
01796           -5400.00
01797           -5400.00
01798           -5200.00
01799           -5200.00
01800           -5000.00
01801           -5000.00
01802           -4600.00
01803           -4400.00
01804           -4400.00
01805           -4400.00
01806           -4200.00
01807           -4200.00
01808           -3800.00
01809           -3800.00
01810           -3800.00
01811           -3600.00
01812           -3400.00
01813           -3400.00
01814           -3000.00
01815           -2800.00
01816           -2800.00
01817           -2800.00
01818           -2600.00
01819           -2200.00
01820           -2000.00
01821           -2000.00
01822           -2000.00
01823           -1800.00
01824           -1600.00
01825           -1400.00
01826           -1200.00
01827           -1200.00
01828           -1000.00
01829            -600.00
01830            -600.00
01831            -400.00
01832            -200.00
01833               0.00
01834               0.00
01835             200.00
01836             400.00
01837             400.00
01838             600.00
01839             800.00
01840            1000.00
01841            1000.00
01842            1200.00
01843            1400.00
01844            1800.00
01845            1800.00
01846            1800.00
01847            2000.00
01848            2200.00
01849            2200.00
01850            2600.00
01851            2600.00
01852            2800.00
01853            3000.00
01854            3000.00
01855            3400.00
01856            3400.00
01857            3600.00
01858            3800.00
01859            3800.00
01860            4200.00
01861            4200.00
01862            4400.00
01863            4400.00
01864            4600.00
01865            4600.00
01866            4800.00
01867            5000.00
01868            5200.00
01869            5400.00
01870            5400.00
01871            5400.00
01872            5600.00
01873            5800.00
01874            6000.00
01875            6000.00
01876            6200.00
01877            6200.00
01878            6200.00
01879            6600.00
01880            6600.00
01881            6600.00
01882            6800.00
01883            6800.00
01884            6800.00
01885            7000.00
01886            7000.00
01887            7000.00
01888            7400.00
01889            7200.00
01890            7400.00
01891            7400.00
01892            7400.00
01893            7600.00
01894            7600.00
01895            7600.00
01896            7800.00
01897            7800.00
01898            7800.00
01899            8200.00
01900            8200.00
01901            8200.00
01902            8200.00
01903            8200.00
01904            8200.00
01905            8400.00
01906            8200.00
01907            8400.00
01908            8400.00
01909            8400.00
01910            8400.00
01911            8400.00
01912            8400.00
01913            8400.00
01914            8400.00
01915            8400.00
01916            8400.00
01917            8600.00
01918            8400.00
01919            8400.00
01920            8400.00
01921            8400.00
01922            8400.00
01923            8400.00
01924            8400.00
01925            8400.00
01926            8200.00
01927            8400.00
01928            8200.00
01929            8400.00
01930            8200.00
01931            8200.00
01932            8200.00
01933            8000.00
01934            8200.00
01935            8000.00
01936            8200.00
01937            7800.00
01938            7800.00
01939            7600.00
01940            7800.00
01941            7400.00
01942            7400.00
01943            7400.00
01944            7400.00
01945            7400.00
01946            7200.00
01947            7000.00
01948            6800.00
01949            6800.00
01950            6800.00
01951            6800.00
01952            6600.00
01953            6600.00
01954            6400.00
01955            6600.00
01956            6200.00
01957            6000.00
01958            6000.00
01959            5800.00
01960            5800.00
01961            5800.00
01962            5400.00
01963            5400.00
01964            5200.00
01965            5200.00
01966            5000.00
01967            5000.00
01968            4600.00
01969            4600.00
01970            4400.00
01971            4400.00
01972            4200.00
01973            4200.00
01974            4000.00
01975            3600.00
01976            3600.00
01977            3400.00
01978            3400.00
01979            3400.00
01980            3000.00
01981            3000.00
01982            2800.00
01983            2600.00
01984            2600.00
01985            2600.00
01986            2000.00
01987            2000.00
01988            2000.00
01989            1800.00
01990            1600.00
01991            1400.00
01992            1200.00
01993            1200.00
01994            1000.00
01995             800.00
01996             600.00
01997             400.00
01998             400.00
01999             200.00
02000             200.00
02001            -200.00
02002            -400.00
02003            -400.00
02004            -600.00
02005            -800.00
02006           -1000.00
02007           -1000.00
02008           -1400.00
02009           -1600.00
02010           -2000.00
02011           -2000.00
02012           -1800.00
02013           -1800.00
02014           -2400.00
02015           -2600.00
02016           -2400.00
02017           -2800.00
02018           -2800.00
02019           -3000.00
02020           -3000.00
02021           -3400.00
02022           -3600.00
02023           -3400.00
02024           -3800.00
02025           -3800.00
02026           -4200.00
02027           -4200.00
02028           -4400.00
02029           -4400.00
02030           -4600.00
02031           -4600.00
02032           -4800.00
02033           -5000.00
02034           -5200.00
02035           -5200.00
02036           -5200.00
02037           -5400.00
02038           -5400.00
02039           -5800.00
02040           -5800.00
02041           -6000.00
02042           -6200.00
02043           -6200.00
02044           -6200.00
02045           -6400.00
02046           -6600.00
02047           -6800.00
02048           -6800.00
02049           -6600.00
02050           -6800.00
02051           -7000.00
02052           -7000.00
02053           -7000.00
02054           -7000.00
02055           -7000.00
02056           -7400.00
02057           -7400.00
02058           -7600.00
02059           -7600.00
02060           -7600.00
02061           -7800.00
02062           -7800.00
02063           -7800.00
02064           -7800.00
02065           -7800.00
02066           -8200.00
02067           -8200.00
02068           -8200.00
02069           -8200.00
02070           -8400.00
02071           -8200.00
02072           -8400.00
02073           -8400.00
02074           -8400.00
02075           -8400.00
02076           -8400.00
02077           -8400.00
02078           -8400.00
02079           -8600.00
02080           -8400.00
02081           -8400.00
02082           -8400.00
02083           -8600.00
02084           -8400.00
02085           -8400.00
02086           -8600.00
02087           -8400.00
02088           -8400.00
02089           -8600.00
02090           -8400.00
02091           -8400.00
02092           -8400.00
02093           -8400.00
02094           -8400.00
02095           -8200.00
02096           -8400.00
02097           -8200.00
02098           -8200.00
02099           -8200.00
02100           -8000.00
02101           -7800.00
02102           -7800.00
02103           -7800.00
02104           -7600.00
02105           -7600.00
02106           -7600.00
02107           -7600.00
02108           -7600.00
02109           -7400.00
02110           -7400.00
02111           -7200.00
02112           -7000.00
02113           -7000.00
02114           -7000.00
02115           -6800.00
02116           -6800.00
02117           -6600.00
02118           -6800.00
02119           -6200.00
02120           -6200.00
02121           -6200.00
02122           -6000.00
02123           -6200.00
02124           -6000.00
02125           -5800.00
02126           -5800.00
02127           -5400.00
02128           -5400.00
02129           -5400.00
02130           -5200.00
02131           -5200.00
02132           -5000.00
02133           -5000.00
02134           -4600.00
02135           -4400.00
02136           -4400.00
02137           -4400.00
02138           -4200.00
02139           -4200.00
02140           -3800.00
02141           -3800.00
02142           -3600.00
02143           -3600.00
02144           -3400.00
02145           -3000.00
02146           -3000.00
02147           -2800.00
02148           -2800.00
02149           -2600.00
02150           -2400.00
02151           -2200.00
02152           -2000.00
02153           -2000.00
02154           -1800.00
02155           -1800.00
02156           -1400.00
02157           -1200.00
02158           -1400.00
02159           -1200.00
02160           -1000.00
02161            -600.00
02162            -600.00
02163            -600.00
02164            -200.00
02165            -200.00
02166             200.00
02167             200.00
02168             400.00
02169             600.00
02170             600.00
02171            1000.00
02172            1000.00
02173            1200.00
02174            1200.00
02175            1800.00
02176            2000.00
02177            2000.00
02178            2000.00
02179            2200.00
02180            2400.00
02181            2600.00
02182            2600.00
02183            2800.00
02184            2800.00
02185            3000.00
02186            3200.00
02187            3400.00
02188            3600.00
02189            3600.00
02190            3800.00
02191            4000.00
02192            4200.00
02193            4200.00
02194            4200.00
02195            4400.00
02196            4600.00
02197            4600.00
02198            4800.00
02199            5200.00
02200            5200.00
02201            5200.00
02202            5400.00
02203            5400.00
02204            5800.00
02205            5800.00
02206            5800.00
02207            6000.00
02208            6000.00
02209            6000.00
02210            6600.00
02211            6600.00
02212            6600.00
02213            6600.00
02214            6800.00
02215            6800.00
02216            6800.00
02217            7000.00
02218            7000.00
02219            7200.00
02220            7400.00
02221            7400.00
02222            7400.00
02223            7600.00
02224            7400.00
02225            7600.00
02226            7600.00
02227            7800.00
02228            7800.00
02229            8000.00
02230            8000.00
02231            8200.00
02232            8200.00
02233            8200.00
02234            8200.00
02235            8200.00
02236            8400.00
02237            8400.00
02238            8400.00
02239            8400.00
02240            8400.00
02241            8400.00
02242            8600.00
02243            8400.00
02244            8600.00
02245            8600.00
02246            8400.00
02247            8600.00
02248            8400.00
02249            8400.00
02250            8600.00
02251            8400.00
02252            8400.00
02253            8400.00
02254            8600.00
02255            8400.00
02256            8400.00
02257            8400.00
02258            8400.00
02259            8400.00
02260            8200.00
02261            8400.00
02262            8200.00
02263            8400.00
02264            8200.00
02265            8200.00
02266            8200.00
02267            8200.00
02268            7800.00
02269            7800.00
02270            7800.00
02271            7800.00
02272            7600.00
02273            7600.00
02274            7400.00
02275            7400.00
02276            7400.00
02277            7200.00
02278            7000.00
02279            7000.00
02280            6800.00
02281            7000.00
02282            6800.00
02283            6600.00
02284            6600.00
02285            6600.00
02286            6400.00
02287            6200.00
02288            6000.00
02289            6000.00
02290            6000.00
02291            5800.00
02292            5800.00
02293            5600.00
02294            5400.00
02295            5400.00
02296            5200.00
02297            5200.00
02298            5000.00
02299            5000.00
02300            4600.00
02301            4400.00
02302            4400.00
02303            4200.00
02304            4400.00
02305            3800.00
02306            3800.00
02307            3800.00
02308            3600.00
02309            3400.00
02310            3400.00
02311            3200.00
02312            3200.00
02313            2800.00
02314            2600.00
02315            2600.00
02316            2600.00
02317            2200.00
02318            2000.00
02319            2000.00
02320            1800.00
02321            1800.00
02322            1600.00
02323            1200.00
02324            1200.00
02325            1000.00
02326            1000.00
02327             600.00
02328             400.00
02329             400.00
02330             200.00
02331             200.00
02332            -200.00
02333            -200.00
02334            -400.00
02335            -600.00
02336            -600.00
02337           -1000.00
02338           -1000.00
02339           -1200.00
02340           -1200.00
02341           -1800.00
02342           -2000.00
02343           -1800.00
02344           -2000.00
02345           -2000.00
02346           -2200.00
02347           -2400.00
02348           -2600.00
02349           -2800.00
02350           -2800.00
02351           -2800.00
02352           -3000.00
02353           -3600.00
02354           -3600.00
02355           -3600.00
02356           -3800.00
02357           -4000.00
02358           -3800.00
02359           -4200.00
02360           -4400.00
02361           -4400.00
02362           -4600.00
02363           -4600.00
02364           -5000.00
02365           -5000.00
02366           -5200.00
02367           -5200.00
02368           -5400.00
02369           -5400.00
02370           -5600.00
02371           -5800.00
02372           -6000.00
02373           -6000.00
02374           -6000.00
02375           -6200.00
02376           -6200.00
02377           -6600.00
02378           -6600.00
02379           -6600.00
02380           -6800.00
02381           -6800.00
02382           -7000.00
02383           -7000.00
02384           -7000.00
02385           -7200.00
02386           -7200.00
02387           -7200.00
02388           -7400.00
02389           -7400.00
02390           -7600.00
02391           -7600.00
02392           -7600.00
02393           -7600.00
02394           -7800.00
02395           -7800.00
02396           -7800.00
02397           -8200.00
02398           -8200.00
02399           -8200.00
02400           -8400.00
02401           -8200.00
02402           -8400.00
02403           -8400.00
02404           -8400.00
02405           -8400.00
02406           -8400.00
02407           -8400.00
02408           -8400.00
02409           -8400.00
02410           -8600.00
02411           -8600.00
02412           -8600.00
02413           -8600.00
02414           -8400.00
02415           -8600.00
02416           -8400.00
02417           -8400.00
02418           -8600.00
02419           -8600.00
02420           -8400.00
02421           -8600.00
02422           -8400.00
02423           -8400.00
02424           -8200.00
02425           -8400.00
02426           -8200.00
02427           -8400.00
02428           -8200.00
02429           -8200.00
02430           -8200.00
02431           -8000.00
02432           -7800.00
02433           -7800.00
02434           -7800.00
02435           -7600.00
02436           -7800.00
02437           -7600.00
02438           -7600.00
02439           -7400.00
02440           -7400.00
02441           -7400.00
02442           -7400.00
02443           -7400.00
02444           -7000.00
02445           -7000.00
02446           -7000.00
02447           -6800.00
02448           -6600.00
02449           -6600.00
02450           -6600.00
02451           -6600.00
02452           -6200.00
02453           -6200.00
02454           -6000.00
02455           -6000.00
02456           -6000.00
02457           -5800.00
02458           -5600.00
02459           -5400.00
02460           -5400.00
02461           -5400.00
02462           -5400.00
02463           -5000.00
02464           -5000.00
02465           -4800.00
02466           -4600.00
02467           -4600.00
02468           -4400.00
02469           -4400.00
02470           -4200.00
02471           -4000.00
02472           -3800.00
02473           -3800.00
02474           -3600.00
02475           -3600.00
02476           -3400.00
02477           -3200.00
02478           -3000.00
02479           -2800.00
02480           -2800.00
02481           -2600.00
02482           -2600.00
02483           -2200.00
02484           -2200.00
02485           -2000.00
02486           -1800.00
02487           -1800.00
02488           -1400.00
02489           -1200.00
02490           -1200.00
02491           -1000.00
02492            -600.00
02493            -600.00
02494            -600.00
02495            -400.00
02496            -400.00
02497            -200.00
02498             200.00
02499             400.00
02500             400.00
02501             600.00
02502             600.00
02503            1000.00
02504            1000.00
02505            1200.00
02506            1200.00
02507            1800.00
02508            1800.00
02509            1800.00
02510            2000.00
02511            2200.00
02512            2400.00
02513            2600.00
02514            2600.00
02515            2800.00
02516            2800.00
02517            3000.00
02518            3400.00
02519            3400.00
02520            3400.00
02521            3600.00
02522            3800.00
02523            4000.00
02524            4200.00
02525            4200.00
02526            4200.00
02527            4600.00
02528            4600.00
02529            4600.00
02530            4800.00
02531            5200.00
02532            5200.00
02533            5200.00
02534            5400.00
02535            5400.00
02536            5800.00
02537            5800.00
02538            5800.00
02539            6000.00
02540            6200.00
02541            6200.00
02542            6200.00
02543            6400.00
02544            6600.00
02545            6600.00
02546            6800.00
02547            6800.00
02548            6800.00
02549            7000.00
02550            7000.00
02551            7400.00
02552            7400.00
02553            7400.00
02554            7400.00
02555            7400.00
02556            7600.00
02557            7600.00
02558            7800.00
02559            7800.00
02560            8200.00
02561            8000.00
02562            7800.00
02563            8000.00
02564            8200.00
02565            8200.00
02566            8200.00
02567            8200.00
02568            8400.00
02569            8200.00
02570            8400.00
02571            8400.00
02572            8400.00
02573            8400.00
02574            8400.00
02575            8400.00
02576            8600.00
02577            8400.00
02578            8400.00
02579            8400.00
02580            8400.00
02581            8400.00
02582            8600.00
02583            8400.00
02584            8400.00
02585            8400.00
02586            8400.00
02587            8400.00
02588            8400.00
02589            8400.00
02590            8200.00
02591            8400.00
02592            8400.00
02593            8200.00
02594            8200.00
02595            8200.00
02596            8000.00
02597            7800.00
02598            8200.00
02599            7800.00
02600            8000.00
02601            7600.00
02602            7800.00
02603            7600.00
02604            7600.00
02605            7400.00
02606            7400.00
02607            7400.00
02608            7400.00
02609            7400.00
02610            7000.00
02611            7000.00
02612            6800.00
02613            6800.00
02614            6800.00
02615            6800.00
02616            6600.00
02617            6600.00
02618            6200.00
02619            6200.00
02620            6200.00
02621            6000.00
02622            6000.00
02623            5800.00
02624            5800.00
02625            5400.00
02626            5400.00
02627            5200.00
02628            5200.00
02629            5000.00
02630            5200.00
02631            5000.00
02632            4600.00
02633            4600.00
02634            4400.00
02635            4200.00
02636            4200.00
02637            4200.00
02638            3800.00
02639            3600.00
02640            3600.00
02641            3400.00
02642            3400.00
02643            3000.00
02644            3000.00
02645            2800.00
02646            2600.00
02647            2600.00
02648            2400.00
02649            2200.00
02650            2000.00
02651            2000.00
02652            1800.00
02653            1800.00
02654            1400.00
02655            1200.00
02656            1200.00
02657            1000.00
02658             800.00
02659             600.00
02660             400.00
02661             400.00
02662             200.00
02663             200.00
02664            -200.00
02665            -400.00
02666            -600.00
02667            -600.00
02668            -600.00
02669           -1000.00
02670           -1200.00
02671           -1200.00
02672           -1400.00
02673           -1800.00
02674           -2000.00
02675           -1800.00
02676           -1800.00
02677           -2200.00
02678           -2600.00
02679           -2600.00
02680           -2600.00
02681           -3000.00
02682           -2800.00
02683           -3000.00
02684           -3400.00
02685           -3600.00
02686           -3600.00
02687           -3600.00
02688           -3800.00
02689           -4200.00
02690           -4000.00
02691           -4200.00
02692           -4400.00
02693           -4400.00
02694           -4600.00
02695           -4600.00
02696           -5000.00
02697           -5200.00
02698           -5200.00
02699           -5200.00
02700           -5400.00
02701           -5400.00
02702           -5600.00
02703           -6000.00
02704           -6000.00
02705           -6000.00
02706           -6200.00
02707           -6200.00
02708           -6200.00
02709           -6600.00
02710           -6600.00
02711           -6800.00
02712           -6800.00
02713           -6800.00
02714           -7000.00
02715           -7000.00
02716           -7200.00
02717           -7200.00
02718           -7400.00
02719           -7200.00
02720           -7600.00
02721           -7600.00
02722           -7600.00
02723           -7600.00
02724           -7800.00
02725           -7800.00
02726           -7800.00
02727           -8200.00
02728           -8200.00
02729           -8000.00
02730           -8200.00
02731           -8200.00
02732           -8400.00
02733           -8200.00
02734           -8400.00
02735           -8400.00
02736           -8400.00
02737           -8400.00
02738           -8400.00
02739           -8400.00
02740           -8400.00
02741           -8600.00
02742           -8400.00
02743           -8400.00
02744           -8400.00
02745           -8600.00
02746           -8400.00
02747           -8600.00
02748           -8400.00
02749           -8600.00
02750           -8400.00
02751           -8400.00
02752           -8400.00
02753           -8400.00
02754           -8400.00
02755           -8400.00
02756           -8400.00
02757           -8400.00
02758           -8400.00
02759           -8200.00
02760           -8200.00
02761           -8000.00
02762           -8000.00
02763           -7800.00
02764           -7800.00
02765           -7800.00
02766           -7600.00
02767           -7600.00
02768           -7800.00
02769           -7600.00
02770           -7600.00
02771           -7400.00
02772           -7400.00
02773           -7400.00
02774           -7400.00
02775           -7000.00
02776           -7000.00
02777           -7000.00
02778           -7000.00
02779           -6800.00
02780           -6800.00
02781           -6800.00
02782           -6600.00
02783           -6400.00
02784           -6400.00
02785           -6200.00
02786           -6000.00
02787           -6000.00
02788           -5800.00
02789           -5800.00
02790           -5800.00
02791           -5800.00
02792           -5400.00
02793           -5400.00
02794           -5200.00
02795           -5000.00
02796           -5000.00
02797           -4800.00
02798           -4600.00
02799           -4400.00
02800           -4400.00
02801           -4400.00
02802           -4200.00
02803           -3800.00
02804           -3800.00
02805           -3800.00
02806           -3600.00
02807           -3400.00
02808           -3000.00
02809           -3000.00
02810           -2800.00
02811           -2800.00
02812           -2800.00
02813           -2600.00
02814           -2400.00
02815           -2200.00
02816           -2000.00
02817           -1800.00
02818           -1800.00
02819           -1400.00
02820           -1400.00
02821           -1200.00
02822           -1000.00
02823           -1000.00
02824            -600.00
02825            -600.00
02826            -400.00
02827            -400.00
02828               0.00
02829             200.00
02830             200.00
02831             400.00
02832             400.00
02833             800.00
02834             600.00
02835            1000.00
02836            1200.00
02837            1200.00
02838            1400.00
02839            1800.00
02840            1800.00
02841            2000.00
02842            2000.00
02843            2200.00
02844            2600.00
02845            2400.00
02846            2600.00
02847            2800.00
02848            3000.00
02849            3000.00
02850            3400.00
02851            3400.00
02852            3400.00
02853            3600.00
02854            4000.00
02855            3800.00
02856            3800.00
02857            4200.00
02858            4400.00
02859            4400.00
02860            4600.00
02861            4600.00
02862            5200.00
02863            5200.00
02864            5200.00
02865            5200.00
02866            5200.00
02867            5600.00
02868            5800.00
02869            5800.00
02870            5800.00
02871            6000.00
02872            6000.00
02873            6200.00
02874            6200.00
02875            6600.00
02876            6600.00
02877            6800.00
02878            6800.00
02879            6800.00
02880            6800.00
02881            7000.00
02882            7000.00
02883            7400.00
02884            7400.00
02885            7400.00
02886            7600.00
02887            7600.00
02888            7600.00
02889            7600.00
02890            7800.00
02891            7800.00
02892            8000.00
02893            7800.00
02894            8200.00
02895            8200.00
02896            8200.00
02897            8200.00
02898            8200.00
02899            8400.00
02900            8400.00
02901            8400.00
02902            8400.00
02903            8400.00
02904            8400.00
02905            8400.00
02906            8400.00
02907            8400.00
02908            8400.00
02909            8600.00
02910            8400.00
02911            8400.00
02912            8400.00
02913            8400.00
02914            8400.00
02915            8600.00
02916            8400.00
02917            8600.00
02918            8400.00
02919            8400.00
02920            8400.00
02921            8400.00
02922            8400.00
02923            8200.00
02924            8200.00
02925            8200.00
02926            8200.00
02927            8200.00
02928            8200.00
02929            8000.00
02930            8200.00
02931            7800.00
02932            7800.00
02933            7800.00
02934            7600.00
02935            7600.00
02936            7600.00
02937            7400.00
02938            7600.00
02939            7400.00
02940            7400.00
02941            7200.00
02942            7000.00
02943            7000.00
02944            6800.00
02945            6800.00
02946            6800.00
02947            6600.00
02948            6600.00
02949            6600.00
02950            6200.00
02951            6200.00
02952            6200.00
02953            6000.00
02954            5800.00
02955            5800.00
02956            5800.00
02957            5600.00
02958            5400.00
02959            5400.00
02960            5200.00
02961            5200.00
02962            5200.00
02963            5000.00
02964            4600.00
02965            4600.00
02966            4400.00
02967            4400.00
02968            4200.00
02969            4200.00
02970            3800.00
02971            3800.00
02972            3600.00
02973            3400.00
02974            3400.00
02975            3000.00
02976            2800.00
02977            2800.00
02978            2600.00
02979            2600.00
02980            2400.00
02981            2200.00
02982            2000.00
02983            1800.00
02984            1600.00
02985            1600.00
02986            1400.00
02987            1200.00
02988            1000.00
02989            1000.00
02990             600.00
02991             600.00
02992             400.00
02993             400.00
02994             200.00
02995             200.00
02996            -200.00
02997            -600.00
02998            -600.00
02999            -600.00
03000            -800.00
03001           -1000.00
03002           -1200.00
03003           -1200.00
03004           -1400.00
03005           -2000.00
03006           -2000.00
03007           -1800.00
03008           -2000.00
03009           -2200.00
03010           -2600.00
03011           -2400.00
03012           -2600.00
03013           -3000.00
03014           -2800.00
03015           -3000.00
03016           -3400.00
03017           -3400.00
03018           -3400.00
03019           -3800.00
03020           -4200.00
03021           -3800.00
03022           -4200.00
03023           -4200.00
03024           -4400.00
03025           -4600.00
03026           -4600.00
03027           -4600.00
03028           -5000.00
03029           -5200.00
03030           -5200.00
03031           -5200.00
03032           -5400.00
03033           -5400.00
03034           -5800.00
03035           -5800.00
03036           -6000.00
03037           -6000.00
03038           -6200.00
03039           -6200.00
03040           -6200.00
03041           -6600.00
03042           -6600.00
03043           -6800.00
03044           -6800.00
03045           -6800.00
03046           -7000.00
03047           -7000.00
03048           -7000.00
03049           -7400.00
03050           -7400.00
03051           -7600.00
03052           -7600.00
03053           -7600.00
03054           -7600.00
03055           -7800.00
03056           -7800.00
03057           -7800.00
03058           -7800.00
03059           -7800.00
03060           -8000.00
03061           -8200.00
03062           -8200.00
03063           -8200.00
03064           -8200.00
03065           -8400.00
03066           -8400.00
03067           -8400.00
03068           -8400.00
03069           -8400.00
03070           -8600.00
03071           -8400.00
03072           -8400.00
03073           -8600.00
03074           -8400.00
03075           -8600.00
03076           -8600.00
03077           -8600.00
03078           -8400.00
03079           -8600.00
03080           -8400.00
03081           -8400.00
03082           -8400.00
03083           -8400.00
03084           -8400.00
03085           -8400.00
03086           -8400.00
03087           -8200.00
03088           -8400.00
03089           -8400.00
03090           -8200.00
03091           -8200.00
03092           -8200.00
03093           -8200.00
03094           -8000.00
03095           -8000.00
03096           -7800.00
03097           -7800.00
03098           -7600.00
03099           -7800.00
03100           -7600.00
03101           -7600.00
03102           -7400.00
03103           -7600.00
03104           -7400.00
03105           -7400.00
03106           -7200.00
03107           -7000.00
03108           -7000.00
03109           -7000.00
03110           -7000.00
03111           -7000.00
03112           -6800.00
03113           -6800.00
03114           -6600.00
03115           -6400.00
03116           -6200.00
03117           -6200.00
03118           -6200.00
03119           -6000.00
03120           -5800.00
03121           -5800.00
03122           -5800.00
03123           -5400.00
03124           -5400.00
03125           -5200.00
03126           -5200.00
03127           -5200.00
03128           -5000.00
03129           -4600.00
03130           -4600.00
03131           -4400.00
03132           -4400.00
03133           -4200.00
03134           -4200.00
03135           -4000.00
03136           -3800.00
03137           -3800.00
03138           -3600.00
03139           -3400.00
03140           -3400.00
03141           -3000.00
03142           -2800.00
03143           -2800.00
03144           -2600.00
03145           -2600.00
03146           -2200.00
03147           -2200.00
03148           -2000.00
03149           -2000.00
03150           -1800.00
03151           -1400.00
03152           -1400.00
03153           -1200.00
03154           -1000.00
03155           -1000.00
03156            -600.00
03157            -400.00
03158            -400.00
03159            -200.00
03160            -200.00
03161             200.00
03162             400.00
03163             400.00
03164             600.00
03165             600.00
03166             800.00
03167            1000.00
03168            1000.00
03169            1200.00
03170            1400.00
03171            1800.00
03172            2000.00
03173            2000.00
03174            2000.00
03175            2600.00
03176            2600.00
03177            2600.00
03178            2800.00
03179            2800.00
03180            3000.00
03181            3200.00
03182            3400.00
03183            3400.00
03184            3600.00
03185            3600.00
03186            3800.00
03187            3800.00
03188            4200.00
03189            4200.00
03190            4400.00
03191            4600.00
03192            4600.00
03193            4800.00
03194            5000.00
03195            5200.00
03196            5200.00
03197            5200.00
03198            5400.00
03199            5400.00
03200            5800.00
03201            5800.00
03202            6000.00
03203            6000.00
03204            6200.00
03205            6400.00
03206            6600.00
03207            6600.00
03208            6600.00
03209            6800.00
03210            6800.00
03211            6800.00
03212            7000.00
03213            7400.00
03214            7200.00
03215            7400.00
03216            7400.00
03217            7400.00
03218            7600.00
03219            7600.00
03220            7600.00
03221            7600.00
03222            7800.00
03223            7800.00
03224            8000.00
03225            8000.00
03226            8200.00
03227            8200.00
03228            8200.00
03229            8200.00
03230            8200.00
03231            8200.00
03232            8400.00
03233            8400.00
03234            8400.00
03235            8400.00
03236            8400.00
03237            8400.00
03238            8400.00
03239            8600.00
03240            8600.00
03241            8400.00
03242            8400.00
03243            8400.00
03244            8400.00
03245            8400.00
03246            8400.00
03247            8400.00
03248            8400.00
03249            8400.00
03250            8400.00
03251            8400.00
03252            8400.00
03253            8400.00
03254            8400.00
03255            8200.00
03256            8400.00
03257            8200.00
03258            8200.00
03259            8200.00
03260            8200.00
03261            8200.00
03262            8000.00
03263            7800.00
03264            7800.00
03265            7800.00
03266            7600.00
03267            7600.00
03268            7400.00
03269            7600.00
03270            7400.00
03271            7400.00
03272            7400.00
03273            7400.00
03274            7000.00
03275            7000.00
03276            7000.00
03277            6800.00
03278            6800.00
03279            6600.00
03280            6600.00
03281            6600.00
03282            6200.00
03283            6400.00
03284            6200.00
03285            6000.00
03286            5800.00
03287            5800.00
03288            5600.00
03289            5600.00
03290            5400.00
03291            5200.00
03292            5200.00
03293            5200.00
03294            5000.00
03295            4600.00
03296            4600.00
03297            4600.00
03298            4200.00
03299            4200.00
03300            4200.00
03301            3800.00
03302            3800.00
03303            3600.00
03304            3400.00
03305            3400.00
03306            3000.00
03307            3000.00
03308            3000.00
03309            2600.00
03310            2600.00
03311            2600.00
03312            2200.00
03313            2000.00
03314            2000.00
03315            1800.00
03316            1600.00
03317            1400.00
03318            1200.00
03319            1200.00
03320            1200.00
03321             800.00
03322             600.00
03323             400.00
03324             400.00
03325             400.00
03326               0.00
03327            -200.00
03328            -400.00
03329            -400.00
03330            -400.00
03331            -600.00
03332           -1000.00
03333           -1000.00
03334           -1200.00
03335           -1400.00
03336           -1400.00
03337           -2000.00
03338           -2000.00
03339           -1800.00
03340           -2000.00
03341           -2200.00
03342           -2400.00
03343           -2200.00
03344           -2800.00
03345           -3000.00
03346           -2800.00
03347           -3000.00
03348           -3400.00
03349           -3400.00
03350           -3600.00
03351           -3800.00
03352           -3800.00
03353           -4000.00
03354           -4000.00
03355           -4400.00
03356           -4400.00
03357           -4600.00
03358           -4600.00
03359           -5000.00
03360           -5000.00
03361           -5000.00
03362           -5200.00
03363           -5400.00
03364           -5400.00
03365           -5400.00
03366           -5800.00
03367           -5800.00
03368           -6000.00
03369           -6000.00
03370           -6200.00
03371           -6200.00
03372           -6400.00
03373           -6600.00
03374           -6600.00
03375           -6800.00
03376           -6800.00
03377           -7000.00
03378           -7000.00
03379           -7000.00
03380           -7400.00
03381           -7400.00
03382           -7400.00
03383           -7400.00
03384           -7600.00
03385           -7600.00
03386           -7800.00
03387           -7800.00
03388           -7800.00
03389           -7800.00
03390           -7800.00
03391           -8000.00
03392           -8000.00
03393           -8200.00
03394           -8200.00
03395           -8400.00
03396           -8400.00
03397           -8400.00
03398           -8600.00
03399           -8400.00
03400           -8400.00
03401           -8400.00
03402           -8400.00
03403           -8600.00
03404           -8400.00
03405           -8400.00
03406           -8400.00
03407           -8600.00
03408           -8400.00
03409           -8400.00
03410           -8400.00
03411           -8400.00
03412           -8400.00
03413           -8600.00
03414           -8400.00
03415           -8400.00
03416           -8200.00
03417           -8400.00
03418           -8400.00
03419           -8400.00
03420           -8400.00
03421           -8200.00
03422           -8200.00
03423           -8200.00
03424           -8200.00
03425           -7800.00
03426           -8000.00
03427           -8200.00
03428           -7800.00
03429           -7600.00
03430           -7800.00
03431           -7800.00
03432           -7600.00
03433           -7600.00
03434           -7400.00
03435           -7600.00
03436           -7400.00
03437           -7400.00
03438           -7000.00
03439           -7000.00
03440           -7000.00
03441           -7000.00
03442           -7000.00
03443           -6800.00
03444           -6800.00
03445           -6600.00
03446           -6600.00
03447           -6400.00
03448           -6200.00
03449           -6200.00
03450           -6200.00
03451           -6000.00
03452           -5800.00
03453           -5800.00
03454           -5600.00
03455           -5400.00
03456           -5400.00
03457           -5200.00
03458           -5200.00
03459           -5000.00
03460           -5000.00
03461           -4600.00
03462           -4600.00
03463           -4600.00
03464           -4400.00
03465           -4200.00
03466           -3800.00
03467           -3800.00
03468           -3800.00
03469           -3600.00
03470           -3600.00
03471           -3200.00
03472           -3000.00
03473           -3000.00
03474           -2800.00
03475           -2800.00
03476           -2600.00
03477           -2400.00
03478           -2200.00
03479           -2000.00
03480           -2000.00
03481           -1800.00
03482           -1400.00
03483           -1400.00
03484           -1200.00
03485           -1200.00
03486           -1000.00
03487            -800.00
03488            -600.00
03489            -600.00
03490            -400.00
03491            -200.00
03492               0.00
03493             200.00
03494             400.00
03495             400.00
03496             600.00
03497             600.00
03498            1000.00
03499            1000.00
03500            1200.00
03501            1400.00
03502            1800.00
03503            1800.00
03504            1800.00
03505            2000.00
03506            2200.00
03507            2200.00
03508            2200.00
03509            2600.00
03510            2600.00
03511            3000.00
03512            2800.00
03513            3000.00
03514            3400.00
03515            3400.00
03516            3600.00
03517            3800.00
03518            3800.00
03519            4000.00
03520            4200.00
03521            4200.00
03522            4400.00
03523            4600.00
03524            4600.00
03525            4800.00
03526            5000.00
03527            5200.00
03528            5200.00
03529            5400.00
03530            5400.00
03531            5800.00
03532            5800.00
03533            6000.00
03534            6000.00
03535            6200.00
03536            6200.00
03537            6600.00
03538            6400.00
03539            6600.00
03540            6600.00
03541            6800.00
03542            6800.00
03543            7000.00
03544            7000.00
03545            7200.00
03546            7400.00
03547            7400.00
03548            7400.00
03549            7400.00
03550            7600.00
03551            7600.00
03552            7800.00
03553            7800.00
03554            7800.00
03555            7800.00
03556            8200.00
03557            8000.00
03558            8200.00
03559            8200.00
03560            8400.00
03561            8200.00
03562            8400.00
03563            8200.00
03564            8400.00
03565            8400.00
03566            8400.00
03567            8400.00
03568            8600.00
03569            8400.00
03570            8400.00
03571            8400.00
03572            8400.00
03573            8400.00
03574            8400.00
03575            8400.00
03576            8400.00
03577            8400.00
03578            8400.00
03579            8600.00
03580            8400.00
03581            8400.00
03582            8400.00
03583            8400.00
03584            8400.00
03585            8400.00
03586            8400.00
03587            8200.00
03588            8200.00
03589            8200.00
03590            8200.00
03591            8000.00
03592            8000.00
03593            7800.00
03594            7800.00
03595            7800.00
03596            7800.00
03597            7800.00
03598            7800.00
03599            7600.00
03600            7600.00
03601            7600.00
03602            7400.00
03603            7400.00
03604            7400.00
03605            7000.00
03606            7000.00
03607            7000.00
03608            6800.00
03609            6800.00
03610            6800.00
03611            6600.00
03612            6600.00
03613            6600.00
03614            6200.00
03615            6200.00
03616            6000.00
03617            6000.00
03618            5800.00
03619            5800.00
03620            5600.00
03621            5400.00
03622            5400.00
03623            5200.00
03624            5200.00
03625            5200.00
03626            5000.00
03627            4600.00
03628            4600.00
03629            4400.00
03630            4200.00
03631            4200.00
03632            4200.00
03633            3800.00
03634            3800.00
03635            3600.00
03636            3600.00
03637            3400.00
03638            3000.00
03639            3000.00
03640            2800.00
03641            2600.00
03642            2600.00
03643            2200.00
03644            2200.00
03645            2000.00
03646            1800.00
03647            1800.00
03648            1800.00
03649            1400.00
03650            1200.00
03651            1200.00
03652            1000.00
03653            1000.00
03654             400.00
03655             400.00
03656             400.00
03657             200.00
03658             200.00
03659            -200.00
03660            -400.00
03661            -400.00
03662            -600.00
03663            -600.00
03664           -1000.00
03665           -1000.00
03666           -1000.00
03667           -1200.00
03668           -1800.00
03669           -2000.00
03670           -2000.00
03671           -1800.00
03672           -2000.00
03673           -2600.00
03674           -2400.00
03675           -2600.00
03676           -2800.00
03677           -2800.00
03678           -3000.00
03679           -3400.00
03680           -3600.00
03681           -3400.00
03682           -3800.00
03683           -3800.00
03684           -3800.00
03685           -3800.00
03686           -4200.00
03687           -4200.00
03688           -4400.00
03689           -4600.00
03690           -4600.00
03691           -5000.00
03692           -5000.00
03693           -5200.00
03694           -5200.00
03695           -5400.00
03696           -5400.00
03697           -5800.00
03698           -5800.00
03699           -6000.00
03700           -5800.00
03701           -6200.00
03702           -6400.00
03703           -6400.00
03704           -6600.00
03705           -6600.00
03706           -6800.00
03707           -6800.00
03708           -6800.00
03709           -7000.00
03710           -7000.00
03711           -7200.00
03712           -7400.00
03713           -7400.00
03714           -7400.00
03715           -7600.00
03716           -7600.00
03717           -7800.00
03718           -7600.00
03719           -7600.00
03720           -7800.00
03721           -7800.00
03722           -8200.00
03723           -8200.00
03724           -8200.00
03725           -8200.00
03726           -8200.00
03727           -8400.00
03728           -8200.00
03729           -8400.00
03730           -8400.00
03731           -8400.00
03732           -8400.00
03733           -8400.00
03734           -8400.00
03735           -8600.00
03736           -8400.00
03737           -8400.00
03738           -8400.00
03739           -8600.00
03740           -8600.00
03741           -8400.00
03742           -8400.00
03743           -8400.00
03744           -8400.00
03745           -8400.00
03746           -8400.00
03747           -8400.00
03748           -8400.00
03749           -8400.00
03750           -8400.00
03751           -8400.00
03752           -8200.00
03753           -8200.00
03754           -8200.00
03755           -8200.00
03756           -8200.00
03757           -8200.00
03758           -7800.00
03759           -8200.00
03760           -7800.00
03761           -7800.00
03762           -7800.00
03763           -7600.00
03764           -7800.00
03765           -7600.00
03766           -7600.00
03767           -7600.00
03768           -7400.00
03769           -7400.00
03770           -7400.00
03771           -7000.00
03772           -7200.00
03773           -7000.00
03774           -7000.00
03775           -6800.00
03776           -6800.00
03777           -6600.00
03778           -6600.00
03779           -6400.00
03780           -6200.00
03781           -6000.00
03782           -6200.00
03783           -6000.00
03784           -5800.00
03785           -5800.00
03786           -5600.00
03787           -5400.00
03788           -5400.00
03789           -5200.00
03790           -5200.00
03791           -5000.00
03792           -4800.00
03793           -4600.00
03794           -4400.00
03795           -4400.00
03796           -4400.00
03797           -4200.00
03798           -3800.00
03799           -3800.00
03800           -3800.00
03801           -3600.00
03802           -3400.00
03803           -3400.00
03804           -3000.00
03805           -3000.00
03806           -2800.00
03807           -2600.00
03808           -2200.00
03809           -2200.00
03810           -2200.00
03811           -2000.00
03812           -1800.00
03813           -1800.00
03814           -1400.00
03815           -1200.00
03816           -1200.00
03817           -1200.00
03818           -1000.00
03819            -600.00
03820            -600.00
03821            -600.00
03822            -400.00
03823            -200.00
03824               0.00
03825             200.00
03826             400.00
03827             400.00
03828             600.00
03829             800.00
03830            1000.00
03831            1200.00
03832            1000.00
03833            1400.00
03834            1800.00
03835            2000.00
03836            1800.00
03837            2000.00
03838            2200.00
03839            2200.00
03840            2600.00
03841            2600.00
03842            2800.00
03843            2800.00
03844            3000.00
03845            3000.00
03846            3400.00
03847            3400.00
03848            3600.00
03849            3800.00
03850            3800.00
03851            3800.00
03852            4200.00
03853            4400.00
03854            4400.00
03855            4600.00
03856            4600.00
03857            5000.00
03858            5000.00
03859            5200.00
03860            5200.00
03861            5400.00
03862            5800.00
03863            5800.00
03864            5800.00
03865            5800.00
03866            6000.00
03867            6200.00
03868            6400.00
03869            6600.00
03870            6600.00
03871            6600.00
03872            6800.00
03873            6800.00
03874            7000.00
03875            7000.00
03876            7200.00
03877            7400.00
03878            7400.00
03879            7400.00
03880            7600.00
03881            7600.00
03882            7600.00
03883            7800.00
03884            7600.00
03885            7800.00
03886            8000.00
03887            8000.00
03888            8200.00
03889            8200.00
03890            8200.00
03891            8200.00
03892            8200.00
03893            8200.00
03894            8200.00
03895            8200.00
03896            8200.00
03897            8400.00
03898            8400.00
03899            8400.00
03900            8400.00
03901            8400.00
03902            8400.00
03903            8400.00
03904            8400.00
03905            8400.00
03906            8400.00
03907            8400.00
03908            8400.00
03909            8400.00
03910            8400.00
03911            8400.00
03912            8400.00
03913            8400.00
03914            8400.00
03915            8400.00
03916            8200.00
03917            8400.00
03918            8200.00
03919            8200.00
03920            8200.00
03921            8200.00
03922            8200.00
03923            8200.00
03924            8000.00
03925            8200.00
03926            8000.00
03927            7800.00
03928            7800.00
03929            7600.00
03930            7600.00
03931            7600.00
03932            7400.00
03933            7400.00
03934            7400.00
03935            7400.00
03936            7400.00
03937            7000.00
03938            7000.00
03939            7000.00
03940            6800.00
03941            6800.00
03942            6800.00
03943            6600.00
03944            6400.00
03945            6400.00
03946            6200.00
03947            6200.00
03948            6000.00
03949            6000.00
03950            5800.00
03951            5800.00
03952            5600.00
03953            5400.00
03954            5400.00
03955            5400.00
03956            5200.00
03957            5200.00
03958            5000.00
03959            4600.00
03960            4400.00
03961            4400.00
03962            4200.00
03963            4200.00
03964            3800.00
03965            3600.00
03966            3600.00
03967            3600.00
03968            3400.00
03969            3400.00
03970            3200.00
03971            2800.00
03972            2800.00
03973            2600.00
03974            2600.00
03975            2600.00
03976            2200.00
03977            2000.00
03978            1800.00
03979            1800.00
03980            1400.00
03981            1400.00
03982            1200.00
03983            1000.00
03984            1000.00
03985             800.00
03986             600.00
03987             400.00
03988             400.00
03989             200.00
03990               0.00
03991            -200.00
03992            -400.00
03993            -400.00
03994            -600.00
03995            -600.00
03996            -800.00
03997           -1200.00
03998           -1200.00
03999           -1400.00
04000           -1800.00
04001           -2000.00
04002           -1800.00
04003           -1800.00
04004           -2200.00
04005           -2600.00
04006           -2200.00
04007           -2600.00
04008           -2800.00
04009           -2800.00
04010           -2800.00
04011           -3200.00
04012           -3600.00
04013           -3400.00
04014           -3600.00
04015           -3800.00
04016           -3800.00
04017           -4000.00
04018           -4400.00
04019           -4400.00
04020           -4400.00
04021           -4600.00
04022           -4600.00
04023           -4800.00
04024           -5200.00
04025           -5200.00
04026           -5200.00
04027           -5400.00
04028           -5400.00
04029           -5800.00
04030           -6000.00
04031           -6000.00
04032           -6000.00
04033           -6200.00
04034           -6200.00
04035           -6600.00
04036           -6600.00
04037           -6600.00
04038           -6600.00
04039           -6800.00
04040           -7000.00
04041           -7000.00
04042           -7000.00
04043           -7400.00
04044           -7200.00
04045           -7200.00
04046           -7600.00
04047           -7600.00
04048           -7600.00
04049           -7600.00
04050           -7600.00
04051           -7800.00
04052           -7800.00
04053           -8000.00
04054           -7800.00
04055           -7800.00
04056           -8200.00
04057           -8200.00
04058           -8200.00
04059           -8400.00
04060           -8200.00
04061           -8200.00
04062           -8400.00
04063           -8400.00
04064           -8400.00
04065           -8400.00
04066           -8400.00
04067           -8400.00
04068           -8400.00
04069           -8600.00
04070           -8400.00
04071           -8600.00
04072           -8400.00
04073           -8600.00
04074           -8400.00
04075           -8400.00
04076           -8400.00
04077           -8600.00
04078           -8400.00
04079           -8600.00
04080           -8400.00
04081           -8200.00
04082           -8400.00
04083           -8400.00
04084           -8400.00
04085           -8200.00
04086           -8200.00
04087           -8200.00
04088           -8000.00
04089           -8200.00
04090           -7800.00
04091           -8000.00
04092           -7800.00
04093           -8000.00
04094           -7800.00
04095           -7800.00
04096           -7600.00
04097           -7600.00
04098           -7600.00
04099           -7600.00
04100           -7400.00
04101           -7400.00
04102           -7400.00
04103           -7200.00
04104           -7000.00
04105           -7000.00
04106           -6800.00
04107           -6800.00
04108           -6800.00
04109           -6600.00
04110           -6600.00
04111           -6200.00
04112           -6200.00
04113           -6200.00
04114           -6000.00
04115           -6000.00
04116           -6000.00
04117           -5800.00
04118           -5600.00
04119           -5400.00
04120           -5400.00
04121           -5200.00
04122           -5000.00
04123           -5000.00
04124           -4800.00
04125           -4600.00
04126           -4600.00
04127           -4400.00
04128           -4400.00
04129           -4200.00
04130           -4200.00
04131           -3800.00
04132           -3600.00
04133           -3600.00
04134           -3400.00
04135           -3000.00
04136           -3000.00
04137           -2800.00
04138           -2800.00
04139           -2600.00
04140           -2400.00
04141           -2200.00
04142           -2200.00
04143           -2000.00
04144           -1800.00
04145           -1800.00
04146           -1400.00
04147           -1200.00
04148           -1200.00
04149           -1000.00
04150           -1000.00
04151            -600.00
04152            -600.00
04153            -400.00
04154            -200.00
04155            -200.00
04156               0.00
04157             200.00
04158             200.00
04159             400.00
04160             600.00
04161            1000.00
04162            1000.00
04163            1000.00
04164            1200.00
04165            1400.00
04166            1800.00
04167            1800.00
04168            1800.00
04169            2000.00
04170            2200.00
04171            2200.00
04172            2600.00
04173            2600.00
04174            2800.00
04175            2800.00
04176            3000.00
04177            3400.00
04178            3400.00
04179            3400.00
04180            3600.00
04181            3800.00
04182            4200.00
04183            4200.00
04184            4200.00
04185            4400.00
04186            4600.00
04187            4600.00
04188            5000.00
04189            5000.00
04190            5200.00
04191            5200.00
04192            5200.00
04193            5600.00
04194            5800.00
04195            5800.00
04196            6000.00
04197            6000.00
04198            6200.00
04199            6200.00
04200            6200.00
04201            6600.00
04202            6600.00
04203            6600.00
04204            6800.00
04205            6800.00
04206            7000.00
04207            7000.00
04208            7400.00
04209            7000.00
04210            7400.00
04211            7400.00
04212            7400.00
04213            7600.00
04214            7600.00
04215            7600.00
04216            7600.00
04217            7800.00
04218            7800.00
04219            7800.00
04220            8000.00
04221            8200.00
04222            8200.00
04223            8200.00
04224            8200.00
04225            8200.00
04226            8200.00
04227            8200.00
04228            8400.00
04229            8400.00
04230            8400.00
04231            8400.00
04232            8400.00
04233            8400.00
04234            8400.00
04235            8400.00
04236            8400.00
04237            8400.00
04238            8400.00
04239            8400.00
04240            8400.00
04241            8400.00
04242            8600.00
04243            8400.00
04244            8400.00
04245            8400.00
04246            8400.00
04247            8400.00
04248            8400.00
04249            8400.00
04250            8400.00
04251            8200.00
04252            8200.00
04253            8400.00
04254            8200.00
04255            8200.00
04256            8200.00
04257            8000.00
04258            7800.00
04259            7800.00
04260            7800.00
04261            7800.00
04262            7600.00
04263            7600.00
04264            7600.00
04265            7400.00
04266            7400.00
04267            7400.00
04268            7200.00
04269            7000.00
04270            7000.00
04271            6800.00
04272            6800.00
04273            6800.00
04274            6800.00
04275            6600.00
04276            6600.00
04277            6400.00
04278            6200.00
04279            6200.00
04280            6000.00
04281            5800.00
04282            5800.00
04283            5800.00
04284            5400.00
04285            5400.00
04286            5200.00
04287            5200.00
04288            5000.00
04289            5000.00
04290            4600.00
04291            4600.00
04292            4400.00
04293            4200.00
04294            4200.00
04295            4200.00
04296            3800.00
04297            3800.00
04298            3600.00
04299            3600.00
04300            3400.00
04301            3000.00
04302            3000.00
04303            2800.00
04304            2800.00
04305            2600.00
04306            2600.00
04307            2200.00
04308            2200.00
04309            2000.00
04310            1800.00
04311            1800.00
04312            1400.00
04313            1400.00
04314            1200.00
04315            1000.00
04316            1000.00
04317             600.00
04318             600.00
04319             400.00
04320             400.00
04321               0.00
04322            -200.00
04323            -200.00
04324            -400.00
04325            -600.00
04326            -600.00
04327            -800.00
04328            -600.00
04329           -1000.00
04330           -1200.00
04331           -1400.00
04332           -1800.00
04333           -1800.00
04334           -1800.00
04335           -2000.00
04336           -2200.00
04337           -2400.00
04338           -2600.00
04339           -2600.00
04340           -2800.00
04341           -2800.00
04342           -3000.00
04343           -3400.00
04344           -3400.00
04345           -3600.00
04346           -3800.00
04347           -3800.00
04348           -4000.00
04349           -4200.00
04350           -4400.00
04351           -4400.00
04352           -4400.00
04353           -4600.00
04354           -4600.00
04355           -5200.00
04356           -5200.00
04357           -5200.00
04358           -5400.00
04359           -5400.00
04360           -5400.00
04361           -5800.00
04362           -6000.00
04363           -6000.00
04364           -6200.00
04365           -6200.00
04366           -6600.00
04367           -6600.00
04368           -6600.00
04369           -6600.00
04370           -6800.00
04371           -7000.00
04372           -7000.00
04373           -7000.00
04374           -7400.00
04375           -7400.00
04376           -7400.00
04377           -7600.00
04378           -7400.00
04379           -7600.00
04380           -7600.00
04381           -7600.00
04382           -7800.00
04383           -7800.00
04384           -7600.00
04385           -7800.00
04386           -8000.00
04387           -8200.00
04388           -8200.00
04389           -8200.00
04390           -8400.00
04391           -8200.00
04392           -8400.00
04393           -8400.00
04394           -8400.00
04395           -8400.00
04396           -8400.00
04397           -8400.00
04398           -8600.00
04399           -8400.00
04400           -8400.00
04401           -8600.00
04402           -8400.00
04403           -8400.00
04404           -8600.00
04405           -8400.00
04406           -8400.00
04407           -8600.00
04408           -8400.00
04409           -8600.00
04410           -8400.00
04411           -8400.00
04412           -8400.00
04413           -8400.00
04414           -8200.00
04415           -8400.00
04416           -8200.00
04417           -8400.00
04418           -8400.00
04419           -8400.00
04420           -8400.00
04421           -8200.00
04422           -8200.00
04423           -7800.00
04424           -8200.00
04425           -8200.00
04426           -7800.00
04427           -7800.00
04428           -7600.00
04429           -7600.00
04430           -7600.00
04431           -7400.00
04432           -7400.00
04433           -7400.00
04434           -7400.00
04435           -7000.00
04436           -7000.00
04437           -7000.00
04438           -7000.00
04439           -6800.00
04440           -6800.00
04441           -6600.00
04442           -6600.00
04443           -6400.00
04444           -6200.00
04445           -6000.00
04446           -6000.00
04447           -6000.00
04448           -5800.00
04449           -5400.00
04450           -5600.00
04451           -5400.00
04452           -5200.00
04453           -5200.00
04454           -5000.00
04455           -5000.00
04456           -4600.00
04457           -4600.00
04458           -4400.00
04459           -4400.00
04460           -4200.00
04461           -4200.00
04462           -3800.00
04463           -3800.00
04464           -3600.00
04465           -3600.00
04466           -3400.00
04467           -3000.00
04468           -3000.00
04469           -2800.00
04470           -2800.00
04471           -2600.00
04472           -2400.00
04473           -2200.00
04474           -2200.00
04475           -2000.00
04476           -1800.00
04477           -1400.00
04478           -1400.00
04479           -1400.00
04480           -1200.00
04481           -1000.00
04482           -1000.00
04483            -800.00
04484            -600.00
04485            -400.00
04486            -400.00
04487            -200.00
04488             200.00
04489             200.00
04490             400.00
04491             400.00
04492             600.00
04493             800.00
04494            1000.00
04495            1200.00
04496            1200.00
04497            1400.00
04498            1800.00
04499            1800.00
04500            1800.00
04501            2000.00
04502            2200.00
04503            2600.00
04504            2600.00
04505            2600.00
04506            2800.00
04507            3000.00
04508            3000.00
04509            3200.00
04510            3400.00
04511            3600.00
04512            3600.00
04513            3800.00
04514            4200.00
04515            4200.00
04516            4200.00
04517            4200.00
04518            4400.00
04519            4600.00
04520            4800.00
04521            5200.00
04522            5200.00
04523            5400.00
04524            5200.00
04525            5400.00
04526            5800.00
04527            5800.00
04528            5800.00
04529            6000.00
04530            6000.00
04531            6200.00
04532            6600.00
04533            6600.00
04534            6600.00
04535            6800.00
04536            6800.00
04537            6800.00
04538            7000.00
04539            7000.00
04540            7000.00
04541            7200.00
04542            7400.00
04543            7200.00
04544            7400.00
04545            7600.00
04546            7600.00
04547            7600.00
04548            7600.00
04549            7600.00
04550            7800.00
04551            7800.00
04552            7800.00
04553            8000.00
04554            8200.00
04555            8200.00
04556            8200.00
04557            8200.00
04558            8400.00
04559            8200.00
04560            8400.00
04561            8400.00
04562            8200.00
04563            8400.00
04564            8400.00
04565            8400.00
04566            8400.00
04567            8400.00
04568            8400.00
04569            8400.00
04570            8400.00
04571            8400.00
04572            8400.00
04573            8400.00
04574            8600.00
04575            8400.00
04576            8400.00
04577            8400.00
04578            8400.00
04579            8400.00
04580            8200.00
04581            8400.00
04582            8200.00
04583            8200.00
04584            8200.00
04585            8200.00
04586            8200.00
04587            8200.00
04588            8000.00
04589            8000.00
04590            7800.00
04591            7800.00
04592            7800.00
04593            7800.00
04594            7600.00
04595            7400.00
04596            7600.00
04597            7600.00
04598            7400.00
04599            7400.00
04600            7200.00
04601            7200.00
04602            7000.00
04603            7000.00
04604            6800.00
04605            6800.00
04606            6600.00
04607            6600.00
04608            6600.00
04609            6200.00
04610            6200.00
04611            6000.00
04612            6000.00
04613            5800.00
04614            5800.00
04615            5400.00
04616            5400.00
04617            5200.00
04618            5200.00
04619            5200.00
04620            5000.00
04621            5000.00
04622            4600.00
04623            4400.00
04624            4200.00
04625            4200.00
04626            4200.00
04627            4000.00
04628            3800.00
04629            3600.00
04630            3400.00
04631            3400.00
04632            3400.00
04633            3000.00
04634            3000.00
04635            2800.00
04636            2600.00
04637            2600.00
04638            2200.00
04639            2200.00
04640            2200.00
04641            1800.00
04642            2000.00
04643            1800.00
04644            1400.00
04645            1200.00
04646            1200.00
04647            1000.00
04648            1000.00
04649             600.00
04650             600.00
04651             400.00
04652             400.00
04653             200.00
04654            -200.00
04655            -200.00
04656            -400.00
04657            -400.00
04658            -600.00
04659            -600.00
04660           -1000.00
04661           -1200.00
04662           -1200.00
04663           -1800.00
04664           -1800.00
04665           -1800.00
04666           -1800.00
04667           -2000.00
04668           -2400.00
04669           -2600.00
04670           -2200.00
04671           -2800.00
04672           -3000.00
04673           -2800.00
04674           -3000.00
04675           -3400.00
04676           -3400.00
04677           -3600.00
04678           -3800.00
04679           -3800.00
04680           -4200.00
04681           -4200.00
04682           -4400.00
04683           -4400.00
04684           -4600.00
04685           -5000.00
04686           -5000.00
04687           -5200.00
04688           -5200.00
04689           -5200.00
04690           -5400.00
04691           -5400.00
04692           -5800.00
04693           -5800.00
04694           -6000.00
04695           -6000.00
04696           -6200.00
04697           -6200.00
04698           -6400.00
04699           -6400.00
04700           -6600.00
04701           -6600.00
04702           -6800.00
04703           -6800.00
04704           -7000.00
04705           -7000.00
04706           -7000.00
04707           -7000.00
04708           -7400.00
04709           -7400.00
04710           -7400.00
04711           -7600.00
04712           -7600.00
04713           -7600.00
04714           -7800.00
04715           -7800.00
04716           -7800.00
04717           -7800.00
04718           -7800.00
04719           -8200.00
04720           -8000.00
04721           -8200.00
04722           -8200.00
04723           -8200.00
04724           -8400.00
04725           -8200.00
04726           -8400.00
04727           -8400.00
04728           -8400.00
04729           -8400.00
04730           -8600.00
04731           -8600.00
04732           -8400.00
04733           -8400.00
04734           -8600.00
04735           -8400.00
04736           -8400.00
04737           -8400.00
04738           -8400.00
04739           -8400.00
04740           -8400.00
04741           -8400.00
04742           -8400.00
04743           -8400.00
04744           -8400.00
04745           -8400.00
04746           -8400.00
04747           -8400.00
04748           -8400.00
04749           -8400.00
04750           -8200.00
04751           -8200.00
04752           -8200.00
04753           -8200.00
04754           -8200.00
04755           -8000.00
04756           -7800.00
04757           -8000.00
04758           -7600.00
04759           -7800.00
04760           -7600.00
04761           -7600.00
04762           -7600.00
04763           -7600.00
04764           -7400.00
04765           -7400.00
04766           -7400.00
04767           -7000.00
04768           -7000.00
04769           -6800.00
04770           -7000.00
04771           -6800.00
04772           -6600.00
04773           -6600.00
04774           -6600.00
04775           -6200.00
04776           -6200.00
04777           -6000.00
04778           -6000.00
04779           -6000.00
04780           -5800.00
04781           -5600.00
04782           -5400.00
04783           -5400.00
04784           -5200.00
04785           -5000.00
04786           -5000.00
04787           -5000.00
04788           -4600.00
04789           -4400.00
04790           -4400.00
04791           -4400.00
04792           -4400.00
04793           -3800.00
04794           -3800.00
04795           -3600.00
04796           -3600.00
04797           -3400.00
04798           -3000.00
04799           -3200.00
04800           -2800.00
04801           -2800.00
04802           -2600.00
04803           -2600.00
04804           -2600.00
04805           -2200.00
04806           -2200.00
04807           -2000.00
04808           -2000.00
04809           -1800.00
04810           -1600.00
04811           -1400.00
04812           -1200.00
04813           -1200.00
04814           -1000.00
04815            -600.00
04816            -600.00
04817            -400.00
04818            -200.00
04819            -200.00
04820             200.00
04821             200.00
04822             400.00
04823             400.00
04824             600.00
04825             600.00
04826            1000.00
04827            1000.00
04828            1400.00
04829            1600.00
04830            1800.00
04831            1800.00
04832            2000.00
04833            2200.00
04834            2200.00
04835            2600.00
04836            2600.00
04837            2800.00
04838            2800.00
04839            3000.00
04840            3400.00
04841            3400.00
04842            3400.00
04843            3600.00
04844            3800.00
04845            3800.00
04846            4000.00
04847            4200.00
04848            4400.00
04849            4400.00
04850            4600.00
04851            5000.00
04852            5000.00
04853            5200.00
04854            5200.00
04855            5200.00
04856            5400.00
04857            5600.00
04858            5800.00
04859            5800.00
04860            6000.00
04861            6000.00
04862            6000.00
04863            6200.00
04864            6400.00
04865            6600.00
04866            6600.00
04867            6600.00
04868            6800.00
04869            7000.00
04870            6800.00
04871            7000.00
04872            7000.00
04873            7400.00
04874            7400.00
04875            7400.00
04876            7400.00
04877            7400.00
04878            7600.00
04879            7600.00
04880            7600.00
04881            7800.00
04882            7800.00
04883            8200.00
04884            7800.00
04885            8200.00
04886            8200.00
04887            8200.00
04888            8200.00
04889            8200.00
04890            8200.00
04891            8400.00
04892            8400.00
04893            8400.00
04894            8400.00
04895            8400.00
04896            8400.00
04897            8400.00
04898            8400.00
04899            8400.00
04900            8400.00
04901            8600.00
04902            8400.00
04903            8400.00
04904            8600.00
04905            8400.00
04906            8400.00
04907            8400.00
04908            8400.00
04909            8400.00
04910            8400.00
04911            8400.00
04912            8400.00
04913            8400.00
04914            8400.00
04915            8200.00
04916            8400.00
04917            8200.00
04918            8200.00
04919            8200.00
04920            8200.00
04921            8000.00
04922            7800.00
04923            8000.00
04924            7800.00
04925            7800.00
04926            7800.00
04927            7600.00
04928            7400.00
04929            7400.00
04930            7400.00
04931            7400.00
04932            7200.00
04933            7200.00
04934            7000.00
04935            6800.00
04936            6800.00
04937            6600.00
04938            6600.00
04939            6600.00
04940            6600.00
04941            6200.00
04942            6000.00
04943            6000.00
04944            5800.00
04945            5800.00
04946            5800.00
04947            5400.00
04948            5400.00
04949            5200.00
04950            5200.00
04951            5000.00
04952            5200.00
04953            4800.00
04954            4600.00
04955            4400.00
04956            4400.00
04957            4200.00
04958            4200.00
04959            3800.00
04960            3600.00
04961            3600.00
04962            3600.00
04963            3400.00
04964            3400.00
04965            3000.00
04966            3000.00
04967            2800.00
04968            2800.00
04969            2600.00
04970            2200.00
04971            2200.00
04972            2000.00
04973            2000.00
04974            1800.00
04975            1800.00
04976            1400.00
04977            1200.00
04978            1200.00
04979            1000.00
04980            1000.00
04981             600.00
04982             600.00
04983             400.00
04984             400.00
04985               0.00
04986            -200.00
04987            -200.00
04988            -400.00
04989            -600.00
04990            -600.00
04991            -600.00
04992           -1000.00
04993           -1200.00
04994           -1200.00
04995           -1800.00
04996           -2000.00
04997           -1800.00
04998           -1800.00
04999           -2000.00
05000           -2400.00
