Unit:(mV)
                     CH1
Frequency    302.398 kHz
00001             600.00
00002             600.00
00003             600.00
00004             400.00
00005             600.00
00006             600.00
00007             400.00
00008             200.00
00009             400.00
00010             200.00
00011             200.00
00012             200.00
00013             200.00
00014             200.00
00015             200.00
00016               0.00
00017            -200.00
00018               0.00
00019            -200.00
00020            -200.00
00021            -400.00
00022            -400.00
00023            -400.00
00024            -400.00
00025            -400.00
00026            -400.00
00027            -600.00
00028            -600.00
00029            -400.00
00030            -600.00
00031            -600.00
00032            -600.00
00033            -800.00
00034            -800.00
00035            -600.00
00036           -1000.00
00037            -800.00
00038           -1000.00
00039           -1000.00
00040           -1000.00
00041           -1000.00
00042           -1200.00
00043           -1200.00
00044           -1200.00
00045           -1200.00
00046           -1200.00
00047           -1200.00
00048           -1200.00
00049           -1400.00
00050           -1400.00
00051           -1400.00
00052           -1400.00
00053           -1400.00
00054           -1600.00
00055           -1400.00
00056           -1600.00
00057           -1800.00
00058           -1800.00
00059           -1600.00
00060           -1800.00
00061           -1800.00
00062           -1800.00
00063           -2000.00
00064           -2000.00
00065           -2000.00
00066           -2000.00
00067           -2000.00
00068           -1800.00
00069           -2000.00
00070           -2000.00
00071           -2000.00
00072           -2200.00
00073           -2200.00
00074           -2200.00
00075           -2200.00
00076           -2200.00
00077           -2200.00
00078           -2200.00
00079           -2200.00
00080           -2200.00
00081           -2200.00
00082           -2200.00
00083           -2400.00
00084           -2400.00
00085           -2200.00
00086           -2400.00
00087           -2400.00
00088           -2400.00
00089           -2200.00
00090           -2400.00
00091           -2600.00
00092           -2600.00
00093           -2600.00
00094           -2600.00
00095           -2600.00
00096           -2600.00
00097           -2600.00
00098           -2600.00
00099           -2200.00
00100           -2600.00
00101           -2400.00
00102           -2600.00
00103           -2600.00
00104           -2400.00
00105           -2200.00
00106           -2200.00
00107           -2400.00
00108           -2200.00
00109           -2600.00
00110           -2600.00
00111           -2200.00
00112           -2400.00
00113           -2200.00
00114           -2200.00
00115           -2400.00
00116           -2200.00
00117           -2200.00
00118           -2200.00
00119           -2200.00
00120           -2200.00
00121           -2200.00
00122           -2200.00
00123           -2200.00
00124           -2000.00
00125           -2200.00
00126           -2000.00
00127           -2000.00
00128           -2000.00
00129           -2000.00
00130           -2000.00
00131           -2000.00
00132           -2000.00
00133           -2000.00
00134           -2000.00
00135           -2000.00
00136           -1800.00
00137           -1800.00
00138           -2000.00
00139           -1800.00
00140           -1800.00
00141           -1800.00
00142           -1800.00
00143           -1600.00
00144           -1800.00
00145           -1800.00
00146           -1800.00
00147           -1400.00
00148           -1400.00
00149           -1400.00
00150           -1400.00
00151           -1400.00
00152           -1400.00
00153           -1200.00
00154           -1200.00
00155           -1200.00
00156           -1200.00
00157           -1200.00
00158           -1200.00
00159           -1200.00
00160           -1000.00
00161           -1000.00
00162           -1000.00
00163            -600.00
00164           -1000.00
00165            -800.00
00166            -600.00
00167            -600.00
00168            -600.00
00169            -600.00
00170            -600.00
00171            -400.00
00172            -600.00
00173            -400.00
00174            -600.00
00175            -400.00
00176            -400.00
00177            -200.00
00178            -200.00
00179            -200.00
00180             200.00
00181               0.00
00182            -200.00
00183             200.00
00184             200.00
00185             200.00
00186             200.00
00187             200.00
00188             400.00
00189             400.00
00190             400.00
00191             400.00
00192             400.00
00193             600.00
00194             400.00
00195             600.00
00196             600.00
00197             600.00
00198             600.00
00199             600.00
00200             800.00
00201            1000.00
00202            1000.00
00203            1000.00
00204            1000.00
00205            1000.00
00206            1200.00
00207            1000.00
00208            1200.00
00209            1200.00
00210            1200.00
00211            1400.00
00212            1200.00
00213            1400.00
00214            1400.00
00215            1400.00
00216            1400.00
00217            1400.00
00218            1400.00
00219            1400.00
00220            1800.00
00221            1800.00
00222            1800.00
00223            1800.00
00224            1800.00
00225            1800.00
00226            1800.00
00227            1800.00
00228            2000.00
00229            1800.00
00230            2000.00
00231            2000.00
00232            1800.00
00233            2000.00
00234            2000.00
00235            2000.00
00236            2000.00
00237            2200.00
00238            2200.00
00239            2200.00
00240            2200.00
00241            2200.00
00242            2200.00
00243            2400.00
00244            2400.00
00245            2200.00
00246            2400.00
00247            2200.00
00248            2600.00
00249            2400.00
00250            2200.00
00251            2400.00
00252            2400.00
00253            2600.00
00254            2600.00
00255            2200.00
00256            2600.00
00257            2600.00
00258            2200.00
00259            2600.00
00260            2600.00
00261            2600.00
00262            2600.00
00263            2600.00
00264            2600.00
00265            2600.00
00266            2600.00
00267            2400.00
00268            2600.00
00269            2600.00
00270            2600.00
00271            2400.00
00272            2200.00
00273            2600.00
00274            2200.00
00275            2600.00
00276            2200.00
00277            2400.00
00278            2600.00
00279            2200.00
00280            2200.00
00281            2200.00
00282            2400.00
00283            2200.00
00284            2200.00
00285            2200.00
00286            2200.00
00287            2200.00
00288            2200.00
00289            2200.00
00290            2200.00
00291            2000.00
00292            2000.00
00293            2000.00
00294            2000.00
00295            2000.00
00296            2000.00
00297            2000.00
00298            2000.00
00299            2000.00
00300            2000.00
00301            2000.00
00302            2000.00
00303            2000.00
00304            1800.00
00305            1800.00
00306            1800.00
00307            1800.00
00308            1600.00
00309            1800.00
00310            1600.00
00311            1800.00
00312            1800.00
00313            1400.00
00314            1400.00
00315            1400.00
00316            1400.00
00317            1400.00
00318            1400.00
00319            1200.00
00320            1200.00
00321            1200.00
00322            1200.00
00323            1200.00
00324            1200.00
00325            1200.00
00326            1000.00
00327            1000.00
00328            1000.00
00329            1000.00
00330             800.00
00331             600.00
00332             800.00
00333             800.00
00334             600.00
00335             600.00
00336             400.00
00337             400.00
00338             400.00
00339             400.00
00340             200.00
00341             400.00
00342             200.00
00343             200.00
00344             200.00
00345             200.00
00346             200.00
00347            -200.00
00348               0.00
00349               0.00
00350            -200.00
00351            -200.00
00352            -400.00
00353            -200.00
00354            -400.00
00355            -400.00
00356            -400.00
00357            -600.00
00358            -600.00
00359            -400.00
00360            -600.00
00361            -600.00
00362            -600.00
00363            -800.00
00364            -600.00
00365            -800.00
00366            -600.00
00367            -800.00
00368           -1000.00
00369           -1000.00
00370           -1000.00
00371           -1200.00
00372           -1200.00
00373           -1200.00
00374           -1200.00
00375           -1200.00
00376           -1200.00
00377           -1200.00
00378           -1200.00
00379           -1200.00
00380           -1200.00
00381           -1400.00
00382           -1400.00
00383           -1400.00
00384           -1400.00
00385           -1600.00
00386           -1400.00
00387           -1400.00
00388           -1800.00
00389           -1800.00
00390           -1800.00
00391           -1800.00
00392           -1800.00
00393           -1800.00
00394           -1800.00
00395           -2000.00
00396           -2000.00
00397           -2000.00
00398           -2000.00
00399           -2000.00
00400           -2200.00
00401           -2200.00
00402           -2000.00
00403           -2200.00
00404           -2200.00
00405           -2200.00
00406           -2200.00
00407           -2200.00
00408           -2200.00
00409           -2200.00
00410           -2200.00
00411           -2400.00
00412           -2200.00
00413           -2200.00
00414           -2200.00
00415           -2400.00
00416           -2200.00
00417           -2400.00
00418           -2600.00
00419           -2400.00
00420           -2400.00
00421           -2200.00
00422           -2600.00
00423           -2400.00
00424           -2600.00
00425           -2600.00
00426           -2600.00
00427           -2200.00
00428           -2200.00
00429           -2400.00
00430           -2200.00
00431           -2600.00
00432           -2400.00
00433           -2600.00
00434           -2400.00
00435           -2400.00
00436           -2600.00
00437           -2400.00
00438           -2400.00
00439           -2200.00
00440           -2600.00
00441           -2200.00
00442           -2400.00
00443           -2200.00
00444           -2200.00
00445           -2200.00
00446           -2200.00
00447           -2200.00
00448           -2200.00
00449           -2200.00
00450           -2200.00
00451           -2200.00
00452           -2200.00
00453           -2200.00
00454           -2200.00
00455           -2000.00
00456           -2200.00
00457           -2200.00
00458           -2000.00
00459           -2000.00
00460           -2000.00
00461           -2000.00
00462           -2000.00
00463           -2000.00
00464           -2000.00
00465           -2000.00
00466           -2000.00
00467           -2000.00
00468           -2000.00
00469           -1800.00
00470           -1800.00
00471           -1800.00
00472           -2000.00
00473           -1400.00
00474           -1800.00
00475           -1800.00
00476           -1800.00
00477           -1400.00
00478           -1600.00
00479           -1600.00
00480           -1400.00
00481           -1400.00
00482           -1400.00
00483           -1400.00
00484           -1400.00
00485           -1200.00
00486           -1200.00
00487           -1200.00
00488           -1200.00
00489           -1000.00
00490           -1200.00
00491           -1000.00
00492           -1200.00
00493           -1000.00
00494            -600.00
00495            -600.00
00496           -1000.00
00497            -600.00
00498            -600.00
00499            -600.00
00500            -600.00
00501            -600.00
00502            -400.00
00503            -600.00
00504            -400.00
00505            -400.00
00506            -400.00
00507            -200.00
00508            -200.00
00509            -200.00
00510            -200.00
00511            -200.00
00512             200.00
00513               0.00
00514               0.00
00515             200.00
00516             200.00
00517             200.00
00518             200.00
00519             200.00
00520             400.00
00521             400.00
00522             400.00
00523             400.00
00524             600.00
00525             400.00
00526             600.00
00527             600.00
00528             600.00
00529             600.00
00530             600.00
00531             600.00
00532            1000.00
00533            1000.00
00534             800.00
00535            1000.00
00536            1000.00
00537            1200.00
00538            1000.00
00539            1200.00
00540            1200.00
00541            1200.00
00542            1200.00
00543            1200.00
00544            1200.00
00545            1400.00
00546            1400.00
00547            1400.00
00548            1400.00
00549            1400.00
00550            1400.00
00551            1600.00
00552            1600.00
00553            1800.00
00554            1800.00
00555            1800.00
00556            1800.00
00557            2000.00
00558            2000.00
00559            1800.00
00560            2000.00
00561            1800.00
00562            2000.00
00563            2000.00
00564            2000.00
00565            2000.00
00566            2000.00
00567            2000.00
00568            2000.00
00569            2200.00
00570            2200.00
00571            2200.00
00572            2200.00
00573            2200.00
00574            2200.00
00575            2400.00
00576            2200.00
00577            2200.00
00578            2400.00
00579            2600.00
00580            2200.00
00581            2400.00
00582            2600.00
00583            2600.00
00584            2600.00
00585            2600.00
00586            2600.00
00587            2600.00
00588            2600.00
00589            2400.00
00590            2600.00
00591            2600.00
00592            2600.00
00593            2600.00
00594            2600.00
00595            2600.00
00596            2600.00
00597            2200.00
00598            2600.00
00599            2400.00
00600            2400.00
00601            2200.00
00602            2400.00
00603            2600.00
00604            2400.00
00605            2200.00
00606            2200.00
00607            2400.00
00608            2400.00
00609            2200.00
00610            2200.00
00611            2400.00
00612            2200.00
00613            2200.00
00614            2200.00
00615            2200.00
00616            2200.00
00617            2200.00
00618            2200.00
00619            2200.00
00620            2000.00
00621            2000.00
00622            2000.00
00623            2200.00
00624            2000.00
00625            2000.00
00626            2000.00
00627            2000.00
00628            2000.00
00629            2000.00
00630            2000.00
00631            2000.00
00632            2000.00
00633            1800.00
00634            1800.00
00635            1800.00
00636            1800.00
00637            1800.00
00638            1800.00
00639            1800.00
00640            1800.00
00641            1800.00
00642            1400.00
00643            1400.00
00644            1600.00
00645            1400.00
00646            1400.00
00647            1400.00
00648            1400.00
00649            1400.00
00650            1400.00
00651            1200.00
00652            1200.00
00653            1000.00
00654            1200.00
00655            1000.00
00656            1000.00
00657            1000.00
00658            1000.00
00659            1000.00
00660             800.00
00661             600.00
00662             600.00
00663             600.00
00664             400.00
00665             600.00
00666             600.00
00667             600.00
00668             400.00
00669             400.00
00670             400.00
00671             400.00
00672             200.00
00673             200.00
00674             200.00
00675             200.00
00676             200.00
00677               0.00
00678               0.00
00679            -200.00
00680            -200.00
00681            -200.00
00682            -200.00
00683            -200.00
00684            -400.00
00685            -400.00
00686            -400.00
00687            -400.00
00688            -400.00
00689            -600.00
00690            -600.00
00691            -400.00
00692            -600.00
00693            -600.00
00694            -600.00
00695           -1000.00
00696            -600.00
00697            -600.00
00698            -600.00
00699           -1000.00
00700           -1000.00
00701           -1000.00
00702           -1000.00
00703           -1000.00
00704           -1200.00
00705           -1200.00
00706           -1200.00
00707           -1200.00
00708           -1200.00
00709           -1200.00
00710           -1400.00
00711           -1400.00
00712           -1200.00
00713           -1400.00
00714           -1400.00
00715           -1400.00
00716           -1800.00
00717           -1600.00
00718           -1600.00
00719           -1600.00
00720           -1800.00
00721           -1800.00
00722           -1800.00
00723           -2000.00
00724           -1800.00
00725           -2000.00
00726           -2000.00
00727           -2000.00
00728           -2000.00
00729           -2000.00
00730           -2000.00
00731           -2200.00
00732           -2200.00
00733           -2000.00
00734           -2200.00
00735           -2000.00
00736           -2200.00
00737           -2200.00
00738           -2200.00
00739           -2200.00
00740           -2200.00
00741           -2200.00
00742           -2200.00
00743           -2200.00
00744           -2200.00
00745           -2400.00
00746           -2400.00
00747           -2600.00
00748           -2200.00
00749           -2600.00
00750           -2200.00
00751           -2400.00
00752           -2400.00
00753           -2200.00
00754           -2600.00
00755           -2400.00
00756           -2600.00
00757           -2400.00
00758           -2400.00
00759           -2600.00
00760           -2400.00
00761           -2200.00
00762           -2200.00
00763           -2400.00
00764           -2400.00
00765           -2200.00
00766           -2400.00
00767           -2200.00
00768           -2400.00
00769           -2200.00
00770           -2600.00
00771           -2200.00
00772           -2200.00
00773           -2200.00
00774           -2200.00
00775           -2200.00
00776           -2200.00
00777           -2200.00
00778           -2200.00
00779           -2000.00
00780           -2200.00
00781           -2200.00
00782           -2200.00
00783           -2200.00
00784           -2200.00
00785           -2000.00
00786           -2200.00
00787           -2000.00
00788           -2000.00
00789           -2000.00
00790           -2200.00
00791           -2000.00
00792           -2000.00
00793           -2000.00
00794           -2000.00
00795           -2000.00
00796           -2000.00
00797           -2000.00
00798           -2000.00
00799           -1800.00
00800           -2000.00
00801           -1800.00
00802           -1800.00
00803           -1600.00
00804           -1800.00
00805           -1800.00
00806           -1800.00
00807           -1400.00
00808           -1600.00
00809           -1400.00
00810           -1400.00
00811           -1400.00
00812           -1400.00
00813           -1400.00
00814           -1200.00
00815           -1200.00
00816           -1200.00
00817           -1200.00
00818           -1200.00
00819           -1200.00
00820           -1000.00
00821           -1000.00
00822           -1000.00
00823           -1000.00
00824           -1000.00
00825            -800.00
00826            -600.00
00827            -800.00
00828            -600.00
00829            -600.00
00830            -600.00
00831            -600.00
00832            -600.00
00833            -400.00
00834            -400.00
00835            -400.00
00836            -400.00
00837            -400.00
00838            -200.00
00839            -200.00
00840            -200.00
00841            -200.00
00842             200.00
00843            -200.00
00844               0.00
00845             200.00
00846             200.00
00847             200.00
00848             200.00
00849             400.00
00850             200.00
00851             400.00
00852             400.00
00853             400.00
00854             400.00
00855             400.00
00856             600.00
00857             400.00
00858             600.00
00859             600.00
00860             600.00
00861             600.00
00862            1000.00
00863            1000.00
00864            1000.00
00865            1000.00
00866            1000.00
00867            1000.00
00868            1000.00
00869            1000.00
00870            1200.00
00871            1200.00
00872            1200.00
00873            1200.00
00874            1400.00
00875            1400.00
00876            1400.00
00877            1400.00
00878            1400.00
00879            1400.00
00880            1800.00
00881            1400.00
00882            1800.00
00883            1800.00
00884            1800.00
00885            1600.00
00886            1800.00
00887            2000.00
00888            1800.00
00889            2000.00
00890            2000.00
00891            2000.00
00892            2000.00
00893            2000.00
00894            2000.00
00895            2000.00
00896            2000.00
00897            2000.00
00898            2200.00
00899            2000.00
00900            2200.00
00901            2200.00
00902            2200.00
00903            2200.00
00904            2200.00
00905            2200.00
00906            2200.00
00907            2400.00
00908            2400.00
00909            2400.00
00910            2600.00
00911            2400.00
00912            2200.00
00913            2200.00
00914            2600.00
00915            2600.00
00916            2600.00
00917            2200.00
00918            2600.00
00919            2600.00
00920            2200.00
00921            2600.00
00922            2600.00
00923            2200.00
00924            2600.00
00925            2400.00
00926            2400.00
00927            2400.00
00928            2600.00
00929            2400.00
00930            2600.00
00931            2200.00
00932            2600.00
00933            2600.00
00934            2400.00
00935            2400.00
00936            2600.00
00937            2200.00
00938            2600.00
00939            2200.00
00940            2200.00
00941            2200.00
00942            2400.00
00943            2200.00
00944            2200.00
00945            2200.00
00946            2200.00
00947            2200.00
00948            2200.00
00949            2200.00
00950            2200.00
00951            2200.00
00952            2000.00
00953            2000.00
00954            2000.00
00955            2000.00
00956            2000.00
00957            2000.00
00958            2000.00
00959            2000.00
00960            2000.00
00961            2000.00
00962            2000.00
00963            2000.00
00964            1800.00
00965            1800.00
00966            1800.00
00967            1800.00
00968            1800.00
00969            1800.00
00970            1800.00
00971            1800.00
00972            1800.00
00973            1400.00
00974            1800.00
00975            1400.00
00976            1400.00
00977            1400.00
00978            1400.00
00979            1400.00
00980            1200.00
00981            1200.00
00982            1200.00
00983            1200.00
00984            1200.00
00985            1000.00
00986            1200.00
00987            1200.00
00988            1000.00
00989            1000.00
00990             600.00
00991             800.00
00992             600.00
00993             800.00
00994             600.00
00995             600.00
00996             400.00
00997             400.00
00998             400.00
00999             400.00
01000             400.00
01001             400.00
01002             400.00
01003             400.00
01004             200.00
01005             200.00
01006             200.00
01007             200.00
01008               0.00
01009               0.00
01010            -200.00
01011            -200.00
01012            -400.00
01013            -400.00
01014            -200.00
01015            -200.00
01016            -600.00
01017            -400.00
01018            -200.00
01019            -600.00
01020            -400.00
01021            -400.00
01022            -400.00
01023            -600.00
01024            -600.00
01025            -600.00
01026            -600.00
01027            -800.00
01028           -1000.00
01029           -1000.00
01030           -1000.00
01031           -1000.00
01032           -1200.00
01033           -1000.00
01034           -1200.00
01035           -1200.00
01036           -1200.00
01037           -1200.00
01038           -1200.00
01039           -1200.00
01040           -1200.00
01041           -1200.00
01042           -1400.00
01043           -1400.00
01044           -1400.00
01045           -1400.00
01046           -1400.00
01047           -1600.00
01048           -1800.00
01049           -1800.00
01050           -1800.00
01051           -1800.00
01052           -1800.00
01053           -2000.00
01054           -2000.00
01055           -2000.00
01056           -1800.00
01057           -2000.00
01058           -2000.00
01059           -2000.00
01060           -2000.00
01061           -2000.00
01062           -2200.00
01063           -2200.00
01064           -2200.00
01065           -2200.00
01066           -2200.00
01067           -2200.00
01068           -2200.00
01069           -2200.00
01070           -2200.00
01071           -2200.00
01072           -2200.00
01073           -2200.00
01074           -2400.00
01075           -2200.00
01076           -2400.00
01077           -2200.00
01078           -2200.00
01079           -2200.00
01080           -2200.00
01081           -2200.00
01082           -2200.00
01083           -2600.00
01084           -2200.00
01085           -2400.00
01086           -2400.00
01087           -2400.00
01088           -2600.00
01089           -2600.00
01090           -2400.00
01091           -2200.00
01092           -2400.00
01093           -2400.00
01094           -2400.00
01095           -2400.00
01096           -2600.00
01097           -2400.00
01098           -2600.00
01099           -2400.00
01100           -2600.00
01101           -2400.00
01102           -2200.00
01103           -2200.00
01104           -2200.00
01105           -2200.00
01106           -2200.00
01107           -2200.00
01108           -2200.00
01109           -2200.00
01110           -2200.00
01111           -2200.00
01112           -2200.00
01113           -2200.00
01114           -2200.00
01115           -2000.00
01116           -2000.00
01117           -2200.00
01118           -2000.00
01119           -2000.00
01120           -2000.00
01121           -2000.00
01122           -2000.00
01123           -2000.00
01124           -2000.00
01125           -2000.00
01126           -2000.00
01127           -2000.00
01128           -2000.00
01129           -1800.00
01130           -1800.00
01131           -2000.00
01132           -2000.00
01133           -1800.00
01134           -1800.00
01135           -1800.00
01136           -1800.00
01137           -1800.00
01138           -1400.00
01139           -1400.00
01140           -1600.00
01141           -1400.00
01142           -1400.00
01143           -1400.00
01144           -1400.00
01145           -1200.00
01146           -1200.00
01147           -1200.00
01148           -1000.00
01149           -1200.00
01150           -1000.00
01151           -1000.00
01152           -1000.00
01153           -1000.00
01154           -1000.00
01155            -800.00
01156           -1000.00
01157            -800.00
01158            -600.00
01159            -600.00
01160            -600.00
01161            -600.00
01162            -600.00
01163            -600.00
01164            -400.00
01165            -400.00
01166            -400.00
01167            -200.00
01168            -400.00
01169            -400.00
01170            -200.00
01171            -200.00
01172            -200.00
01173             200.00
01174            -200.00
01175             200.00
01176             200.00
01177             200.00
01178             200.00
01179             200.00
01180             200.00
01181             200.00
01182             400.00
01183             400.00
01184             400.00
01185             400.00
01186             400.00
01187             600.00
01188             600.00
01189             600.00
01190             600.00
01191             600.00
01192             600.00
01193             600.00
01194             600.00
01195             600.00
01196            1000.00
01197            1000.00
01198            1000.00
01199            1200.00
01200            1200.00
01201            1200.00
01202            1200.00
01203            1000.00
01204            1200.00
01205            1200.00
01206            1200.00
01207            1400.00
01208            1400.00
01209            1400.00
01210            1400.00
01211            1400.00
01212            1600.00
01213            1800.00
01214            1800.00
01215            1800.00
01216            1800.00
01217            1800.00
01218            2000.00
01219            2000.00
01220            2000.00
01221            2000.00
01222            2000.00
01223            2000.00
01224            2000.00
01225            2000.00
01226            2000.00
01227            2000.00
01228            2000.00
01229            2000.00
01230            2200.00
01231            2200.00
01232            2200.00
01233            2200.00
01234            2200.00
01235            2200.00
01236            2200.00
01237            2200.00
01238            2200.00
01239            2200.00
01240            2200.00
01241            2400.00
01242            2400.00
01243            2200.00
01244            2200.00
01245            2600.00
01246            2600.00
01247            2600.00
01248            2400.00
01249            2600.00
01250            2600.00
01251            2600.00
01252            2200.00
01253            2400.00
01254            2600.00
01255            2400.00
01256            2400.00
01257            2600.00
01258            2200.00
01259            2600.00
01260            2400.00
01261            2200.00
01262            2400.00
01263            2400.00
01264            2600.00
01265            2200.00
01266            2400.00
01267            2200.00
01268            2400.00
01269            2200.00
01270            2200.00
01271            2200.00
01272            2200.00
01273            2400.00
01274            2200.00
01275            2200.00
01276            2200.00
01277            2200.00
01278            2200.00
01279            2200.00
01280            2200.00
01281            2000.00
01282            2000.00
01283            2200.00
01284            2200.00
01285            2000.00
01286            2200.00
01287            2000.00
01288            2000.00
01289            2000.00
01290            2000.00
01291            2000.00
01292            2000.00
01293            1800.00
01294            2000.00
01295            2000.00
01296            1800.00
01297            1800.00
01298            1800.00
01299            1800.00
01300            1800.00
01301            1800.00
01302            1800.00
01303            1600.00
01304            1600.00
01305            1400.00
01306            1400.00
01307            1400.00
01308            1400.00
01309            1200.00
01310            1400.00
01311            1200.00
01312            1200.00
01313            1200.00
01314            1200.00
01315            1000.00
01316            1200.00
01317            1000.00
01318            1000.00
01319            1000.00
01320            1000.00
01321            1000.00
01322             600.00
01323             600.00
01324             600.00
01325             600.00
01326             600.00
01327             400.00
01328             400.00
01329             400.00
01330             400.00
01331             400.00
01332             200.00
01333             400.00
01334             200.00
01335             200.00
01336             200.00
01337             200.00
01338             200.00
01339             200.00
01340            -200.00
01341               0.00
01342            -200.00
01343            -200.00
01344            -200.00
01345            -200.00
01346            -200.00
01347            -400.00
01348            -400.00
01349            -400.00
01350            -600.00
01351            -400.00
01352            -600.00
01353            -600.00
01354            -600.00
01355            -600.00
01356            -600.00
01357            -600.00
01358            -800.00
01359           -1000.00
01360           -1000.00
01361           -1000.00
01362            -800.00
01363           -1000.00
01364           -1200.00
01365           -1000.00
01366           -1200.00
01367           -1200.00
01368           -1200.00
01369           -1200.00
01370           -1200.00
01371           -1200.00
01372           -1400.00
01373           -1400.00
01374           -1400.00
01375           -1400.00
01376           -1400.00
01377           -1400.00
01378           -1800.00
01379           -1800.00
01380           -1800.00
01381           -1800.00
01382           -1800.00
01383           -2000.00
01384           -2000.00
01385           -1800.00
01386           -2000.00
01387           -2000.00
01388           -2000.00
01389           -2000.00
01390           -2000.00
01391           -2200.00
01392           -2200.00
01393           -2000.00
01394           -2200.00
01395           -2200.00
01396           -2200.00
01397           -2200.00
01398           -2200.00
01399           -2200.00
01400           -2200.00
01401           -2200.00
01402           -2200.00
01403           -2200.00
01404           -2200.00
01405           -2400.00
01406           -2200.00
01407           -2200.00
01408           -2200.00
01409           -2400.00
01410           -2200.00
01411           -2600.00
01412           -2200.00
01413           -2200.00
01414           -2600.00
01415           -2200.00
01416           -2400.00
01417           -2200.00
01418           -2400.00
01419           -2600.00
01420           -2200.00
01421           -2400.00
01422           -2200.00
01423           -2400.00
01424           -2200.00
01425           -2400.00
01426           -2400.00
01427           -2200.00
01428           -2400.00
01429           -2600.00
01430           -2200.00
01431           -2200.00
01432           -2200.00
01433           -2400.00
01434           -2600.00
01435           -2200.00
01436           -2200.00
01437           -2200.00
01438           -2200.00
01439           -2200.00
01440           -2200.00
01441           -2200.00
01442           -2200.00
01443           -2200.00
01444           -2200.00
01445           -2200.00
01446           -2200.00
01447           -2200.00
01448           -2200.00
01449           -2200.00
01450           -2200.00
01451           -2000.00
01452           -2200.00
01453           -2000.00
01454           -2000.00
01455           -2000.00
01456           -2000.00
01457           -2000.00
01458           -2000.00
01459           -2000.00
01460           -2000.00
01461           -2000.00
01462           -2000.00
01463           -1800.00
01464           -1800.00
01465           -1800.00
01466           -1800.00
01467           -1600.00
01468           -1400.00
01469           -1400.00
01470           -1400.00
01471           -1400.00
01472           -1400.00
01473           -1200.00
01474           -1200.00
01475           -1200.00
01476           -1200.00
01477           -1200.00
01478           -1400.00
01479           -1200.00
01480           -1200.00
01481           -1000.00
01482           -1000.00
01483           -1000.00
01484            -800.00
01485           -1000.00
01486           -1000.00
01487            -600.00
01488            -600.00
01489            -600.00
01490            -600.00
01491            -600.00
01492            -600.00
01493            -600.00
01494            -600.00
01495            -400.00
01496            -400.00
01497            -400.00
01498            -200.00
01499            -400.00
01500            -200.00
01501            -200.00
01502            -200.00
01503             200.00
01504            -200.00
01505               0.00
01506             200.00
01507             200.00
01508             200.00
01509             200.00
01510             200.00
01511             200.00
01512             400.00
01513             400.00
01514             400.00
01515             600.00
01516             400.00
01517             400.00
01518             400.00
01519             600.00
01520             600.00
01521             600.00
01522             600.00
01523             600.00
01524            1000.00
01525            1000.00
01526            1000.00
01527            1000.00
01528            1000.00
01529            1000.00
01530            1000.00
01531            1000.00
01532            1200.00
01533            1200.00
01534            1200.00
01535            1200.00
01536            1200.00
01537            1400.00
01538            1400.00
01539            1400.00
01540            1400.00
01541            1400.00
01542            1600.00
01543            1800.00
01544            1800.00
01545            1800.00
01546            1800.00
01547            1800.00
01548            1800.00
01549            1800.00
01550            2000.00
01551            2000.00
01552            2000.00
01553            2000.00
01554            1800.00
01555            2000.00
01556            2000.00
01557            2000.00
01558            2000.00
01559            2000.00
01560            2000.00
01561            2200.00
01562            2200.00
01563            2200.00
01564            2200.00
01565            2200.00
01566            2200.00
01567            2200.00
01568            2200.00
01569            2400.00
01570            2200.00
01571            2200.00
01572            2400.00
01573            2200.00
01574            2400.00
01575            2400.00
01576            2200.00
01577            2200.00
01578            2200.00
01579            2200.00
01580            2200.00
01581            2400.00
01582            2400.00
01583            2200.00
01584            2600.00
01585            2200.00
01586            2400.00
01587            2400.00
01588            2600.00
01589            2400.00
01590            2200.00
01591            2200.00
01592            2600.00
01593            2400.00
01594            2400.00
01595            2200.00
01596            2400.00
01597            2200.00
01598            2400.00
01599            2200.00
01600            2600.00
01601            2400.00
01602            2600.00
01603            2600.00
01604            2200.00
01605            2200.00
01606            2400.00
01607            2200.00
01608            2200.00
01609            2200.00
01610            2200.00
01611            2200.00
01612            2000.00
01613            2200.00
01614            2200.00
01615            2000.00
01616            2000.00
01617            2200.00
01618            2000.00
01619            2000.00
01620            2000.00
01621            2000.00
01622            2000.00
01623            2000.00
01624            1800.00
01625            2000.00
01626            2000.00
01627            1800.00
01628            1800.00
01629            1800.00
01630            1800.00
01631            1800.00
01632            1600.00
01633            1800.00
01634            1800.00
01635            1400.00
01636            1400.00
01637            1400.00
01638            1400.00
01639            1200.00
01640            1400.00
01641            1200.00
01642            1200.00
01643            1000.00
01644            1200.00
01645            1200.00
01646            1000.00
01647            1000.00
01648            1000.00
01649            1000.00
01650            1000.00
01651             600.00
01652             800.00
01653             800.00
01654             600.00
01655             600.00
01656             600.00
01657             600.00
01658             400.00
01659             400.00
01660             400.00
01661             400.00
01662             400.00
01663             200.00
01664             400.00
01665             200.00
01666             200.00
01667             200.00
01668             200.00
01669             200.00
01670               0.00
01671            -200.00
01672             200.00
01673            -200.00
01674            -200.00
01675            -200.00
01676            -400.00
01677            -400.00
01678            -400.00
01679            -400.00
01680            -600.00
01681            -600.00
01682            -600.00
01683            -400.00
01684            -600.00
01685            -600.00
01686            -600.00
01687            -600.00
01688            -600.00
01689            -600.00
01690           -1000.00
01691           -1000.00
01692            -600.00
01693           -1000.00
01694           -1000.00
01695           -1000.00
01696           -1200.00
01697           -1200.00
01698           -1200.00
01699           -1200.00
01700           -1200.00
01701           -1400.00
01702           -1400.00
01703           -1400.00
01704           -1400.00
01705           -1400.00
01706           -1600.00
01707           -1600.00
01708           -1800.00
01709           -1800.00
01710           -1800.00
01711           -2000.00
01712           -1800.00
01713           -1800.00
01714           -2000.00
01715           -2000.00
01716           -2000.00
01717           -2000.00
01718           -2000.00
01719           -2000.00
01720           -2000.00
01721           -2000.00
01722           -2000.00
01723           -2200.00
01724           -2200.00
01725           -2200.00
01726           -2200.00
01727           -2200.00
01728           -2200.00
01729           -2200.00
01730           -2200.00
01731           -2200.00
01732           -2200.00
01733           -2200.00
01734           -2200.00
01735           -2200.00
01736           -2200.00
01737           -2200.00
01738           -2200.00
01739           -2200.00
01740           -2400.00
01741           -2400.00
01742           -2400.00
01743           -2200.00
01744           -2400.00
01745           -2400.00
01746           -2200.00
01747           -2400.00
01748           -2600.00
01749           -2600.00
01750           -2400.00
01751           -2400.00
01752           -2600.00
01753           -2600.00
01754           -2200.00
01755           -2600.00
01756           -2600.00
01757           -2200.00
01758           -2400.00
01759           -2600.00
01760           -2200.00
01761           -2200.00
01762           -2200.00
01763           -2600.00
01764           -2400.00
01765           -2200.00
01766           -2200.00
01767           -2200.00
01768           -2200.00
01769           -2200.00
01770           -2400.00
01771           -2200.00
01772           -2200.00
01773           -2400.00
01774           -2200.00
01775           -2200.00
01776           -2200.00
01777           -2200.00
01778           -2200.00
01779           -2200.00
01780           -2200.00
01781           -2200.00
01782           -2000.00
01783           -2200.00
01784           -2200.00
01785           -2000.00
01786           -2000.00
01787           -2000.00
01788           -2000.00
01789           -2000.00
01790           -2000.00
01791           -1800.00
01792           -2000.00
01793           -1800.00
01794           -1800.00
01795           -1800.00
01796           -1800.00
01797           -1800.00
01798           -1800.00
01799           -1400.00
01800           -1400.00
01801           -1400.00
01802           -1400.00
01803           -1400.00
01804           -1600.00
01805           -1400.00
01806           -1200.00
01807           -1400.00
01808           -1200.00
01809           -1200.00
01810           -1200.00
01811           -1200.00
01812           -1000.00
01813           -1000.00
01814           -1000.00
01815           -1000.00
01816           -1000.00
01817           -1000.00
01818            -800.00
01819            -600.00
01820            -600.00
01821            -600.00
01822            -600.00
01823            -600.00
01824            -600.00
01825            -600.00
01826            -400.00
01827            -400.00
01828            -400.00
01829            -400.00
01830            -200.00
01831            -200.00
01832            -200.00
01833            -200.00
01834               0.00
01835               0.00
01836            -200.00
01837               0.00
01838            -200.00
01839             200.00
01840             200.00
01841             200.00
01842             400.00
01843             200.00
01844             200.00
01845             400.00
01846             400.00
01847             400.00
01848             600.00
01849             400.00
01850             600.00
01851             600.00
01852             600.00
01853             600.00
01854             800.00
01855            1000.00
01856            1000.00
01857            1000.00
01858            1000.00
01859            1000.00
01860            1000.00
01861            1000.00
01862            1200.00
01863            1200.00
01864            1200.00
01865            1200.00
01866            1200.00
01867            1400.00
01868            1400.00
01869            1400.00
01870            1400.00
01871            1600.00
01872            1800.00
01873            1600.00
01874            1800.00
01875            1800.00
01876            1800.00
01877            1800.00
01878            1800.00
01879            1800.00
01880            1800.00
01881            2000.00
01882            2000.00
01883            2000.00
01884            2000.00
01885            2000.00
01886            2000.00
01887            2000.00
01888            2200.00
01889            2000.00
01890            2000.00
01891            2200.00
01892            2200.00
01893            2200.00
01894            2200.00
01895            2000.00
01896            2400.00
01897            2200.00
01898            2000.00
01899            2200.00
01900            2200.00
01901            2400.00
01902            2200.00
01903            2400.00
01904            2200.00
01905            2200.00
01906            2200.00
01907            2200.00
01908            2400.00
01909            2600.00
01910            2200.00
01911            2200.00
01912            2600.00
01913            2400.00
01914            2200.00
01915            2400.00
01916            2600.00
01917            2400.00
01918            2200.00
01919            2400.00
01920            2600.00
01921            2200.00
01922            2400.00
01923            2400.00
01924            2600.00
01925            2200.00
01926            2600.00
01927            2600.00
01928            2200.00
01929            2400.00
01930            2600.00
01931            2400.00
01932            2600.00
01933            2400.00
01934            2200.00
01935            2200.00
01936            2200.00
01937            2400.00
01938            2200.00
01939            2400.00
01940            2200.00
01941            2200.00
01942            2200.00
01943            2200.00
01944            2200.00
01945            2200.00
01946            2200.00
01947            2000.00
01948            2000.00
01949            2000.00
01950            2000.00
01951            2000.00
01952            2000.00
01953            2000.00
01954            1800.00
01955            2000.00
01956            2000.00
01957            1800.00
01958            1800.00
01959            1800.00
01960            1800.00
01961            1800.00
01962            1400.00
01963            1800.00
01964            1400.00
01965            1600.00
01966            1400.00
01967            1400.00
01968            1400.00
01969            1400.00
01970            1200.00
01971            1200.00
01972            1200.00
01973            1200.00
01974            1200.00
01975            1200.00
01976            1000.00
01977            1200.00
01978            1000.00
01979            1000.00
01980            1000.00
01981            1000.00
01982             800.00
01983             800.00
01984             600.00
01985             600.00
01986             600.00
01987             600.00
01988             600.00
01989             400.00
01990             400.00
01991             400.00
01992             400.00
01993             400.00
01994             400.00
01995             400.00
01996             400.00
01997             200.00
01998             200.00
01999             200.00
02000            -200.00
02001             200.00
02002               0.00
02003            -200.00
02004            -200.00
02005            -200.00
02006            -200.00
02007            -200.00
02008            -400.00
02009            -400.00
02010            -400.00
02011            -600.00
02012            -400.00
02013            -600.00
02014            -600.00
02015            -600.00
02016            -600.00
02017            -600.00
02018            -600.00
02019            -800.00
02020           -1000.00
02021           -1000.00
02022           -1000.00
02023           -1000.00
02024           -1200.00
02025           -1200.00
02026           -1200.00
02027           -1000.00
02028           -1200.00
02029           -1200.00
02030           -1200.00
02031           -1200.00
02032           -1200.00
02033           -1200.00
02034           -1400.00
02035           -1400.00
02036           -1400.00
02037           -1400.00
02038           -1600.00
02039           -1800.00
02040           -1800.00
02041           -1800.00
02042           -1800.00
02043           -1800.00
02044           -1800.00
02045           -2000.00
02046           -1800.00
02047           -2000.00
02048           -2000.00
02049           -2000.00
02050           -2000.00
02051           -2000.00
02052           -2000.00
02053           -2200.00
02054           -2000.00
02055           -2200.00
02056           -2200.00
02057           -2200.00
02058           -2200.00
02059           -2200.00
02060           -2200.00
02061           -2200.00
02062           -2200.00
02063           -2200.00
02064           -2200.00
02065           -2200.00
02066           -2200.00
02067           -2200.00
02068           -2200.00
02069           -2200.00
02070           -2200.00
02071           -2200.00
02072           -2200.00
02073           -2400.00
02074           -2200.00
02075           -2200.00
02076           -2400.00
02077           -2600.00
02078           -2200.00
02079           -2200.00
02080           -2400.00
02081           -2600.00
02082           -2600.00
02083           -2600.00
02084           -2400.00
02085           -2600.00
02086           -2600.00
02087           -2600.00
02088           -2600.00
02089           -2400.00
02090           -2200.00
02091           -2600.00
02092           -2200.00
02093           -2400.00
02094           -2600.00
02095           -2200.00
02096           -2200.00
02097           -2400.00
02098           -2200.00
02099           -2200.00
02100           -2200.00
02101           -2600.00
02102           -2200.00
02103           -2200.00
02104           -2200.00
02105           -2200.00
02106           -2200.00
02107           -2200.00
02108           -2200.00
02109           -2200.00
02110           -2200.00
02111           -2200.00
02112           -2200.00
02113           -2200.00
02114           -2000.00
02115           -2000.00
02116           -2000.00
02117           -2000.00
02118           -2000.00
02119           -2000.00
02120           -2000.00
02121           -1800.00
02122           -1800.00
02123           -2000.00
02124           -1800.00
02125           -1800.00
02126           -1800.00
02127           -1800.00
02128           -1600.00
02129           -1800.00
02130           -1400.00
02131           -1400.00
02132           -1600.00
02133           -1400.00
02134           -1400.00
02135           -1200.00
02136           -1200.00
02137           -1400.00
02138           -1200.00
02139           -1200.00
02140           -1200.00
02141           -1200.00
02142           -1200.00
02143           -1000.00
02144           -1000.00
02145           -1000.00
02146           -1000.00
02147           -1000.00
02148           -1000.00
02149            -600.00
02150            -600.00
02151            -600.00
02152            -600.00
02153            -600.00
02154            -400.00
02155            -600.00
02156            -600.00
02157            -600.00
02158            -400.00
02159            -400.00
02160            -200.00
02161            -400.00
02162            -200.00
02163            -400.00
02164            -200.00
02165            -200.00
02166            -200.00
02167             200.00
02168             200.00
02169             200.00
02170             200.00
02171             200.00
02172             200.00
02173             200.00
02174             200.00
02175             400.00
02176             400.00
02177             400.00
02178             400.00
02179             400.00
02180             600.00
02181             600.00
02182             600.00
02183             600.00
02184             600.00
02185             600.00
02186             800.00
02187            1000.00
02188            1000.00
02189            1000.00
02190            1200.00
02191            1000.00
02192            1200.00
02193            1200.00
02194            1200.00
02195            1200.00
02196            1200.00
02197            1400.00
02198            1400.00
02199            1400.00
02200            1600.00
02201            1600.00
02202            1400.00
02203            1400.00
02204            1800.00
02205            1800.00
02206            1800.00
02207            1800.00
02208            1800.00
02209            1800.00
02210            1800.00
02211            1800.00
02212            2000.00
02213            2000.00
02214            2000.00
02215            2000.00
02216            2000.00
02217            2000.00
02218            2000.00
02219            2000.00
02220            2200.00
02221            2200.00
02222            2000.00
02223            2000.00
02224            2200.00
02225            2000.00
02226            2000.00
02227            2200.00
02228            2200.00
02229            2200.00
02230            2200.00
02231            2200.00
02232            2600.00
02233            2400.00
02234            2400.00
02235            2200.00
02236            2200.00
02237            2400.00
02238            2400.00
02239            2200.00
02240            2200.00
02241            2400.00
02242            2400.00
02243            2600.00
02244            2400.00
02245            2600.00
02246            2400.00
02247            2600.00
02248            2200.00
02249            2600.00
02250            2400.00
02251            2600.00
02252            2600.00
02253            2600.00
02254            2600.00
02255            2600.00
02256            2400.00
02257            2200.00
02258            2600.00
02259            2400.00
02260            2400.00
02261            2400.00
02262            2600.00
02263            2600.00
02264            2400.00
02265            2600.00
02266            2200.00
02267            2200.00
02268            2600.00
02269            2200.00
02270            2200.00
02271            2200.00
02272            2200.00
02273            2200.00
02274            2000.00
02275            2200.00
02276            2000.00
02277            2200.00
02278            2000.00
02279            2000.00
02280            2000.00
02281            2200.00
02282            2000.00
02283            2000.00
02284            2000.00
02285            1800.00
02286            2000.00
02287            2000.00
02288            2000.00
02289            2000.00
02290            1800.00
02291            1800.00
02292            1800.00
02293            1600.00
02294            1600.00
02295            1600.00
02296            1400.00
02297            1400.00
02298            1400.00
02299            1400.00
02300            1400.00
02301            1200.00
02302            1400.00
02303            1200.00
02304            1200.00
02305            1200.00
02306            1200.00
02307            1000.00
02308            1000.00
02309            1000.00
02310            1000.00
02311            1000.00
02312             600.00
02313             800.00
02314             800.00
02315             800.00
02316             600.00
02317             600.00
02318             600.00
02319             600.00
02320             400.00
02321             600.00
02322             400.00
02323             400.00
02324             400.00
02325             400.00
02326             400.00
02327             400.00
02328             200.00
02329             200.00
02330             200.00
02331             200.00
02332             200.00
02333             200.00
02334            -200.00
02335               0.00
02336            -200.00
02337            -200.00
02338            -200.00
02339            -400.00
02340            -200.00
02341            -400.00
02342            -400.00
02343            -600.00
02344            -400.00
02345            -600.00
02346            -600.00
02347            -600.00
02348            -600.00
02349            -600.00
02350            -600.00
02351            -800.00
02352           -1000.00
02353           -1000.00
02354           -1000.00
02355           -1200.00
02356           -1200.00
02357           -1000.00
02358           -1200.00
02359           -1200.00
02360           -1200.00
02361           -1200.00
02362           -1400.00
02363           -1200.00
02364           -1400.00
02365           -1400.00
02366           -1400.00
02367           -1400.00
02368           -1400.00
02369           -1400.00
02370           -1800.00
02371           -1400.00
02372           -1800.00
02373           -1800.00
02374           -2000.00
02375           -2000.00
02376           -2000.00
02377           -2000.00
02378           -2000.00
02379           -2000.00
02380           -2000.00
02381           -2200.00
02382           -2000.00
02383           -2000.00
02384           -2000.00
02385           -2000.00
02386           -2000.00
02387           -2000.00
02388           -2200.00
02389           -2200.00
02390           -2200.00
02391           -2200.00
02392           -2200.00
02393           -2200.00
02394           -2200.00
02395           -2200.00
02396           -2200.00
02397           -2200.00
02398           -2200.00
02399           -2200.00
02400           -2200.00
02401           -2400.00
02402           -2400.00
02403           -2200.00
02404           -2200.00
02405           -2600.00
02406           -2200.00
02407           -2200.00
02408           -2200.00
02409           -2400.00
02410           -2400.00
02411           -2200.00
02412           -2400.00
02413           -2600.00
02414           -2200.00
02415           -2600.00
02416           -2600.00
02417           -2400.00
02418           -2200.00
02419           -2200.00
02420           -2600.00
02421           -2600.00
02422           -2600.00
02423           -2600.00
02424           -2400.00
02425           -2400.00
02426           -2600.00
02427           -2600.00
02428           -2200.00
02429           -2400.00
02430           -2400.00
02431           -2200.00
02432           -2200.00
02433           -2200.00
02434           -2200.00
02435           -2200.00
02436           -2200.00
02437           -2200.00
02438           -2200.00
02439           -2200.00
02440           -2200.00
02441           -2200.00
02442           -2200.00
02443           -2200.00
02444           -2000.00
02445           -2200.00
02446           -2000.00
02447           -2000.00
02448           -2000.00
02449           -2000.00
02450           -2000.00
02451           -2000.00
02452           -2000.00
02453           -1800.00
02454           -1800.00
02455           -1800.00
02456           -1800.00
02457           -1800.00
02458           -1400.00
02459           -1800.00
02460           -1400.00
02461           -1400.00
02462           -1400.00
02463           -1400.00
02464           -1200.00
02465           -1400.00
02466           -1200.00
02467           -1200.00
02468           -1200.00
02469           -1200.00
02470           -1200.00
02471           -1200.00
02472           -1000.00
02473           -1200.00
02474           -1000.00
02475           -1000.00
02476           -1000.00
02477           -1000.00
02478           -1000.00
02479            -600.00
02480            -600.00
02481            -800.00
02482            -600.00
02483            -600.00
02484            -600.00
02485            -600.00
02486            -400.00
02487            -400.00
02488            -400.00
02489            -400.00
02490            -400.00
02491            -400.00
02492            -400.00
02493            -400.00
02494            -200.00
02495            -200.00
02496            -200.00
02497            -200.00
02498             200.00
02499             200.00
02500             200.00
02501             200.00
02502             200.00
02503             400.00
02504             400.00
02505             200.00
02506             400.00
02507             400.00
02508             400.00
02509             400.00
02510             400.00
02511             600.00
02512             400.00
02513             600.00
02514             600.00
02515             800.00
02516            1000.00
02517            1000.00
02518            1000.00
02519            1000.00
02520            1200.00
02521            1000.00
02522            1200.00
02523            1200.00
02524            1200.00
02525            1200.00
02526            1200.00
02527            1400.00
02528            1400.00
02529            1400.00
02530            1400.00
02531            1400.00
02532            1400.00
02533            1400.00
02534            1800.00
02535            1800.00
02536            1800.00
02537            1800.00
02538            1800.00
02539            1800.00
02540            1800.00
02541            2000.00
02542            2000.00
02543            2000.00
02544            2000.00
02545            2000.00
02546            2000.00
02547            2000.00
02548            2000.00
02549            2000.00
02550            2000.00
02551            2000.00
02552            2000.00
02553            2000.00
02554            2000.00
02555            2000.00
02556            2200.00
02557            2200.00
02558            2200.00
02559            2200.00
02560            2200.00
02561            2200.00
02562            2200.00
02563            2200.00
02564            2200.00
02565            2200.00
02566            2200.00
02567            2400.00
02568            2200.00
02569            2400.00
02570            2200.00
02571            2400.00
02572            2600.00
02573            2600.00
02574            2400.00
02575            2600.00
02576            2600.00
02577            2400.00
02578            2600.00
02579            2400.00
02580            2600.00
02581            2400.00
02582            2600.00
02583            2600.00
02584            2600.00
02585            2200.00
02586            2400.00
02587            2600.00
02588            2200.00
02589            2600.00
02590            2400.00
02591            2400.00
02592            2400.00
02593            2200.00
02594            2600.00
02595            2400.00
02596            2400.00
02597            2600.00
02598            2200.00
02599            2200.00
02600            2200.00
02601            2200.00
02602            2200.00
02603            2200.00
02604            2200.00
02605            2000.00
02606            2200.00
02607            2200.00
02608            2000.00
02609            2200.00
02610            2000.00
02611            2000.00
02612            2000.00
02613            2000.00
02614            2000.00
02615            2000.00
02616            2000.00
02617            1800.00
02618            1800.00
02619            2000.00
02620            1800.00
02621            1800.00
02622            1800.00
02623            1800.00
02624            1600.00
02625            1800.00
02626            1400.00
02627            1400.00
02628            1400.00
02629            1400.00
02630            1400.00
02631            1200.00
02632            1200.00
02633            1200.00
02634            1200.00
02635            1200.00
02636            1200.00
02637            1200.00
02638            1000.00
02639            1000.00
02640            1000.00
02641            1000.00
02642            1000.00
02643            1000.00
02644            1000.00
02645             800.00
02646             600.00
02647             600.00
02648             600.00
02649             600.00
02650             600.00
02651             400.00
02652             400.00
02653             400.00
02654             400.00
02655             400.00
02656             400.00
02657             200.00
02658             200.00
02659             200.00
02660             200.00
02661             200.00
02662             200.00
02663            -200.00
02664               0.00
02665               0.00
02666            -400.00
02667            -200.00
02668            -200.00
02669            -400.00
02670            -400.00
02671            -200.00
02672            -400.00
02673            -400.00
02674            -400.00
02675            -600.00
02676            -600.00
02677            -600.00
02678            -600.00
02679           -1000.00
02680            -600.00
02681            -800.00
02682           -1000.00
02683           -1000.00
02684           -1000.00
02685           -1000.00
02686           -1200.00
02687           -1200.00
02688           -1200.00
02689           -1200.00
02690           -1200.00
02691           -1400.00
02692           -1400.00
02693           -1400.00
02694           -1400.00
02695           -1400.00
02696           -1400.00
02697           -1400.00
02698           -1600.00
02699           -1800.00
02700           -1800.00
02701           -1800.00
02702           -1800.00
02703           -1800.00
02704           -1800.00
02705           -1800.00
02706           -1800.00
02707           -2000.00
02708           -1800.00
02709           -2000.00
02710           -2000.00
02711           -2000.00
02712           -2000.00
02713           -2000.00
02714           -2000.00
02715           -2000.00
02716           -2200.00
02717           -2000.00
02718           -2200.00
02719           -2000.00
02720           -2200.00
02721           -2200.00
02722           -2000.00
02723           -2200.00
02724           -2000.00
02725           -2200.00
02726           -2200.00
02727           -2200.00
02728           -2200.00
02729           -2200.00
02730           -2400.00
02731           -2200.00
02732           -2400.00
02733           -2200.00
02734           -2200.00
02735           -2400.00
02736           -2200.00
02737           -2200.00
02738           -2200.00
02739           -2400.00
02740           -2200.00
02741           -2400.00
02742           -2200.00
02743           -2600.00
02744           -2200.00
02745           -2600.00
02746           -2600.00
02747           -2400.00
02748           -2600.00
02749           -2600.00
02750           -2600.00
02751           -2600.00
02752           -2400.00
02753           -2600.00
02754           -2200.00
02755           -2200.00
02756           -2400.00
02757           -2200.00
02758           -2400.00
02759           -2400.00
02760           -2200.00
02761           -2400.00
02762           -2200.00
02763           -2200.00
02764           -2200.00
02765           -2200.00
02766           -2200.00
02767           -2200.00
02768           -2200.00
02769           -2200.00
02770           -2200.00
02771           -2200.00
02772           -2200.00
02773           -2000.00
02774           -2000.00
02775           -2000.00
02776           -2000.00
02777           -2000.00
02778           -2000.00
02779           -2000.00
02780           -2000.00
02781           -1800.00
02782           -1800.00
02783           -2000.00
02784           -1800.00
02785           -2000.00
02786           -1600.00
02787           -1800.00
02788           -1400.00
02789           -1600.00
02790           -1600.00
02791           -1400.00
02792           -1400.00
02793           -1400.00
02794           -1600.00
02795           -1200.00
02796           -1400.00
02797           -1200.00
02798           -1400.00
02799           -1200.00
02800           -1200.00
02801           -1200.00
02802           -1200.00
02803           -1200.00
02804           -1000.00
02805           -1000.00
02806           -1000.00
02807           -1000.00
02808           -1000.00
02809           -1000.00
02810            -600.00
02811            -600.00
02812            -600.00
02813            -600.00
02814            -600.00
02815            -600.00
02816            -600.00
02817            -600.00
02818            -600.00
02819            -400.00
02820            -600.00
02821            -400.00
02822            -400.00
02823            -400.00
02824            -400.00
02825            -200.00
02826            -200.00
02827            -200.00
02828               0.00
02829               0.00
02830             200.00
02831             200.00
02832             200.00
02833             400.00
02834             200.00
02835             400.00
02836             400.00
02837             400.00
02838             400.00
02839             400.00
02840             600.00
02841             400.00
02842             600.00
02843             800.00
02844             800.00
02845             800.00
02846            1000.00
02847             600.00
02848            1000.00
02849            1000.00
02850            1000.00
02851            1000.00
02852            1000.00
02853            1200.00
02854            1200.00
02855            1200.00
02856            1200.00
02857            1200.00
02858            1400.00
02859            1400.00
02860            1400.00
02861            1400.00
02862            1400.00
02863            1600.00
02864            1600.00
02865            1600.00
02866            1800.00
02867            1800.00
02868            1800.00
02869            1800.00
02870            1800.00
02871            2000.00
02872            2000.00
02873            1800.00
02874            2000.00
02875            1800.00
02876            2000.00
02877            2000.00
02878            2000.00
02879            2000.00
02880            2000.00
02881            2000.00
02882            2200.00
02883            2000.00
02884            2000.00
02885            2200.00
02886            2000.00
02887            2200.00
02888            2200.00
02889            2200.00
02890            2200.00
02891            2200.00
02892            2200.00
02893            2200.00
02894            2200.00
02895            2600.00
02896            2200.00
02897            2400.00
02898            2200.00
02899            2400.00
02900            2400.00
02901            2200.00
02902            2400.00
02903            2600.00
02904            2600.00
02905            2600.00
02906            2400.00
02907            2600.00
02908            2400.00
02909            2400.00
02910            2400.00
02911            2400.00
02912            2600.00
02913            2600.00
02914            2600.00
02915            2200.00
02916            2600.00
02917            2200.00
02918            2600.00
02919            2400.00
02920            2600.00
02921            2400.00
02922            2200.00
02923            2600.00
02924            2600.00
02925            2400.00
02926            2600.00
02927            2400.00
02928            2400.00
02929            2600.00
02930            2200.00
02931            2200.00
02932            2200.00
02933            2400.00
02934            2200.00
02935            2000.00
02936            2200.00
02937            2200.00
02938            2200.00
02939            2000.00
02940            2000.00
02941            2000.00
02942            2000.00
02943            2000.00
02944            2000.00
02945            2000.00
02946            2000.00
02947            1800.00
02948            1800.00
02949            1800.00
02950            1800.00
02951            1800.00
02952            1800.00
02953            1800.00
02954            1600.00
02955            1800.00
02956            1600.00
02957            1400.00
02958            1400.00
02959            1400.00
02960            1600.00
02961            1400.00
02962            1400.00
02963            1400.00
02964            1200.00
02965            1200.00
02966            1200.00
02967            1000.00
02968            1200.00
02969            1200.00
02970            1000.00
02971            1000.00
02972            1000.00
02973            1000.00
02974             800.00
02975            1000.00
02976            1000.00
02977            1000.00
02978             600.00
02979             800.00
02980             600.00
02981             600.00
02982             600.00
02983             600.00
02984             400.00
02985             400.00
02986             400.00
02987             400.00
02988             400.00
02989             200.00
02990             200.00
02991             200.00
02992             200.00
02993             200.00
02994               0.00
02995            -200.00
02996            -200.00
02997            -200.00
02998            -200.00
02999            -200.00
03000            -400.00
03001            -200.00
03002            -400.00
03003            -400.00
03004            -400.00
03005            -400.00
03006            -600.00
03007            -600.00
03008            -600.00
03009            -800.00
03010            -600.00
03011           -1000.00
03012           -1000.00
03013           -1000.00
03014           -1000.00
03015           -1200.00
03016           -1000.00
03017           -1200.00
03018           -1200.00
03019           -1200.00
03020           -1200.00
03021           -1200.00
03022           -1200.00
03023           -1400.00
03024           -1200.00
03025           -1400.00
03026           -1400.00
03027           -1400.00
03028           -1400.00
03029           -1600.00
03030           -1600.00
03031           -1800.00
03032           -1800.00
03033           -1800.00
03034           -1800.00
03035           -1800.00
03036           -1800.00
03037           -1800.00
03038           -1800.00
03039           -2000.00
03040           -2000.00
03041           -2000.00
03042           -2000.00
03043           -2000.00
03044           -2000.00
03045           -2000.00
03046           -2000.00
03047           -2000.00
03048           -2200.00
03049           -2200.00
03050           -2200.00
03051           -2200.00
03052           -2200.00
03053           -2200.00
03054           -2200.00
03055           -2200.00
03056           -2200.00
03057           -2200.00
03058           -2200.00
03059           -2200.00
03060           -2200.00
03061           -2400.00
03062           -2200.00
03063           -2200.00
03064           -2200.00
03065           -2200.00
03066           -2200.00
03067           -2600.00
03068           -2200.00
03069           -2400.00
03070           -2200.00
03071           -2200.00
03072           -2200.00
03073           -2600.00
03074           -2400.00
03075           -2600.00
03076           -2200.00
03077           -2600.00
03078           -2400.00
03079           -2600.00
03080           -2600.00
03081           -2600.00
03082           -2600.00
03083           -2200.00
03084           -2800.00
03085           -2200.00
03086           -2600.00
03087           -2600.00
03088           -2200.00
03089           -2400.00
03090           -2400.00
03091           -2200.00
03092           -2400.00
03093           -2200.00
03094           -2400.00
03095           -2200.00
03096           -2200.00
03097           -2200.00
03098           -2200.00
03099           -2200.00
03100           -2200.00
03101           -2200.00
03102           -2000.00
03103           -2000.00
03104           -2200.00
03105           -2000.00
03106           -2000.00
03107           -2000.00
03108           -2000.00
03109           -2000.00
03110           -2000.00
03111           -2000.00
03112           -2000.00
03113           -1800.00
03114           -2000.00
03115           -1800.00
03116           -1800.00
03117           -1800.00
03118           -1800.00
03119           -1400.00
03120           -1800.00
03121           -1400.00
03122           -1400.00
03123           -1400.00
03124           -1400.00
03125           -1400.00
03126           -1400.00
03127           -1200.00
03128           -1200.00
03129           -1200.00
03130           -1200.00
03131           -1200.00
03132           -1200.00
03133           -1200.00
03134           -1000.00
03135           -1000.00
03136           -1000.00
03137           -1000.00
03138           -1000.00
03139           -1000.00
03140            -800.00
03141            -800.00
03142            -600.00
03143            -800.00
03144            -600.00
03145            -600.00
03146            -600.00
03147            -600.00
03148            -400.00
03149            -400.00
03150            -400.00
03151            -200.00
03152            -400.00
03153            -400.00
03154            -400.00
03155            -200.00
03156            -200.00
03157            -200.00
03158            -200.00
03159             200.00
03160               0.00
03161             200.00
03162             200.00
03163             200.00
03164             400.00
03165             400.00
03166             400.00
03167             400.00
03168             400.00
03169             600.00
03170             400.00
03171             600.00
03172             600.00
03173             600.00
03174             600.00
03175             600.00
03176             600.00
03177            1000.00
03178            1000.00
03179            1000.00
03180            1000.00
03181            1000.00
03182            1000.00
03183            1000.00
03184            1200.00
03185            1200.00
03186            1200.00
03187            1200.00
03188            1200.00
03189            1200.00
03190            1400.00
03191            1400.00
03192            1400.00
03193            1400.00
03194            1600.00
03195            1800.00
03196            1800.00
03197            1800.00
03198            1800.00
03199            1800.00
03200            1800.00
03201            1800.00
03202            2000.00
03203            2000.00
03204            1800.00
03205            1800.00
03206            2000.00
03207            2000.00
03208            2000.00
03209            2000.00
03210            2000.00
03211            2000.00
03212            2000.00
03213            2000.00
03214            2000.00
03215            2200.00
03216            2000.00
03217            2000.00
03218            2200.00
03219            2200.00
03220            2200.00
03221            2200.00
03222            2200.00
03223            2200.00
03224            2200.00
03225            2200.00
03226            2200.00
03227            2400.00
03228            2400.00
03229            2400.00
03230            2200.00
03231            2400.00
03232            2600.00
03233            2600.00
03234            2600.00
03235            2600.00
03236            2600.00
03237            2200.00
03238            2400.00
03239            2200.00
03240            2600.00
03241            2600.00
03242            2400.00
03243            2600.00
03244            2600.00
03245            2600.00
03246            2600.00
03247            2600.00
03248            2600.00
03249            2600.00
03250            2600.00
03251            2600.00
03252            2200.00
03253            2400.00
03254            2400.00
03255            2600.00
03256            2200.00
03257            2200.00
03258            2400.00
03259            2200.00
03260            2200.00
03261            2200.00
03262            2200.00
03263            2200.00
03264            2200.00
03265            2000.00
03266            2000.00
03267            2000.00
03268            2000.00
03269            2000.00
03270            2000.00
03271            2000.00
03272            2000.00
03273            2000.00
03274            2000.00
03275            2000.00
03276            2000.00
03277            1800.00
03278            2000.00
03279            2000.00
03280            1800.00
03281            1800.00
03282            1800.00
03283            1800.00
03284            1800.00
03285            1400.00
03286            1600.00
03287            1400.00
03288            1400.00
03289            1400.00
03290            1400.00
03291            1400.00
03292            1200.00
03293            1400.00
03294            1200.00
03295            1400.00
03296            1200.00
03297            1200.00
03298            1200.00
03299            1200.00
03300            1000.00
03301            1000.00
03302            1000.00
03303            1000.00
03304            1000.00
03305             600.00
03306            1000.00
03307            1000.00
03308            1000.00
03309             800.00
03310             600.00
03311             600.00
03312             600.00
03313             600.00
03314             600.00
03315             400.00
03316             400.00
03317             400.00
03318             400.00
03319             400.00
03320             200.00
03321             200.00
03322             200.00
03323               0.00
03324             200.00
03325            -200.00
03326               0.00
03327            -200.00
03328            -200.00
03329            -200.00
03330            -200.00
03331            -200.00
03332            -400.00
03333            -600.00
03334            -400.00
03335            -600.00
03336            -600.00
03337            -600.00
03338            -600.00
03339            -600.00
03340            -600.00
03341           -1000.00
03342           -1000.00
03343            -800.00
03344           -1000.00
03345           -1000.00
03346           -1000.00
03347           -1000.00
03348           -1200.00
03349           -1000.00
03350           -1200.00
03351           -1200.00
03352           -1200.00
03353           -1200.00
03354           -1400.00
03355           -1400.00
03356           -1200.00
03357           -1400.00
03358           -1400.00
03359           -1400.00
03360           -1400.00
03361           -1600.00
03362           -1400.00
03363           -1800.00
03364           -1600.00
03365           -1800.00
03366           -1800.00
03367           -2000.00
03368           -1800.00
03369           -1800.00
03370           -2000.00
03371           -1800.00
03372           -2000.00
03373           -2000.00
03374           -2000.00
03375           -2000.00
03376           -2200.00
03377           -2000.00
03378           -2200.00
03379           -2000.00
03380           -2200.00
03381           -2200.00
03382           -2200.00
03383           -2200.00
03384           -2200.00
03385           -2200.00
03386           -2200.00
03387           -2200.00
03388           -2200.00
03389           -2200.00
03390           -2200.00
03391           -2200.00
03392           -2200.00
03393           -2200.00
03394           -2600.00
03395           -2400.00
03396           -2400.00
03397           -2400.00
03398           -2400.00
03399           -2600.00
03400           -2600.00
03401           -2600.00
03402           -2600.00
03403           -2200.00
03404           -2600.00
03405           -2600.00
03406           -2600.00
03407           -2400.00
03408           -2600.00
03409           -2400.00
03410           -2400.00
03411           -2600.00
03412           -2600.00
03413           -2400.00
03414           -2400.00
03415           -2600.00
03416           -2400.00
03417           -2600.00
03418           -2200.00
03419           -2600.00
03420           -2200.00
03421           -2200.00
03422           -2400.00
03423           -2200.00
03424           -2200.00
03425           -2200.00
03426           -2200.00
03427           -2200.00
03428           -2200.00
03429           -2200.00
03430           -2200.00
03431           -2200.00
03432           -2200.00
03433           -2200.00
03434           -2200.00
03435           -2000.00
03436           -2000.00
03437           -2000.00
03438           -2000.00
03439           -2000.00
03440           -2000.00
03441           -2000.00
03442           -2000.00
03443           -1800.00
03444           -2000.00
03445           -1800.00
03446           -1800.00
03447           -1800.00
03448           -1800.00
03449           -1800.00
03450           -1400.00
03451           -1800.00
03452           -1400.00
03453           -1800.00
03454           -1600.00
03455           -1400.00
03456           -1400.00
03457           -1400.00
03458           -1200.00
03459           -1200.00
03460           -1200.00
03461           -1200.00
03462           -1200.00
03463           -1200.00
03464           -1200.00
03465           -1200.00
03466           -1000.00
03467           -1000.00
03468           -1000.00
03469           -1000.00
03470           -1000.00
03471            -600.00
03472            -800.00
03473            -600.00
03474            -600.00
03475            -600.00
03476            -600.00
03477            -600.00
03478            -600.00
03479            -400.00
03480            -600.00
03481            -400.00
03482            -400.00
03483            -400.00
03484            -200.00
03485            -200.00
03486            -200.00
03487            -200.00
03488            -200.00
03489            -200.00
03490               0.00
03491               0.00
03492             200.00
03493             200.00
03494             200.00
03495             200.00
03496             400.00
03497             400.00
03498             400.00
03499             400.00
03500             400.00
03501             600.00
03502             400.00
03503             400.00
03504             600.00
03505             600.00
03506            1000.00
03507            1000.00
03508             800.00
03509            1000.00
03510            1000.00
03511            1000.00
03512            1000.00
03513            1200.00
03514            1200.00
03515            1200.00
03516            1200.00
03517            1200.00
03518            1400.00
03519            1200.00
03520            1200.00
03521            1400.00
03522            1400.00
03523            1400.00
03524            1400.00
03525            1400.00
03526            1800.00
03527            1800.00
03528            1600.00
03529            1800.00
03530            1600.00
03531            1800.00
03532            1800.00
03533            2000.00
03534            1800.00
03535            1800.00
03536            2000.00
03537            2000.00
03538            2000.00
03539            2000.00
03540            2000.00
03541            2000.00
03542            2000.00
03543            2000.00
03544            2000.00
03545            2000.00
03546            2000.00
03547            2000.00
03548            2200.00
03549            2200.00
03550            2200.00
03551            2200.00
03552            2200.00
03553            2200.00
03554            2600.00
03555            2200.00
03556            2400.00
03557            2400.00
03558            2400.00
03559            2600.00
03560            2200.00
03561            2400.00
03562            2600.00
03563            2400.00
03564            2600.00
03565            2600.00
03566            2600.00
03567            2600.00
03568            2600.00
03569            2600.00
03570            2600.00
03571            2600.00
03572            2400.00
03573            2600.00
03574            2600.00
03575            2600.00
03576            2600.00
03577            2600.00
03578            2600.00
03579            2400.00
03580            2600.00
03581            2400.00
03582            2400.00
03583            2600.00
03584            2600.00
03585            2400.00
03586            2600.00
03587            2600.00
03588            2400.00
03589            2400.00
03590            2200.00
03591            2200.00
03592            2600.00
03593            2200.00
03594            2200.00
03595            2200.00
03596            2000.00
03597            2200.00
03598            2200.00
03599            2200.00
03600            2000.00
03601            2000.00
03602            2000.00
03603            2000.00
03604            2000.00
03605            2000.00
03606            2000.00
03607            2000.00
03608            1800.00
03609            1800.00
03610            1800.00
03611            1800.00
03612            1800.00
03613            1800.00
03614            1600.00
03615            1600.00
03616            1800.00
03617            1800.00
03618            1400.00
03619            1400.00
03620            1400.00
03621            1400.00
03622            1400.00
03623            1400.00
03624            1400.00
03625            1400.00
03626            1200.00
03627            1400.00
03628            1200.00
03629            1200.00
03630            1200.00
03631            1200.00
03632            1000.00
03633            1000.00
03634            1000.00
03635            1000.00
03636            1000.00
03637             600.00
03638             800.00
03639             800.00
03640             600.00
03641             600.00
03642             400.00
03643             600.00
03644             400.00
03645             400.00
03646             400.00
03647             400.00
03648             400.00
03649             400.00
03650             200.00
03651             200.00
03652             200.00
03653             200.00
03654             200.00
03655             200.00
03656               0.00
03657            -200.00
03658            -200.00
03659            -200.00
03660            -200.00
03661            -400.00
03662            -400.00
03663            -400.00
03664            -600.00
03665            -600.00
03666            -400.00
03667            -600.00
03668            -600.00
03669            -600.00
03670            -600.00
03671            -600.00
03672            -600.00
03673            -800.00
03674           -1000.00
03675            -800.00
03676           -1200.00
03677           -1000.00
03678           -1200.00
03679           -1200.00
03680           -1200.00
03681           -1200.00
03682           -1200.00
03683           -1200.00
03684           -1400.00
03685           -1200.00
03686           -1200.00
03687           -1400.00
03688           -1400.00
03689           -1400.00
03690           -1400.00
03691           -1400.00
03692           -1800.00
03693           -1800.00
03694           -1600.00
03695           -1800.00
03696           -1800.00
03697           -1800.00
03698           -2000.00
03699           -1800.00
03700           -2000.00
03701           -2000.00
03702           -1800.00
03703           -2000.00
03704           -2000.00
03705           -2000.00
03706           -2000.00
03707           -2000.00
03708           -2000.00
03709           -2200.00
03710           -2200.00
03711           -2000.00
03712           -2000.00
03713           -2200.00
03714           -2200.00
03715           -2200.00
03716           -2200.00
03717           -2200.00
03718           -2200.00
03719           -2200.00
03720           -2200.00
03721           -2200.00
03722           -2200.00
03723           -2200.00
03724           -2600.00
03725           -2600.00
03726           -2200.00
03727           -2200.00
03728           -2600.00
03729           -2400.00
03730           -2600.00
03731           -2200.00
03732           -2600.00
03733           -2400.00
03734           -2600.00
03735           -2600.00
03736           -2600.00
03737           -2400.00
03738           -2600.00
03739           -2600.00
03740           -2600.00
03741           -2400.00
03742           -2600.00
03743           -2400.00
03744           -2600.00
03745           -2400.00
03746           -2400.00
03747           -2400.00
03748           -2600.00
03749           -2600.00
03750           -2200.00
03751           -2400.00
03752           -2200.00
03753           -2200.00
03754           -2200.00
03755           -2200.00
03756           -2200.00
03757           -2200.00
03758           -2200.00
03759           -2200.00
03760           -2200.00
03761           -2200.00
03762           -2000.00
03763           -2000.00
03764           -2200.00
03765           -2000.00
03766           -2000.00
03767           -2000.00
03768           -2000.00
03769           -2000.00
03770           -2000.00
03771           -2000.00
03772           -2000.00
03773           -1800.00
03774           -2000.00
03775           -2000.00
03776           -1800.00
03777           -1800.00
03778           -1800.00
03779           -1800.00
03780           -1800.00
03781           -1600.00
03782           -1800.00
03783           -1400.00
03784           -1400.00
03785           -1400.00
03786           -1400.00
03787           -1400.00
03788           -1400.00
03789           -1200.00
03790           -1200.00
03791           -1200.00
03792           -1200.00
03793           -1200.00
03794           -1200.00
03795           -1200.00
03796           -1000.00
03797           -1200.00
03798           -1000.00
03799           -1000.00
03800           -1000.00
03801           -1000.00
03802           -1000.00
03803            -800.00
03804            -600.00
03805            -600.00
03806            -600.00
03807            -600.00
03808            -600.00
03809            -600.00
03810            -400.00
03811            -600.00
03812            -400.00
03813            -400.00
03814            -400.00
03815            -200.00
03816            -200.00
03817            -200.00
03818            -200.00
03819             200.00
03820             200.00
03821            -200.00
03822             200.00
03823             200.00
03824             200.00
03825             200.00
03826             200.00
03827             400.00
03828             400.00
03829             600.00
03830             400.00
03831             600.00
03832             600.00
03833             400.00
03834             600.00
03835             600.00
03836             600.00
03837            1000.00
03838            1000.00
03839            1000.00
03840            1000.00
03841            1000.00
03842            1000.00
03843            1200.00
03844            1200.00
03845            1000.00
03846            1200.00
03847            1200.00
03848            1200.00
03849            1400.00
03850            1200.00
03851            1400.00
03852            1400.00
03853            1400.00
03854            1400.00
03855            1400.00
03856            1400.00
03857            1600.00
03858            1600.00
03859            1600.00
03860            1800.00
03861            1800.00
03862            1800.00
03863            1800.00
03864            1800.00
03865            2000.00
03866            1800.00
03867            2000.00
03868            1800.00
03869            1800.00
03870            2000.00
03871            2000.00
03872            2000.00
03873            2000.00
03874            2200.00
03875            2000.00
03876            2000.00
03877            2200.00
03878            2200.00
03879            2000.00
03880            2200.00
03881            2400.00
03882            2200.00
03883            2200.00
03884            2200.00
03885            2200.00
03886            2200.00
03887            2200.00
03888            2400.00
03889            2200.00
03890            2400.00
03891            2600.00
03892            2200.00
03893            2400.00
03894            2600.00
03895            2400.00
03896            2600.00
03897            2600.00
03898            2600.00
03899            2600.00
03900            2600.00
03901            2600.00
03902            2600.00
03903            2600.00
03904            2600.00
03905            2600.00
03906            2600.00
03907            2600.00
03908            2400.00
03909            2600.00
03910            2600.00
03911            2600.00
03912            2600.00
03913            2200.00
03914            2600.00
03915            2200.00
03916            2600.00
03917            2200.00
03918            2200.00
03919            2200.00
03920            2200.00
03921            2200.00
03922            2200.00
03923            2200.00
03924            2200.00
03925            2200.00
03926            2000.00
03927            2000.00
03928            2200.00
03929            2200.00
03930            2000.00
03931            2000.00
03932            2000.00
03933            2000.00
03934            2000.00
03935            2000.00
03936            2000.00
03937            1800.00
03938            2000.00
03939            1800.00
03940            1800.00
03941            1800.00
03942            1800.00
03943            1800.00
03944            1800.00
03945            1800.00
03946            1800.00
03947            1800.00
03948            1600.00
03949            1600.00
03950            1400.00
03951            1400.00
03952            1400.00
03953            1400.00
03954            1400.00
03955            1200.00
03956            1200.00
03957            1200.00
03958            1200.00
03959            1200.00
03960            1200.00
03961            1200.00
03962            1200.00
03963            1000.00
03964            1000.00
03965            1000.00
03966            1000.00
03967            1000.00
03968             800.00
03969             600.00
03970             600.00
03971             600.00
03972             800.00
03973             400.00
03974             400.00
03975             600.00
03976             400.00
03977             400.00
03978             400.00
03979             400.00
03980             400.00
03981             200.00
03982             200.00
03983             200.00
03984             200.00
03985            -200.00
03986            -200.00
03987               0.00
03988            -200.00
03989            -200.00
03990            -400.00
03991            -400.00
03992            -400.00
03993            -400.00
03994            -400.00
03995            -600.00
03996            -600.00
03997            -400.00
03998            -600.00
03999            -600.00
04000            -600.00
04001            -600.00
04002            -600.00
04003           -1000.00
04004            -600.00
04005           -1000.00
04006           -1000.00
04007           -1000.00
04008           -1000.00
04009           -1200.00
04010           -1200.00
04011           -1200.00
04012           -1200.00
04013           -1200.00
04014           -1200.00
04015           -1200.00
04016           -1200.00
04017           -1200.00
04018           -1200.00
04019           -1400.00
04020           -1400.00
04021           -1400.00
04022           -1400.00
04023           -1600.00
04024           -1600.00
04025           -1800.00
04026           -1800.00
04027           -1800.00
04028           -1800.00
04029           -1800.00
04030           -1800.00
04031           -1800.00
04032           -2000.00
04033           -2000.00
04034           -2000.00
04035           -2000.00
04036           -2000.00
04037           -2000.00
04038           -2000.00
04039           -2000.00
04040           -2000.00
04041           -2000.00
04042           -2200.00
04043           -2000.00
04044           -2200.00
04045           -2200.00
04046           -2200.00
04047           -2200.00
04048           -2200.00
04049           -2200.00
04050           -2200.00
04051           -2400.00
04052           -2400.00
04053           -2200.00
04054           -2200.00
04055           -2600.00
04056           -2200.00
04057           -2600.00
04058           -2200.00
04059           -2600.00
04060           -2600.00
04061           -2400.00
04062           -2200.00
04063           -2600.00
04064           -2600.00
04065           -2200.00
04066           -2600.00
04067           -2400.00
04068           -2400.00
04069           -2600.00
04070           -2200.00
04071           -2600.00
04072           -2600.00
04073           -2400.00
04074           -2200.00
04075           -2400.00
04076           -2600.00
04077           -2400.00
04078           -2200.00
04079           -2200.00
04080           -2400.00
04081           -2600.00
04082           -2200.00
04083           -2200.00
04084           -2200.00
04085           -2200.00
04086           -2200.00
04087           -2200.00
04088           -2200.00
04089           -2200.00
04090           -2200.00
04091           -2200.00
04092           -2200.00
04093           -2200.00
04094           -2000.00
04095           -2000.00
04096           -2200.00
04097           -2200.00
04098           -2000.00
04099           -2000.00
04100           -2000.00
04101           -2000.00
04102           -2000.00
04103           -1800.00
04104           -1800.00
04105           -1800.00
04106           -1800.00
04107           -1800.00
04108           -1800.00
04109           -1800.00
04110           -1800.00
04111           -1800.00
04112           -1400.00
04113           -1400.00
04114           -1800.00
04115           -1400.00
04116           -1400.00
04117           -1400.00
04118           -1400.00
04119           -1400.00
04120           -1200.00
04121           -1400.00
04122           -1200.00
04123           -1200.00
04124           -1200.00
04125           -1200.00
04126           -1200.00
04127           -1200.00
04128           -1000.00
04129           -1000.00
04130           -1000.00
04131            -800.00
04132            -800.00
04133           -1000.00
04134            -600.00
04135            -600.00
04136            -600.00
04137            -600.00
04138            -600.00
04139            -600.00
04140            -600.00
04141            -400.00
04142            -400.00
04143            -400.00
04144            -400.00
04145            -400.00
04146            -200.00
04147            -200.00
04148            -200.00
04149            -200.00
04150               0.00
04151             200.00
04152             200.00
04153             200.00
04154             200.00
04155             400.00
04156             200.00
04157             400.00
04158             400.00
04159             400.00
04160             400.00
04161             600.00
04162             600.00
04163             600.00
04164             600.00
04165             600.00
04166             600.00
04167             600.00
04168            1000.00
04169            1000.00
04170            1000.00
04171            1000.00
04172            1000.00
04173            1200.00
04174            1000.00
04175            1200.00
04176            1200.00
04177            1200.00
04178            1200.00
04179            1200.00
04180            1200.00
04181            1400.00
04182            1400.00
04183            1400.00
04184            1400.00
04185            1400.00
04186            1400.00
04187            1800.00
04188            1800.00
04189            1800.00
04190            1800.00
04191            1800.00
04192            1800.00
04193            1600.00
04194            2000.00
04195            1800.00
04196            2000.00
04197            1800.00
04198            2000.00
04199            2000.00
04200            2000.00
04201            2000.00
04202            2000.00
04203            2000.00
04204            2000.00
04205            2000.00
04206            2200.00
04207            2200.00
04208            2200.00
04209            2200.00
04210            2200.00
04211            2200.00
04212            2000.00
04213            2200.00
04214            2200.00
04215            2400.00
04216            2400.00
04217            2600.00
04218            2600.00
04219            2400.00
04220            2600.00
04221            2600.00
04222            2400.00
04223            2600.00
04224            2600.00
04225            2600.00
04226            2600.00
04227            2600.00
04228            2600.00
04229            2600.00
04230            2600.00
04231            2600.00
04232            2600.00
04233            2600.00
04234            2600.00
04235            2600.00
04236            2600.00
04237            2600.00
04238            2600.00
04239            2400.00
04240            2600.00
04241            2400.00
04242            2600.00
04243            2600.00
04244            2200.00
04245            2200.00
04246            2600.00
04247            2400.00
04248            2200.00
04249            2200.00
04250            2400.00
04251            2400.00
04252            2200.00
04253            2200.00
04254            2400.00
04255            2200.00
04256            2200.00
04257            2200.00
04258            2200.00
04259            2200.00
04260            2000.00
04261            2200.00
04262            2000.00
04263            2000.00
04264            2000.00
04265            2000.00
04266            2000.00
04267            2000.00
04268            2000.00
04269            1800.00
04270            1800.00
04271            1800.00
04272            1800.00
04273            1800.00
04274            1800.00
04275            1800.00
04276            1800.00
04277            1800.00
04278            1600.00
04279            1800.00
04280            1400.00
04281            1800.00
04282            1400.00
04283            1400.00
04284            1400.00
04285            1200.00
04286            1400.00
04287            1200.00
04288            1200.00
04289            1200.00
04290            1200.00
04291            1000.00
04292            1000.00
04293            1000.00
04294            1200.00
04295            1000.00
04296            1000.00
04297            1000.00
04298             800.00
04299            1000.00
04300             800.00
04301             600.00
04302             600.00
04303             600.00
04304             400.00
04305             400.00
04306             400.00
04307             400.00
04308             400.00
04309             400.00
04310             200.00
04311             200.00
04312             200.00
04313             200.00
04314             200.00
04315             200.00
04316             200.00
04317             200.00
04318            -200.00
04319            -200.00
04320            -400.00
04321            -200.00
04322            -400.00
04323            -400.00
04324            -600.00
04325            -400.00
04326            -600.00
04327            -600.00
04328            -400.00
04329            -600.00
04330            -600.00
04331            -600.00
04332            -800.00
04333            -600.00
04334            -800.00
04335           -1000.00
04336           -1000.00
04337           -1000.00
04338           -1000.00
04339           -1000.00
04340           -1000.00
04341           -1000.00
04342           -1200.00
04343           -1200.00
04344           -1200.00
04345           -1200.00
04346           -1200.00
04347           -1400.00
04348           -1200.00
04349           -1200.00
04350           -1400.00
04351           -1400.00
04352           -1400.00
04353           -1400.00
04354           -1800.00
04355           -1400.00
04356           -1800.00
04357           -1800.00
04358           -1800.00
04359           -1600.00
04360           -1800.00
04361           -1800.00
04362           -2000.00
04363           -1800.00
04364           -2000.00
04365           -2000.00
04366           -2000.00
04367           -2000.00
04368           -2000.00
04369           -2000.00
04370           -2000.00
04371           -2200.00
04372           -2200.00
04373           -2200.00
04374           -2000.00
04375           -2200.00
04376           -2200.00
04377           -2200.00
04378           -2200.00
04379           -2200.00
04380           -2200.00
04381           -2200.00
04382           -2200.00
04383           -2200.00
04384           -2200.00
04385           -2200.00
04386           -2600.00
04387           -2600.00
04388           -2200.00
04389           -2400.00
04390           -2200.00
04391           -2600.00
04392           -2400.00
04393           -2400.00
04394           -2600.00
04395           -2600.00
04396           -2400.00
04397           -2600.00
04398           -2600.00
04399           -2600.00
04400           -2600.00
04401           -2600.00
04402           -2600.00
04403           -2400.00
04404           -2600.00
04405           -2600.00
04406           -2200.00
04407           -2400.00
04408           -2200.00
04409           -2600.00
04410           -2400.00
04411           -2200.00
04412           -2400.00
04413           -2200.00
04414           -2200.00
04415           -2200.00
04416           -2200.00
04417           -2200.00
04418           -2200.00
04419           -2200.00
04420           -2200.00
04421           -2200.00
04422           -2200.00
04423           -2200.00
04424           -2200.00
04425           -2200.00
04426           -2200.00
04427           -2000.00
04428           -2000.00
04429           -2200.00
04430           -2000.00
04431           -2000.00
04432           -2000.00
04433           -2000.00
04434           -1800.00
04435           -2000.00
04436           -1800.00
04437           -1800.00
04438           -1800.00
04439           -2000.00
04440           -1800.00
04441           -1800.00
04442           -1800.00
04443           -1600.00
04444           -1600.00
04445           -1400.00
04446           -1400.00
04447           -1400.00
04448           -1400.00
04449           -1400.00
04450           -1200.00
04451           -1400.00
04452           -1200.00
04453           -1400.00
04454           -1200.00
04455           -1200.00
04456           -1200.00
04457           -1200.00
04458           -1200.00
04459           -1200.00
04460           -1000.00
04461           -1000.00
04462           -1000.00
04463           -1000.00
04464            -600.00
04465            -600.00
04466            -600.00
04467            -600.00
04468            -600.00
04469            -600.00
04470            -600.00
04471            -600.00
04472            -400.00
04473            -200.00
04474            -400.00
04475            -400.00
04476            -400.00
04477            -200.00
04478            -200.00
04479            -200.00
04480            -200.00
04481             200.00
04482             200.00
04483             200.00
04484             200.00
04485             200.00
04486             200.00
04487             400.00
04488             200.00
04489             400.00
04490             400.00
04491             400.00
04492             400.00
04493             600.00
04494             400.00
04495             600.00
04496             600.00
04497             600.00
04498             600.00
04499            1000.00
04500             800.00
04501            1000.00
04502            1000.00
04503            1000.00
04504            1200.00
04505            1000.00
04506            1000.00
04507            1200.00
04508            1200.00
04509            1000.00
04510            1200.00
04511            1200.00
04512            1200.00
04513            1200.00
04514            1400.00
04515            1400.00
04516            1400.00
04517            1600.00
04518            1400.00
04519            1800.00
04520            1800.00
04521            1600.00
04522            1600.00
04523            1800.00
04524            2000.00
04525            1800.00
04526            1800.00
04527            1800.00
04528            2000.00
04529            1800.00
04530            2000.00
04531            2000.00
04532            2000.00
04533            2000.00
04534            2200.00
04535            2000.00
04536            2000.00
04537            2200.00
04538            2200.00
04539            2200.00
04540            2200.00
04541            2200.00
04542            2200.00
04543            2200.00
04544            2200.00
04545            2600.00
04546            2400.00
04547            2400.00
04548            2200.00
04549            2600.00
04550            2400.00
04551            2200.00
04552            2600.00
04553            2600.00
04554            2200.00
04555            2400.00
04556            2600.00
04557            2600.00
04558            2600.00
04559            2400.00
04560            2400.00
04561            2600.00
04562            2600.00
04563            2600.00
04564            2600.00
04565            2600.00
04566            2600.00
04567            2600.00
04568            2400.00
04569            2600.00
04570            2600.00
04571            2600.00
04572            2400.00
04573            2600.00
04574            2400.00
04575            2400.00
04576            2200.00
04577            2400.00
04578            2400.00
04579            2200.00
04580            2200.00
04581            2200.00
04582            2200.00
04583            2200.00
04584            2200.00
04585            2200.00
04586            2200.00
04587            2200.00
04588            2200.00
04589            2200.00
04590            2200.00
04591            2200.00
04592            2000.00
04593            2000.00
04594            2000.00
04595            2000.00
04596            2000.00
04597            2000.00
04598            2000.00
04599            2000.00
04600            2000.00
04601            1800.00
04602            1800.00
04603            1800.00
04604            1800.00
04605            1800.00
04606            1800.00
04607            1800.00
04608            1800.00
04609            1600.00
04610            1400.00
04611            1600.00
04612            1800.00
04613            1400.00
04614            1400.00
04615            1400.00
04616            1400.00
04617            1200.00
04618            1200.00
04619            1200.00
04620            1400.00
04621            1200.00
04622            1200.00
04623            1200.00
04624            1000.00
04625            1000.00
04626            1000.00
04627            1000.00
04628            1000.00
04629             800.00
04630             800.00
04631            1000.00
04632             600.00
04633             600.00
04634             400.00
04635             600.00
04636             400.00
04637             400.00
04638             400.00
04639             200.00
04640             400.00
04641             200.00
04642             200.00
04643             200.00
04644             200.00
04645             200.00
04646             200.00
04647            -200.00
04648            -200.00
04649            -200.00
04650            -200.00
04651            -200.00
04652            -400.00
04653            -400.00
04654            -400.00
04655            -400.00
04656            -600.00
04657            -600.00
04658            -600.00
04659            -600.00
04660            -600.00
04661            -600.00
04662            -600.00
04663            -600.00
04664            -600.00
04665           -1000.00
04666           -1000.00
04667           -1000.00
04668           -1000.00
04669           -1000.00
04670           -1000.00
04671           -1200.00
04672           -1000.00
04673           -1200.00
04674           -1200.00
04675           -1200.00
04676           -1200.00
04677           -1200.00
04678           -1200.00
04679           -1200.00
04680           -1200.00
04681           -1400.00
04682           -1400.00
04683           -1400.00
04684           -1600.00
04685           -1800.00
04686           -1800.00
04687           -1600.00
04688           -1800.00
04689           -1800.00
04690           -1800.00
04691           -1800.00
04692           -1800.00
04693           -2000.00
04694           -2000.00
04695           -2000.00
04696           -2000.00
04697           -2000.00
04698           -2000.00
04699           -2000.00
04700           -2200.00
04701           -2200.00
04702           -2000.00
04703           -2200.00
04704           -2200.00
04705           -2200.00
04706           -2200.00
04707           -2000.00
04708           -2200.00
04709           -2200.00
04710           -2200.00
04711           -2200.00
04712           -2200.00
04713           -2400.00
04714           -2400.00
04715           -2600.00
04716           -2400.00
04717           -2200.00
04718           -2600.00
04719           -2600.00
04720           -2600.00
04721           -2200.00
04722           -2400.00
04723           -2600.00
04724           -2400.00
04725           -2400.00
04726           -2600.00
04727           -2400.00
04728           -2200.00
04729           -2200.00
04730           -2600.00
04731           -2600.00
04732           -2400.00
04733           -2600.00
04734           -2600.00
04735           -2600.00
04736           -2400.00
04737           -2600.00
04738           -2200.00
04739           -2400.00
04740           -2200.00
04741           -2400.00
04742           -2200.00
04743           -2200.00
04744           -2400.00
04745           -2200.00
04746           -2200.00
04747           -2200.00
04748           -2200.00
04749           -2200.00
04750           -2200.00
04751           -2200.00
04752           -2000.00
04753           -2200.00
04754           -2200.00
04755           -2200.00
04756           -2200.00
04757           -2200.00
04758           -2200.00
04759           -2000.00
04760           -2000.00
04761           -2000.00
04762           -2000.00
04763           -2000.00
04764           -2000.00
04765           -1800.00
04766           -2000.00
04767           -2000.00
04768           -2000.00
04769           -2000.00
04770           -1800.00
04771           -1800.00
04772           -2000.00
04773           -1800.00
04774           -1400.00
04775           -1600.00
04776           -1400.00
04777           -1600.00
04778           -1400.00
04779           -1400.00
04780           -1400.00
04781           -1200.00
04782           -1400.00
04783           -1200.00
04784           -1400.00
04785           -1200.00
04786           -1200.00
04787           -1200.00
04788           -1200.00
04789           -1200.00
04790           -1000.00
04791           -1000.00
04792           -1000.00
04793           -1000.00
04794            -800.00
04795            -600.00
04796            -600.00
04797            -600.00
04798            -600.00
04799            -600.00
04800            -600.00
04801            -400.00
04802            -600.00
04803            -400.00
04804            -400.00
04805            -200.00
04806            -400.00
04807            -200.00
04808            -400.00
04809               0.00
04810            -200.00
04811             200.00
04812               0.00
04813             200.00
04814             200.00
04815             200.00
04816             200.00
04817             200.00
04818             200.00
04819             400.00
04820             400.00
04821             400.00
04822             400.00
04823             400.00
04824             600.00
04825             600.00
04826             600.00
04827             600.00
04828             600.00
04829             600.00
04830            1000.00
04831             800.00
04832            1000.00
04833            1000.00
04834            1000.00
04835            1000.00
04836            1000.00
04837            1200.00
04838            1200.00
04839            1200.00
04840            1200.00
04841            1200.00
04842            1200.00
04843            1200.00
04844            1400.00
04845            1200.00
04846            1400.00
04847            1400.00
04848            1600.00
04849            1600.00
04850            1800.00
04851            1400.00
04852            1400.00
04853            1800.00
04854            1800.00
04855            1800.00
04856            1800.00
04857            2000.00
04858            1800.00
04859            1800.00
04860            2000.00
04861            2000.00
04862            2000.00
04863            2000.00
04864            2000.00
04865            2000.00
04866            2000.00
04867            2200.00
04868            2200.00
04869            2000.00
04870            2200.00
04871            2200.00
04872            2200.00
04873            2200.00
04874            2400.00
04875            2200.00
04876            2200.00
04877            2200.00
04878            2400.00
04879            2400.00
04880            2400.00
04881            2600.00
04882            2400.00
04883            2600.00
04884            2400.00
04885            2600.00
04886            2600.00
04887            2600.00
04888            2600.00
04889            2600.00
04890            2600.00
04891            2600.00
04892            2600.00
04893            2600.00
04894            2400.00
04895            2600.00
04896            2200.00
04897            2600.00
04898            2600.00
04899            2600.00
04900            2600.00
04901            2200.00
04902            2400.00
04903            2400.00
04904            2600.00
04905            2200.00
04906            2600.00
04907            2400.00
04908            2200.00
04909            2600.00
04910            2200.00
04911            2400.00
04912            2200.00
04913            2200.00
04914            2200.00
04915            2200.00
04916            2200.00
04917            2200.00
04918            2200.00
04919            2200.00
04920            2200.00
04921            2000.00
04922            2200.00
04923            2000.00
04924            2000.00
04925            2000.00
04926            2000.00
04927            2000.00
04928            2000.00
04929            2000.00
04930            1800.00
04931            1800.00
04932            2000.00
04933            1800.00
04934            1800.00
04935            1800.00
04936            1800.00
04937            1800.00
04938            1800.00
04939            1800.00
04940            1800.00
04941            1600.00
04942            1800.00
04943            1600.00
04944            1400.00
04945            1400.00
04946            1400.00
04947            1400.00
04948            1400.00
04949            1200.00
04950            1200.00
04951            1200.00
04952            1200.00
04953            1200.00
04954            1000.00
04955            1000.00
04956            1000.00
04957            1000.00
04958             800.00
04959             600.00
04960             800.00
04961             600.00
04962             600.00
04963             400.00
04964             600.00
04965             600.00
04966             400.00
04967             400.00
04968             400.00
04969             200.00
04970             400.00
04971             400.00
04972             200.00
04973             200.00
04974             200.00
04975             200.00
04976             200.00
04977             200.00
04978               0.00
04979            -200.00
04980            -200.00
04981            -200.00
04982            -200.00
04983            -400.00
04984            -400.00
04985            -400.00
04986            -400.00
04987            -600.00
04988            -600.00
04989            -400.00
04990            -600.00
04991            -600.00
04992            -600.00
04993            -800.00
04994            -600.00
04995            -800.00
04996           -1000.00
04997           -1000.00
04998           -1000.00
04999           -1000.00
05000           -1000.00
