Unit:(mV)
                     CH1
Frequency    301.470 kHz
00001            4400.00
00002            3800.00
00003            3400.00
00004            2800.00
00005            2200.00
00006            1800.00
00007            1200.00
00008             800.00
00009             400.00
00010            -200.00
00011            -800.00
00012           -1200.00
00013           -2000.00
00014           -2200.00
00015           -2800.00
00016           -3000.00
00017           -3600.00
00018           -4200.00
00019           -5000.00
00020           -5800.00
00021           -6200.00
00022           -6600.00
00023           -6600.00
00024           -7000.00
00025           -7800.00
00026           -8400.00
00027           -8600.00
00028           -9200.00
00029           -9800.00
00030          -10200.00
00031          -10800.00
00032          -11200.00
00033          -11600.00
00034          -12200.00
00035          -12600.00
00036          -13200.00
00037          -13400.00
00038          -14000.00
00039          -14600.00
00040          -15000.00
00041          -15600.00
00042          -15800.00
00043          -16400.00
00044          -16600.00
00045          -17200.00
00046          -17600.00
00047          -18000.00
00048          -18600.00
00049          -19000.00
00050          -19600.00
00051          -19800.00
00052          -20000.00
00053          -20400.00
00054          -21000.00
00055          -21400.00
00056          -21600.00
00057          -21800.00
00058          -22200.00
00059          -22600.00
00060          -23000.00
00061          -23000.00
00062          -23400.00
00063          -23600.00
00064          -23800.00
00065          -24200.00
00066          -24600.00
00067          -24600.00
00068          -25000.00
00069          -25000.00
00070          -25000.00
00071          -25000.00
00072          -25000.00
00073          -25000.00
00074          -25000.00
00075          -25000.00
00076          -25000.00
00077          -25000.00
00078          -25000.00
00079          -25000.00
00080          -25000.00
00081          -25000.00
00082          -25000.00
00083          -25000.00
00084          -25000.00
00085          -25000.00
00086          -25000.00
00087          -25000.00
00088          -25000.00
00089          -25000.00
00090          -25000.00
00091          -25000.00
00092          -25000.00
00093          -25000.00
00094          -25000.00
00095          -25000.00
00096          -25000.00
00097          -25000.00
00098          -25000.00
00099          -25000.00
00100          -25000.00
00101          -25000.00
00102          -25000.00
00103          -25000.00
00104          -25000.00
00105          -25000.00
00106          -25000.00
00107          -25000.00
00108          -25000.00
00109          -25000.00
00110          -25000.00
00111          -25000.00
00112          -25000.00
00113          -25000.00
00114          -25000.00
00115          -25000.00
00116          -25000.00
00117          -24800.00
00118          -24600.00
00119          -24400.00
00120          -24200.00
00121          -23800.00
00122          -23600.00
00123          -23400.00
00124          -23000.00
00125          -22800.00
00126          -22400.00
00127          -22000.00
00128          -21800.00
00129          -21400.00
00130          -21000.00
00131          -21000.00
00132          -20400.00
00133          -19800.00
00134          -19600.00
00135          -19200.00
00136          -18800.00
00137          -18600.00
00138          -18000.00
00139          -17800.00
00140          -17200.00
00141          -17000.00
00142          -16400.00
00143          -15800.00
00144          -15600.00
00145          -15000.00
00146          -14600.00
00147          -14200.00
00148          -13400.00
00149          -13400.00
00150          -13000.00
00151          -12400.00
00152          -11800.00
00153          -11600.00
00154          -10800.00
00155          -10400.00
00156           -9800.00
00157           -9400.00
00158           -8600.00
00159           -8400.00
00160           -7800.00
00161           -7400.00
00162           -6800.00
00163           -6200.00
00164           -6000.00
00165           -5200.00
00166           -4600.00
00167           -4400.00
00168           -3800.00
00169           -3200.00
00170           -2800.00
00171           -2200.00
00172           -1800.00
00173           -1200.00
00174            -600.00
00175            -200.00
00176             400.00
00177            1000.00
00178            1400.00
00179            1800.00
00180            2400.00
00181            2800.00
00182            3400.00
00183            3800.00
00184            4400.00
00185            5000.00
00186            5600.00
00187            6000.00
00188            6600.00
00189            7000.00
00190            7400.00
00191            7800.00
00192            8400.00
00193            8800.00
00194            9200.00
00195            9800.00
00196           10200.00
00197           11000.00
00198           11400.00
00199           11800.00
00200           12200.00
00201           12800.00
00202           13200.00
00203           13800.00
00204           14000.00
00205           14800.00
00206           15000.00
00207           15600.00
00208           16000.00
00209           16600.00
00210           17000.00
00211           17400.00
00212           17800.00
00213           18200.00
00214           18600.00
00215           18800.00
00216           19400.00
00217           19800.00
00218           20200.00
00219           20400.00
00220           21000.00
00221           21400.00
00222           21800.00
00223           22000.00
00224           22200.00
00225           22600.00
00226           22800.00
00227           23200.00
00228           23600.00
00229           23800.00
00230           24200.00
00231           24400.00
00232           24400.00
00233           24600.00
00234           25000.00
00235           25000.00
00236           25000.00
00237           25000.00
00238           25000.00
00239           25000.00
00240           25000.00
00241           25000.00
00242           25000.00
00243           25000.00
00244           25000.00
00245           25000.00
00246           25000.00
00247           25000.00
00248           25000.00
00249           25000.00
00250           25000.00
00251           25000.00
00252           25000.00
00253           25000.00
00254           25000.00
00255           25000.00
00256           25000.00
00257           25000.00
00258           25000.00
00259           25000.00
00260           25000.00
00261           25000.00
00262           25000.00
00263           25000.00
00264           25000.00
00265           25000.00
00266           25000.00
00267           25000.00
00268           25000.00
00269           25000.00
00270           25000.00
00271           25000.00
00272           25000.00
00273           25000.00
00274           25000.00
00275           25000.00
00276           25000.00
00277           25000.00
00278           25000.00
00279           25000.00
00280           25000.00
00281           25000.00
00282           25000.00
00283           25000.00
00284           24400.00
00285           24400.00
00286           24200.00
00287           23800.00
00288           23600.00
00289           23400.00
00290           23000.00
00291           22800.00
00292           22400.00
00293           22000.00
00294           21800.00
00295           21400.00
00296           21200.00
00297           20600.00
00298           20400.00
00299           20000.00
00300           19600.00
00301           19400.00
00302           19000.00
00303           18600.00
00304           18200.00
00305           17800.00
00306           17200.00
00307           17000.00
00308           16400.00
00309           15800.00
00310           15400.00
00311           15200.00
00312           14800.00
00313           14000.00
00314           13800.00
00315           13200.00
00316           12600.00
00317           12200.00
00318           11800.00
00319           11200.00
00320           10800.00
00321           10200.00
00322           10000.00
00323            9400.00
00324            9000.00
00325            8400.00
00326            7800.00
00327            7400.00
00328            6800.00
00329            6400.00
00330            5800.00
00331            5200.00
00332            5000.00
00333            4200.00
00334            3600.00
00335            3400.00
00336            2600.00
00337            2200.00
00338            1600.00
00339            1200.00
00340             600.00
00341             200.00
00342            -400.00
00343           -1000.00
00344           -1400.00
00345           -2000.00
00346           -2200.00
00347           -2800.00
00348           -3400.00
00349           -3600.00
00350           -4400.00
00351           -5000.00
00352           -6000.00
00353           -6200.00
00354           -6600.00
00355           -6800.00
00356           -7200.00
00357           -8200.00
00358           -8400.00
00359           -9000.00
00360           -9400.00
00361          -10000.00
00362          -10600.00
00363          -10800.00
00364          -11400.00
00365          -11800.00
00366          -12400.00
00367          -13000.00
00368          -13400.00
00369          -14000.00
00370          -14200.00
00371          -14800.00
00372          -15400.00
00373          -15600.00
00374          -15800.00
00375          -16600.00
00376          -17000.00
00377          -17200.00
00378          -18000.00
00379          -18200.00
00380          -18800.00
00381          -19000.00
00382          -19400.00
00383          -19800.00
00384          -20200.00
00385          -20600.00
00386          -21000.00
00387          -21400.00
00388          -21800.00
00389          -22000.00
00390          -22200.00
00391          -22600.00
00392          -23000.00
00393          -23400.00
00394          -23600.00
00395          -23800.00
00396          -24200.00
00397          -24200.00
00398          -24600.00
00399          -24800.00
00400          -25000.00
00401          -25000.00
00402          -25000.00
00403          -25000.00
00404          -25000.00
00405          -25000.00
00406          -25000.00
00407          -25000.00
00408          -25000.00
00409          -25000.00
00410          -25000.00
00411          -25000.00
00412          -25000.00
00413          -25000.00
00414          -25000.00
00415          -25000.00
00416          -25000.00
00417          -25000.00
00418          -25000.00
00419          -25000.00
00420          -25000.00
00421          -25000.00
00422          -25000.00
00423          -25000.00
00424          -25000.00
00425          -25000.00
00426          -25000.00
00427          -25000.00
00428          -25000.00
00429          -25000.00
00430          -25000.00
00431          -25000.00
00432          -25000.00
00433          -25000.00
00434          -25000.00
00435          -25000.00
00436          -25000.00
00437          -25000.00
00438          -25000.00
00439          -25000.00
00440          -25000.00
00441          -25000.00
00442          -25000.00
00443          -25000.00
00444          -25000.00
00445          -25000.00
00446          -25000.00
00447          -25000.00
00448          -25000.00
00449          -24800.00
00450          -24600.00
00451          -24400.00
00452          -24200.00
00453          -23800.00
00454          -23600.00
00455          -23200.00
00456          -23000.00
00457          -22600.00
00458          -22200.00
00459          -22000.00
00460          -21800.00
00461          -21200.00
00462          -21000.00
00463          -20600.00
00464          -20400.00
00465          -19800.00
00466          -19600.00
00467          -19000.00
00468          -18800.00
00469          -18200.00
00470          -17800.00
00471          -17800.00
00472          -17200.00
00473          -16600.00
00474          -16400.00
00475          -15800.00
00476          -15400.00
00477          -15000.00
00478          -14600.00
00479          -14000.00
00480          -13400.00
00481          -13200.00
00482          -12600.00
00483          -12200.00
00484          -11600.00
00485          -11000.00
00486          -10800.00
00487          -10200.00
00488           -9800.00
00489           -9200.00
00490           -8600.00
00491           -8400.00
00492           -7600.00
00493           -7000.00
00494           -6800.00
00495           -6000.00
00496           -5400.00
00497           -5200.00
00498           -4400.00
00499           -4200.00
00500           -3600.00
00501           -3000.00
00502           -2600.00
00503           -2000.00
00504           -1400.00
00505           -1000.00
00506            -600.00
00507             200.00
00508             600.00
00509            1000.00
00510            1400.00
00511            2000.00
00512            2400.00
00513            2800.00
00514            3400.00
00515            3800.00
00516            4400.00
00517            5400.00
00518            5800.00
00519            6200.00
00520            6800.00
00521            7000.00
00522            7600.00
00523            8200.00
00524            8400.00
00525            9000.00
00526            9400.00
00527           10000.00
00528           10600.00
00529           10800.00
00530           11600.00
00531           12200.00
00532           12400.00
00533           13000.00
00534           13400.00
00535           14000.00
00536           14600.00
00537           15000.00
00538           15400.00
00539           15600.00
00540           16200.00
00541           16600.00
00542           17000.00
00543           17400.00
00544           18000.00
00545           18400.00
00546           18600.00
00547           19000.00
00548           19600.00
00549           20000.00
00550           20200.00
00551           20600.00
00552           21200.00
00553           21400.00
00554           21800.00
00555           22000.00
00556           22600.00
00557           22800.00
00558           23000.00
00559           23400.00
00560           23600.00
00561           23800.00
00562           24200.00
00563           24400.00
00564           24600.00
00565           25000.00
00566           25000.00
00567           25000.00
00568           25000.00
00569           25000.00
00570           25000.00
00571           25000.00
00572           25000.00
00573           25000.00
00574           25000.00
00575           25000.00
00576           25000.00
00577           25000.00
00578           25000.00
00579           25000.00
00580           25000.00
00581           25000.00
00582           25000.00
00583           25000.00
00584           25000.00
00585           25000.00
00586           25000.00
00587           25000.00
00588           25000.00
00589           25000.00
00590           25000.00
00591           25000.00
00592           25000.00
00593           25000.00
00594           25000.00
00595           25000.00
00596           25000.00
00597           25000.00
00598           25000.00
00599           25000.00
00600           25000.00
00601           25000.00
00602           25000.00
00603           25000.00
00604           25000.00
00605           25000.00
00606           25000.00
00607           25000.00
00608           25000.00
00609           25000.00
00610           25000.00
00611           25000.00
00612           25000.00
00613           25000.00
00614           25000.00
00615           25000.00
00616           24600.00
00617           24400.00
00618           24200.00
00619           23800.00
00620           23600.00
00621           23400.00
00622           22800.00
00623           22600.00
00624           22200.00
00625           22000.00
00626           21800.00
00627           21200.00
00628           21200.00
00629           20600.00
00630           20400.00
00631           20000.00
00632           19600.00
00633           19400.00
00634           18600.00
00635           18200.00
00636           18000.00
00637           17600.00
00638           17000.00
00639           16600.00
00640           16400.00
00641           15800.00
00642           15400.00
00643           15000.00
00644           14600.00
00645           14000.00
00646           13800.00
00647           13000.00
00648           12600.00
00649           12200.00
00650           11600.00
00651           11200.00
00652           10600.00
00653           10200.00
00654            9800.00
00655            9200.00
00656            8600.00
00657            8200.00
00658            7600.00
00659            7400.00
00660            6600.00
00661            6200.00
00662            5800.00
00663            5200.00
00664            4600.00
00665            4200.00
00666            3600.00
00667            3000.00
00668            2600.00
00669            2000.00
00670            1600.00
00671            1000.00
00672             400.00
00673            -200.00
00674            -600.00
00675           -1000.00
00676           -1400.00
00677           -2000.00
00678           -2600.00
00679           -2800.00
00680           -3400.00
00681           -3800.00
00682           -4400.00
00683           -5400.00
00684           -6000.00
00685           -6200.00
00686           -6600.00
00687           -6800.00
00688           -7600.00
00689           -8200.00
00690           -8600.00
00691           -9200.00
00692           -9600.00
00693          -10000.00
00694          -10800.00
00695          -11000.00
00696          -11600.00
00697          -12200.00
00698          -12600.00
00699          -13000.00
00700          -13400.00
00701          -14000.00
00702          -14400.00
00703          -15000.00
00704          -15400.00
00705          -15800.00
00706          -16400.00
00707          -16600.00
00708          -17200.00
00709          -17400.00
00710          -18000.00
00711          -18400.00
00712          -18800.00
00713          -19200.00
00714          -19800.00
00715          -19800.00
00716          -20400.00
00717          -20600.00
00718          -21200.00
00719          -21400.00
00720          -21800.00
00721          -22000.00
00722          -22200.00
00723          -22600.00
00724          -23000.00
00725          -23400.00
00726          -23600.00
00727          -23800.00
00728          -24000.00
00729          -24400.00
00730          -24600.00
00731          -25000.00
00732          -25000.00
00733          -25000.00
00734          -25000.00
00735          -25000.00
00736          -25000.00
00737          -25000.00
00738          -25000.00
00739          -25000.00
00740          -25000.00
00741          -25000.00
00742          -25000.00
00743          -25000.00
00744          -25000.00
00745          -25000.00
00746          -25000.00
00747          -25000.00
00748          -25000.00
00749          -25000.00
00750          -25000.00
00751          -25000.00
00752          -25000.00
00753          -25000.00
00754          -25000.00
00755          -25000.00
00756          -25000.00
00757          -25000.00
00758          -25000.00
00759          -25000.00
00760          -25000.00
00761          -25000.00
00762          -25000.00
00763          -25000.00
00764          -25000.00
00765          -25000.00
00766          -25000.00
00767          -25000.00
00768          -25000.00
00769          -25000.00
00770          -25000.00
00771          -25000.00
00772          -25000.00
00773          -25000.00
00774          -25000.00
00775          -25000.00
00776          -25000.00
00777          -25000.00
00778          -25000.00
00779          -25000.00
00780          -24800.00
00781          -24600.00
00782          -24400.00
00783          -24400.00
00784          -24000.00
00785          -23600.00
00786          -23400.00
00787          -23000.00
00788          -23000.00
00789          -22600.00
00790          -22200.00
00791          -22000.00
00792          -21400.00
00793          -21200.00
00794          -21000.00
00795          -20400.00
00796          -20200.00
00797          -19800.00
00798          -19200.00
00799          -19000.00
00800          -18600.00
00801          -18200.00
00802          -17800.00
00803          -17200.00
00804          -17000.00
00805          -16400.00
00806          -16200.00
00807          -15600.00
00808          -15200.00
00809          -14800.00
00810          -14200.00
00811          -14000.00
00812          -13400.00
00813          -13000.00
00814          -12400.00
00815          -12000.00
00816          -11600.00
00817          -11000.00
00818          -10600.00
00819          -10000.00
00820           -9600.00
00821           -9000.00
00822           -8600.00
00823           -8200.00
00824           -7600.00
00825           -7000.00
00826           -6600.00
00827           -6000.00
00828           -5400.00
00829           -5000.00
00830           -4600.00
00831           -3800.00
00832           -3600.00
00833           -3000.00
00834           -2400.00
00835           -2000.00
00836           -1400.00
00837            -800.00
00838            -400.00
00839             200.00
00840             600.00
00841            1200.00
00842            1800.00
00843            2000.00
00844            2600.00
00845            3000.00
00846            3600.00
00847            4200.00
00848            4600.00
00849            5400.00
00850            5800.00
00851            6400.00
00852            6800.00
00853            7400.00
00854            7600.00
00855            8200.00
00856            8600.00
00857            9000.00
00858            9800.00
00859           10200.00
00860           10800.00
00861           11400.00
00862           11600.00
00863           12200.00
00864           12600.00
00865           13200.00
00866           13800.00
00867           14000.00
00868           14600.00
00869           15000.00
00870           15600.00
00871           16000.00
00872           16400.00
00873           16800.00
00874           17200.00
00875           17800.00
00876           18000.00
00877           18600.00
00878           18800.00
00879           19200.00
00880           19600.00
00881           20200.00
00882           20400.00
00883           20600.00
00884           21000.00
00885           21800.00
00886           21800.00
00887           22000.00
00888           22600.00
00889           22800.00
00890           23000.00
00891           23400.00
00892           23600.00
00893           23800.00
00894           24400.00
00895           24200.00
00896           24600.00
00897           25000.00
00898           25000.00
00899           25000.00
00900           25000.00
00901           25000.00
00902           25000.00
00903           25000.00
00904           25000.00
00905           25000.00
00906           25000.00
00907           25000.00
00908           25000.00
00909           25000.00
00910           25000.00
00911           25000.00
00912           25000.00
00913           25000.00
00914           25000.00
00915           25000.00
00916           25000.00
00917           25000.00
00918           25000.00
00919           25000.00
00920           25000.00
00921           25000.00
00922           25000.00
00923           25000.00
00924           25000.00
00925           25000.00
00926           25000.00
00927           25000.00
00928           25000.00
00929           25000.00
00930           25000.00
00931           25000.00
00932           25000.00
00933           25000.00
00934           25000.00
00935           25000.00
00936           25000.00
00937           25000.00
00938           25000.00
00939           25000.00
00940           25000.00
00941           25000.00
00942           25000.00
00943           25000.00
00944           25000.00
00945           25000.00
00946           25000.00
00947           24800.00
00948           24400.00
00949           24400.00
00950           24000.00
00951           23600.00
00952           23400.00
00953           23200.00
00954           22800.00
00955           22600.00
00956           22200.00
00957           21800.00
00958           21400.00
00959           21200.00
00960           21000.00
00961           20400.00
00962           20200.00
00963           19800.00
00964           19600.00
00965           19000.00
00966           18600.00
00967           18200.00
00968           17800.00
00969           17200.00
00970           17000.00
00971           16400.00
00972           16200.00
00973           15600.00
00974           15200.00
00975           14800.00
00976           14600.00
00977           14000.00
00978           13200.00
00979           13000.00
00980           12400.00
00981           12000.00
00982           11600.00
00983           11000.00
00984           10600.00
00985           10000.00
00986            9800.00
00987            9000.00
00988            8600.00
00989            8200.00
00990            7600.00
00991            7200.00
00992            6600.00
00993            6000.00
00994            5400.00
00995            5000.00
00996            4400.00
00997            3800.00
00998            3600.00
00999            3000.00
01000            2600.00
01001            2000.00
01002            1400.00
01003            1000.00
01004             400.00
01005            -200.00
01006            -600.00
01007           -1200.00
01008           -1800.00
01009           -2200.00
01010           -2600.00
01011           -3000.00
01012           -3600.00
01013           -4200.00
01014           -4600.00
01015           -5800.00
01016           -6000.00
01017           -6600.00
01018           -6600.00
01019           -7000.00
01020           -7600.00
01021           -8400.00
01022           -8600.00
01023           -9200.00
01024           -9800.00
01025          -10200.00
01026          -10800.00
01027          -11200.00
01028          -11800.00
01029          -12400.00
01030          -12600.00
01031          -13200.00
01032          -13800.00
01033          -14200.00
01034          -14600.00
01035          -15000.00
01036          -15600.00
01037          -16000.00
01038          -16400.00
01039          -16800.00
01040          -17200.00
01041          -17400.00
01042          -18000.00
01043          -18400.00
01044          -19000.00
01045          -19400.00
01046          -19600.00
01047          -20200.00
01048          -20400.00
01049          -21000.00
01050          -21200.00
01051          -21400.00
01052          -22000.00
01053          -22200.00
01054          -22400.00
01055          -22800.00
01056          -23000.00
01057          -23400.00
01058          -23600.00
01059          -23800.00
01060          -24200.00
01061          -24400.00
01062          -24600.00
01063          -25000.00
01064          -25000.00
01065          -25000.00
01066          -25000.00
01067          -25000.00
01068          -25000.00
01069          -25000.00
01070          -25000.00
01071          -25000.00
01072          -25000.00
01073          -25000.00
01074          -25000.00
01075          -25000.00
01076          -25000.00
01077          -25000.00
01078          -25000.00
01079          -25000.00
01080          -25000.00
01081          -25000.00
01082          -25000.00
01083          -25000.00
01084          -25000.00
01085          -25000.00
01086          -25000.00
01087          -25000.00
01088          -25000.00
01089          -25000.00
01090          -25000.00
01091          -25000.00
01092          -25000.00
01093          -25000.00
01094          -25000.00
01095          -25000.00
01096          -25000.00
01097          -25000.00
01098          -25000.00
01099          -25000.00
01100          -25000.00
01101          -25000.00
01102          -25000.00
01103          -25000.00
01104          -25000.00
01105          -25000.00
01106          -25000.00
01107          -25000.00
01108          -25000.00
01109          -25000.00
01110          -25000.00
01111          -25000.00
01112          -24600.00
01113          -24600.00
01114          -24400.00
01115          -24200.00
01116          -23800.00
01117          -23600.00
01118          -23400.00
01119          -23000.00
01120          -22800.00
01121          -22200.00
01122          -22000.00
01123          -21800.00
01124          -21400.00
01125          -21200.00
01126          -20600.00
01127          -20400.00
01128          -20000.00
01129          -19800.00
01130          -19400.00
01131          -18800.00
01132          -18400.00
01133          -18200.00
01134          -17600.00
01135          -17200.00
01136          -17000.00
01137          -16400.00
01138          -16000.00
01139          -15600.00
01140          -15000.00
01141          -14800.00
01142          -14200.00
01143          -13800.00
01144          -13400.00
01145          -13000.00
01146          -12400.00
01147          -11800.00
01148          -11400.00
01149          -10800.00
01150          -10200.00
01151          -10000.00
01152           -9400.00
01153           -9000.00
01154           -8400.00
01155           -7800.00
01156           -7400.00
01157           -7000.00
01158           -6600.00
01159           -6000.00
01160           -5400.00
01161           -5000.00
01162           -4400.00
01163           -3800.00
01164           -3400.00
01165           -2800.00
01166           -2200.00
01167           -1800.00
01168           -1200.00
01169            -600.00
01170            -400.00
01171             400.00
01172             600.00
01173            1200.00
01174            1800.00
01175            2200.00
01176            2600.00
01177            3400.00
01178            3600.00
01179            4200.00
01180            4800.00
01181            5400.00
01182            6000.00
01183            6600.00
01184            6800.00
01185            7000.00
01186            7800.00
01187            8400.00
01188            8800.00
01189            9400.00
01190            9800.00
01191           10200.00
01192           10800.00
01193           11200.00
01194           11800.00
01195           12200.00
01196           13000.00
01197           13200.00
01198           13800.00
01199           14200.00
01200           14800.00
01201           15400.00
01202           15600.00
01203           16200.00
01204           16400.00
01205           17000.00
01206           17200.00
01207           17800.00
01208           18200.00
01209           18600.00
01210           18800.00
01211           19600.00
01212           19600.00
01213           20200.00
01214           20400.00
01215           21000.00
01216           21200.00
01217           21600.00
01218           21800.00
01219           22200.00
01220           22600.00
01221           22800.00
01222           23000.00
01223           23400.00
01224           23600.00
01225           24000.00
01226           24200.00
01227           24400.00
01228           24600.00
01229           25000.00
01230           25000.00
01231           25000.00
01232           25000.00
01233           25000.00
01234           25000.00
01235           25000.00
01236           25000.00
01237           25000.00
01238           25000.00
01239           25000.00
01240           25000.00
01241           25000.00
01242           25000.00
01243           25000.00
01244           25000.00
01245           25000.00
01246           25000.00
01247           25000.00
01248           25000.00
01249           25000.00
01250           25000.00
01251           25000.00
01252           25000.00
01253           25000.00
01254           25000.00
01255           25000.00
01256           25000.00
01257           25000.00
01258           25000.00
01259           25000.00
01260           25000.00
01261           25000.00
01262           25000.00
01263           25000.00
01264           25000.00
01265           25000.00
01266           25000.00
01267           25000.00
01268           25000.00
01269           25000.00
01270           25000.00
01271           25000.00
01272           25000.00
01273           25000.00
01274           25000.00
01275           25000.00
01276           25000.00
01277           25000.00
01278           25000.00
01279           24600.00
01280           24400.00
01281           24200.00
01282           24000.00
01283           23600.00
01284           23400.00
01285           23000.00
01286           22800.00
01287           22600.00
01288           22000.00
01289           21800.00
01290           21400.00
01291           21200.00
01292           20600.00
01293           20400.00
01294           20000.00
01295           19600.00
01296           19400.00
01297           18800.00
01298           18600.00
01299           18200.00
01300           17800.00
01301           17200.00
01302           16600.00
01303           16400.00
01304           16200.00
01305           15600.00
01306           15000.00
01307           14800.00
01308           14200.00
01309           13800.00
01310           13200.00
01311           13000.00
01312           12200.00
01313           11800.00
01314           11400.00
01315           10800.00
01316           10400.00
01317           10000.00
01318            9400.00
01319            9000.00
01320            8400.00
01321            8200.00
01322            7600.00
01323            6800.00
01324            6600.00
01325            5800.00
01326            5400.00
01327            4600.00
01328            4200.00
01329            3800.00
01330            3400.00
01331            2800.00
01332            2200.00
01333            1800.00
01334            1200.00
01335             800.00
01336             200.00
01337            -400.00
01338            -800.00
01339           -1200.00
01340           -1800.00
01341           -2200.00
01342           -2800.00
01343           -3200.00
01344           -3600.00
01345           -4400.00
01346           -5000.00
01347           -5800.00
01348           -6200.00
01349           -6600.00
01350           -6600.00
01351           -7200.00
01352           -7800.00
01353           -8400.00
01354           -9000.00
01355           -9400.00
01356           -9800.00
01357          -10400.00
01358          -10800.00
01359          -11400.00
01360          -12000.00
01361          -12400.00
01362          -13000.00
01363          -13400.00
01364          -14000.00
01365          -14200.00
01366          -14800.00
01367          -15000.00
01368          -15800.00
01369          -15800.00
01370          -16600.00
01371          -17000.00
01372          -17400.00
01373          -17800.00
01374          -18200.00
01375          -18600.00
01376          -19000.00
01377          -19400.00
01378          -19800.00
01379          -20200.00
01380          -20400.00
01381          -21000.00
01382          -21200.00
01383          -21600.00
01384          -22000.00
01385          -22200.00
01386          -22600.00
01387          -22800.00
01388          -23000.00
01389          -23600.00
01390          -23800.00
01391          -24200.00
01392          -24200.00
01393          -24400.00
01394          -24600.00
01395          -25000.00
01396          -25000.00
01397          -25000.00
01398          -25000.00
01399          -25000.00
01400          -25000.00
01401          -25000.00
01402          -25000.00
01403          -25000.00
01404          -25000.00
01405          -25000.00
01406          -25000.00
01407          -25000.00
01408          -25000.00
01409          -25000.00
01410          -25000.00
01411          -25000.00
01412          -25000.00
01413          -25000.00
01414          -25000.00
01415          -25000.00
01416          -25000.00
01417          -25000.00
01418          -25000.00
01419          -25000.00
01420          -25000.00
01421          -25000.00
01422          -25000.00
01423          -25000.00
01424          -25000.00
01425          -25000.00
01426          -25000.00
01427          -25000.00
01428          -25000.00
01429          -25000.00
01430          -25000.00
01431          -25000.00
01432          -25000.00
01433          -25000.00
01434          -25000.00
01435          -25000.00
01436          -25000.00
01437          -25000.00
01438          -25000.00
01439          -25000.00
01440          -25000.00
01441          -25000.00
01442          -25000.00
01443          -25000.00
01444          -25000.00
01445          -24400.00
01446          -24400.00
01447          -24200.00
01448          -23800.00
01449          -23600.00
01450          -23200.00
01451          -23000.00
01452          -22600.00
01453          -22200.00
01454          -22000.00
01455          -21800.00
01456          -21400.00
01457          -21000.00
01458          -20400.00
01459          -20200.00
01460          -19800.00
01461          -19600.00
01462          -19000.00
01463          -18600.00
01464          -18400.00
01465          -17800.00
01466          -17400.00
01467          -17200.00
01468          -16600.00
01469          -16200.00
01470          -15800.00
01471          -15400.00
01472          -15000.00
01473          -14600.00
01474          -14000.00
01475          -13600.00
01476          -13200.00
01477          -12600.00
01478          -12400.00
01479          -11800.00
01480          -11000.00
01481          -10800.00
01482          -10200.00
01483           -9800.00
01484           -9200.00
01485           -8800.00
01486           -8400.00
01487           -7800.00
01488           -7400.00
01489           -6800.00
01490           -6200.00
01491           -5800.00
01492           -5200.00
01493           -4600.00
01494           -4200.00
01495           -3800.00
01496           -3000.00
01497           -2800.00
01498           -2200.00
01499           -1800.00
01500           -1200.00
01501            -600.00
01502            -200.00
01503             600.00
01504            1000.00
01505            1400.00
01506            2000.00
01507            2200.00
01508            2800.00
01509            3400.00
01510            3800.00
01511            4400.00
01512            5200.00
01513            5800.00
01514            6200.00
01515            6800.00
01516            7000.00
01517            7600.00
01518            8200.00
01519            8400.00
01520            9000.00
01521            9800.00
01522           10000.00
01523           10600.00
01524           11000.00
01525           11600.00
01526           11800.00
01527           12400.00
01528           13000.00
01529           13400.00
01530           14000.00
01531           14200.00
01532           14800.00
01533           15400.00
01534           15600.00
01535           16200.00
01536           16600.00
01537           17000.00
01538           17400.00
01539           18000.00
01540           18200.00
01541           18600.00
01542           19000.00
01543           19600.00
01544           19800.00
01545           20400.00
01546           20600.00
01547           21000.00
01548           21400.00
01549           21800.00
01550           21800.00
01551           22000.00
01552           22600.00
01553           22800.00
01554           23400.00
01555           23400.00
01556           23600.00
01557           23800.00
01558           24400.00
01559           24400.00
01560           24600.00
01561           25000.00
01562           25000.00
01563           25000.00
01564           25000.00
01565           25000.00
01566           25000.00
01567           25000.00
01568           25000.00
01569           25000.00
01570           25000.00
01571           25000.00
01572           25000.00
01573           25000.00
01574           25000.00
01575           25000.00
01576           25000.00
01577           25000.00
01578           25000.00
01579           25000.00
01580           25000.00
01581           25000.00
01582           25000.00
01583           25000.00
01584           25000.00
01585           25000.00
01586           25000.00
01587           25000.00
01588           25000.00
01589           25000.00
01590           25000.00
01591           25000.00
01592           25000.00
01593           25000.00
01594           25000.00
01595           25000.00
01596           25000.00
01597           25000.00
01598           25000.00
01599           25000.00
01600           25000.00
01601           25000.00
01602           25000.00
01603           25000.00
01604           25000.00
01605           25000.00
01606           25000.00
01607           25000.00
01608           25000.00
01609           25000.00
01610           25000.00
01611           24600.00
01612           24400.00
01613           24200.00
01614           23800.00
01615           23600.00
01616           23400.00
01617           23000.00
01618           22600.00
01619           22400.00
01620           22000.00
01621           21800.00
01622           21400.00
01623           21000.00
01624           20400.00
01625           20200.00
01626           19800.00
01627           19600.00
01628           19000.00
01629           18800.00
01630           18200.00
01631           18000.00
01632           17400.00
01633           17200.00
01634           16600.00
01635           16400.00
01636           15800.00
01637           15400.00
01638           15000.00
01639           14600.00
01640           14200.00
01641           13600.00
01642           13200.00
01643           12600.00
01644           12200.00
01645           11800.00
01646           11400.00
01647           10800.00
01648           10200.00
01649            9800.00
01650            9400.00
01651            8600.00
01652            8200.00
01653            7800.00
01654            7400.00
01655            6800.00
01656            6200.00
01657            5800.00
01658            5200.00
01659            4600.00
01660            4200.00
01661            3600.00
01662            3400.00
01663            2600.00
01664            2000.00
01665            1800.00
01666            1200.00
01667             600.00
01668               0.00
01669            -600.00
01670           -1000.00
01671           -1400.00
01672           -2000.00
01673           -2600.00
01674           -3000.00
01675           -3200.00
01676           -3800.00
01677           -4400.00
01678           -5200.00
01679           -6000.00
01680           -6200.00
01681           -6800.00
01682           -6800.00
01683           -7400.00
01684           -8200.00
01685           -8600.00
01686           -9200.00
01687           -9600.00
01688          -10000.00
01689          -10600.00
01690          -11000.00
01691          -11600.00
01692          -12200.00
01693          -12600.00
01694          -13200.00
01695          -13400.00
01696          -14000.00
01697          -14200.00
01698          -14800.00
01699          -15600.00
01700          -15600.00
01701          -16200.00
01702          -16600.00
01703          -17200.00
01704          -17400.00
01705          -18000.00
01706          -18200.00
01707          -18800.00
01708          -19000.00
01709          -19600.00
01710          -19800.00
01711          -20200.00
01712          -20600.00
01713          -21000.00
01714          -21400.00
01715          -21800.00
01716          -22000.00
01717          -22200.00
01718          -22600.00
01719          -22800.00
01720          -23200.00
01721          -23600.00
01722          -23600.00
01723          -24000.00
01724          -24400.00
01725          -24600.00
01726          -24800.00
01727          -25000.00
01728          -25000.00
01729          -25000.00
01730          -25000.00
01731          -25000.00
01732          -25000.00
01733          -25000.00
01734          -25000.00
01735          -25000.00
01736          -25000.00
01737          -25000.00
01738          -25000.00
01739          -25000.00
01740          -25000.00
01741          -25000.00
01742          -25000.00
01743          -25000.00
01744          -25000.00
01745          -25000.00
01746          -25000.00
01747          -25000.00
01748          -25000.00
01749          -25000.00
01750          -25000.00
01751          -25000.00
01752          -25000.00
01753          -25000.00
01754          -25000.00
01755          -25000.00
01756          -25000.00
01757          -25000.00
01758          -25000.00
01759          -25000.00
01760          -25000.00
01761          -25000.00
01762          -25000.00
01763          -25000.00
01764          -25000.00
01765          -25000.00
01766          -25000.00
01767          -25000.00
01768          -25000.00
01769          -25000.00
01770          -25000.00
01771          -25000.00
01772          -25000.00
01773          -25000.00
01774          -25000.00
01775          -25000.00
01776          -24600.00
01777          -24600.00
01778          -24200.00
01779          -24200.00
01780          -23800.00
01781          -23400.00
01782          -23200.00
01783          -22800.00
01784          -22600.00
01785          -22000.00
01786          -22000.00
01787          -21400.00
01788          -21200.00
01789          -20800.00
01790          -20400.00
01791          -20200.00
01792          -19800.00
01793          -19400.00
01794          -19000.00
01795          -18600.00
01796          -18200.00
01797          -17800.00
01798          -17400.00
01799          -17200.00
01800          -16600.00
01801          -16200.00
01802          -15600.00
01803          -15200.00
01804          -15000.00
01805          -14400.00
01806          -14000.00
01807          -13400.00
01808          -13000.00
01809          -12600.00
01810          -12200.00
01811          -11600.00
01812          -11000.00
01813          -10600.00
01814          -10200.00
01815           -9800.00
01816           -9200.00
01817           -8600.00
01818           -8400.00
01819           -7600.00
01820           -7200.00
01821           -6600.00
01822           -6200.00
01823           -5600.00
01824           -5200.00
01825           -4600.00
01826           -4200.00
01827           -3600.00
01828           -3000.00
01829           -2200.00
01830           -2000.00
01831           -1600.00
01832           -1000.00
01833            -400.00
01834             200.00
01835             600.00
01836            1200.00
01837            1600.00
01838            2000.00
01839            2600.00
01840            3000.00
01841            3600.00
01842            4000.00
01843            4600.00
01844            5200.00
01845            5800.00
01846            6600.00
01847            6800.00
01848            7400.00
01849            7600.00
01850            8200.00
01851            8400.00
01852            9200.00
01853            9800.00
01854           10200.00
01855           10600.00
01856           11000.00
01857           11600.00
01858           12200.00
01859           12600.00
01860           13200.00
01861           13600.00
01862           14000.00
01863           14400.00
01864           14800.00
01865           15400.00
01866           15800.00
01867           16200.00
01868           16600.00
01869           17000.00
01870           17400.00
01871           18000.00
01872           18600.00
01873           18800.00
01874           19000.00
01875           19600.00
01876           20000.00
01877           20200.00
01878           20600.00
01879           21000.00
01880           21200.00
01881           21800.00
01882           21800.00
01883           22200.00
01884           22800.00
01885           22800.00
01886           23400.00
01887           23400.00
01888           23800.00
01889           24200.00
01890           24200.00
01891           24400.00
01892           24800.00
01893           25000.00
01894           25000.00
01895           25000.00
01896           25000.00
01897           25000.00
01898           25000.00
01899           25000.00
01900           25000.00
01901           25000.00
01902           25000.00
01903           25000.00
01904           25000.00
01905           25000.00
01906           25000.00
01907           25000.00
01908           25000.00
01909           25000.00
01910           25000.00
01911           25000.00
01912           25000.00
01913           25000.00
01914           25000.00
01915           25000.00
01916           25000.00
01917           25000.00
01918           25000.00
01919           25000.00
01920           25000.00
01921           25000.00
01922           25000.00
01923           25000.00
01924           25000.00
01925           25000.00
01926           25000.00
01927           25000.00
01928           25000.00
01929           25000.00
01930           25000.00
01931           25000.00
01932           25000.00
01933           25000.00
01934           25000.00
01935           25000.00
01936           25000.00
01937           25000.00
01938           25000.00
01939           25000.00
01940           25000.00
01941           25000.00
01942           24600.00
01943           24400.00
01944           24200.00
01945           24000.00
01946           23600.00
01947           23400.00
01948           23000.00
01949           22800.00
01950           22600.00
01951           22200.00
01952           22000.00
01953           21800.00
01954           21200.00
01955           21000.00
01956           20400.00
01957           20200.00
01958           19800.00
01959           19400.00
01960           19000.00
01961           18600.00
01962           18200.00
01963           17800.00
01964           17400.00
01965           17000.00
01966           16400.00
01967           16200.00
01968           15600.00
01969           15400.00
01970           14800.00
01971           14400.00
01972           14000.00
01973           13600.00
01974           13200.00
01975           12600.00
01976           12200.00
01977           11600.00
01978           11000.00
01979           10600.00
01980           10200.00
01981            9800.00
01982            9200.00
01983            8600.00
01984            8200.00
01985            7800.00
01986            7000.00
01987            6600.00
01988            6000.00
01989            5800.00
01990            5200.00
01991            4600.00
01992            4200.00
01993            3600.00
01994            3000.00
01995            2600.00
01996            2000.00
01997            1400.00
01998            1000.00
01999             400.00
02000             200.00
02001            -600.00
02002           -1000.00
02003           -1600.00
02004           -2000.00
02005           -2600.00
02006           -3000.00
02007           -3600.00
02008           -4200.00
02009           -4600.00
02010           -5400.00
02011           -6000.00
02012           -6400.00
02013           -6800.00
02014           -7000.00
02015           -7600.00
02016           -8400.00
02017           -8600.00
02018           -9200.00
02019           -9600.00
02020          -10200.00
02021          -10800.00
02022          -11000.00
02023          -11800.00
02024          -12200.00
02025          -12600.00
02026          -13200.00
02027          -13400.00
02028          -14000.00
02029          -14600.00
02030          -15000.00
02031          -15600.00
02032          -15800.00
02033          -16400.00
02034          -16600.00
02035          -17200.00
02036          -17400.00
02037          -18200.00
02038          -18400.00
02039          -18800.00
02040          -19400.00
02041          -19600.00
02042          -19800.00
02043          -20400.00
02044          -20600.00
02045          -21000.00
02046          -21400.00
02047          -21800.00
02048          -22000.00
02049          -22200.00
02050          -22800.00
02051          -22800.00
02052          -23400.00
02053          -23600.00
02054          -23800.00
02055          -24000.00
02056          -24400.00
02057          -24600.00
02058          -25000.00
02059          -25000.00
02060          -25000.00
02061          -25000.00
02062          -25000.00
02063          -25000.00
02064          -25000.00
02065          -25000.00
02066          -25000.00
02067          -25000.00
02068          -25000.00
02069          -25000.00
02070          -25000.00
02071          -25000.00
02072          -25000.00
02073          -25000.00
02074          -25000.00
02075          -25000.00
02076          -25000.00
02077          -25000.00
02078          -25000.00
02079          -25000.00
02080          -25000.00
02081          -25000.00
02082          -25000.00
02083          -25000.00
02084          -25000.00
02085          -25000.00
02086          -25000.00
02087          -25000.00
02088          -25000.00
02089          -25000.00
02090          -25000.00
02091          -25000.00
02092          -25000.00
02093          -25000.00
02094          -25000.00
02095          -25000.00
02096          -25000.00
02097          -25000.00
02098          -25000.00
02099          -25000.00
02100          -25000.00
02101          -25000.00
02102          -25000.00
02103          -25000.00
02104          -25000.00
02105          -25000.00
02106          -25000.00
02107          -25000.00
02108          -24600.00
02109          -24400.00
02110          -24200.00
02111          -23800.00
02112          -23600.00
02113          -23400.00
02114          -23000.00
02115          -22800.00
02116          -22200.00
02117          -22200.00
02118          -21800.00
02119          -21400.00
02120          -21000.00
02121          -20600.00
02122          -20400.00
02123          -20000.00
02124          -19800.00
02125          -19400.00
02126          -18800.00
02127          -18600.00
02128          -18000.00
02129          -17800.00
02130          -17200.00
02131          -16600.00
02132          -16600.00
02133          -15800.00
02134          -15600.00
02135          -15000.00
02136          -14800.00
02137          -14200.00
02138          -14000.00
02139          -13400.00
02140          -13000.00
02141          -12400.00
02142          -11800.00
02143          -11600.00
02144          -10800.00
02145          -10600.00
02146          -10000.00
02147           -9400.00
02148           -9000.00
02149           -8600.00
02150           -7800.00
02151           -7400.00
02152           -7000.00
02153           -6600.00
02154           -6000.00
02155           -5400.00
02156           -5000.00
02157           -4400.00
02158           -4000.00
02159           -3600.00
02160           -2800.00
02161           -2200.00
02162           -1800.00
02163           -1200.00
02164            -600.00
02165            -400.00
02166             400.00
02167             600.00
02168            1200.00
02169            1800.00
02170            2200.00
02171            2600.00
02172            3200.00
02173            3600.00
02174            4200.00
02175            5000.00
02176            5400.00
02177            6000.00
02178            6600.00
02179            6800.00
02180            7400.00
02181            7800.00
02182            8400.00
02183            8800.00
02184            9200.00
02185            9800.00
02186           10200.00
02187           10800.00
02188           11000.00
02189           11800.00
02190           12200.00
02191           13000.00
02192           13400.00
02193           13800.00
02194           14000.00
02195           14600.00
02196           15000.00
02197           15400.00
02198           16200.00
02199           16400.00
02200           16800.00
02201           17400.00
02202           17600.00
02203           18000.00
02204           18600.00
02205           18800.00
02206           19400.00
02207           19600.00
02208           20000.00
02209           20400.00
02210           20800.00
02211           21200.00
02212           21400.00
02213           21800.00
02214           22000.00
02215           22600.00
02216           22800.00
02217           23000.00
02218           23400.00
02219           23600.00
02220           23800.00
02221           24200.00
02222           24400.00
02223           24600.00
02224           24800.00
02225           25000.00
02226           25000.00
02227           25000.00
02228           25000.00
02229           25000.00
02230           25000.00
02231           25000.00
02232           25000.00
02233           25000.00
02234           25000.00
02235           25000.00
02236           25000.00
02237           25000.00
02238           25000.00
02239           25000.00
02240           25000.00
02241           25000.00
02242           25000.00
02243           25000.00
02244           25000.00
02245           25000.00
02246           25000.00
02247           25000.00
02248           25000.00
02249           25000.00
02250           25000.00
02251           25000.00
02252           25000.00
02253           25000.00
02254           25000.00
02255           25000.00
02256           25000.00
02257           25000.00
02258           25000.00
02259           25000.00
02260           25000.00
02261           25000.00
02262           25000.00
02263           25000.00
02264           25000.00
02265           25000.00
02266           25000.00
02267           25000.00
02268           25000.00
02269           25000.00
02270           25000.00
02271           25000.00
02272           25000.00
02273           25000.00
02274           24400.00
02275           24400.00
02276           24200.00
02277           23800.00
02278           23600.00
02279           23400.00
02280           23000.00
02281           22800.00
02282           22600.00
02283           22000.00
02284           21800.00
02285           21400.00
02286           21000.00
02287           20600.00
02288           20400.00
02289           20200.00
02290           19600.00
02291           19400.00
02292           19000.00
02293           18600.00
02294           18000.00
02295           17800.00
02296           17400.00
02297           17000.00
02298           16400.00
02299           16200.00
02300           15600.00
02301           15200.00
02302           14800.00
02303           14400.00
02304           14000.00
02305           13400.00
02306           13000.00
02307           12400.00
02308           12200.00
02309           11400.00
02310           11000.00
02311           10600.00
02312           10000.00
02313            9800.00
02314            9000.00
02315            8600.00
02316            8200.00
02317            7400.00
02318            7000.00
02319            6600.00
02320            6000.00
02321            5400.00
02322            5000.00
02323            4400.00
02324            3800.00
02325            3400.00
02326            2800.00
02327            2200.00
02328            2000.00
02329            1200.00
02330            1000.00
02331             200.00
02332            -200.00
02333           -1000.00
02334           -1200.00
02335           -1800.00
02336           -2200.00
02337           -2800.00
02338           -3400.00
02339           -3600.00
02340           -4200.00
02341           -5000.00
02342           -5800.00
02343           -6200.00
02344           -6600.00
02345           -6800.00
02346           -7000.00
02347           -7800.00
02348           -8400.00
02349           -8800.00
02350           -9400.00
02351           -9800.00
02352          -10400.00
02353          -10800.00
02354          -11400.00
02355          -11800.00
02356          -12400.00
02357          -13000.00
02358          -13400.00
02359          -13800.00
02360          -14200.00
02361          -14600.00
02362          -15000.00
02363          -15600.00
02364          -15800.00
02365          -16400.00
02366          -16800.00
02367          -17400.00
02368          -17600.00
02369          -18200.00
02370          -18600.00
02371          -18800.00
02372          -19000.00
02373          -19800.00
02374          -20200.00
02375          -20400.00
02376          -20600.00
02377          -21200.00
02378          -21400.00
02379          -21800.00
02380          -22000.00
02381          -22200.00
02382          -22800.00
02383          -23000.00
02384          -23400.00
02385          -23600.00
02386          -23800.00
02387          -24200.00
02388          -24400.00
02389          -24600.00
02390          -25000.00
02391          -25000.00
02392          -25000.00
02393          -25000.00
02394          -25000.00
02395          -25000.00
02396          -25000.00
02397          -25000.00
02398          -25000.00
02399          -25000.00
02400          -25000.00
02401          -25000.00
02402          -25000.00
02403          -25000.00
02404          -25000.00
02405          -25000.00
02406          -25000.00
02407          -25000.00
02408          -25000.00
02409          -25000.00
02410          -25000.00
02411          -25000.00
02412          -25000.00
02413          -25000.00
02414          -25000.00
02415          -25000.00
02416          -25000.00
02417          -25000.00
02418          -25000.00
02419          -25000.00
02420          -25000.00
02421          -25000.00
02422          -25000.00
02423          -25000.00
02424          -25000.00
02425          -25000.00
02426          -25000.00
02427          -25000.00
02428          -25000.00
02429          -25000.00
02430          -25000.00
02431          -25000.00
02432          -25000.00
02433          -25000.00
02434          -25000.00
02435          -25000.00
02436          -25000.00
02437          -25000.00
02438          -25000.00
02439          -24600.00
02440          -24600.00
02441          -24400.00
02442          -24200.00
02443          -23800.00
02444          -23600.00
02445          -23400.00
02446          -23000.00
02447          -22600.00
02448          -22200.00
02449          -22000.00
02450          -21800.00
02451          -21400.00
02452          -21000.00
02453          -20600.00
02454          -20400.00
02455          -19800.00
02456          -19600.00
02457          -19000.00
02458          -18800.00
02459          -18600.00
02460          -18000.00
02461          -17600.00
02462          -17200.00
02463          -16800.00
02464          -16400.00
02465          -16000.00
02466          -15600.00
02467          -15000.00
02468          -14800.00
02469          -14200.00
02470          -13600.00
02471          -13400.00
02472          -12600.00
02473          -12400.00
02474          -11800.00
02475          -11400.00
02476          -11000.00
02477          -10400.00
02478          -10000.00
02479           -9400.00
02480           -9000.00
02481           -8400.00
02482           -7800.00
02483           -7400.00
02484           -6800.00
02485           -6200.00
02486           -6000.00
02487           -5400.00
02488           -4600.00
02489           -4400.00
02490           -3800.00
02491           -3400.00
02492           -2800.00
02493           -2000.00
02494           -1600.00
02495           -1000.00
02496            -600.00
02497            -200.00
02498             400.00
02499            1000.00
02500            1400.00
02501            1800.00
02502            2600.00
02503            3000.00
02504            3400.00
02505            3800.00
02506            4400.00
02507            5000.00
02508            5800.00
02509            6000.00
02510            6600.00
02511            7000.00
02512            7400.00
02513            8200.00
02514            8400.00
02515            9000.00
02516            9400.00
02517           10000.00
02518           10600.00
02519           10800.00
02520           11400.00
02521           11800.00
02522           12400.00
02523           13000.00
02524           13200.00
02525           13800.00
02526           14200.00
02527           14800.00
02528           15200.00
02529           15600.00
02530           16000.00
02531           16400.00
02532           17000.00
02533           17200.00
02534           17800.00
02535           18200.00
02536           18600.00
02537           19000.00
02538           19400.00
02539           19600.00
02540           20200.00
02541           20400.00
02542           21000.00
02543           21200.00
02544           21800.00
02545           21800.00
02546           22200.00
02547           22600.00
02548           22800.00
02549           23000.00
02550           23400.00
02551           23600.00
02552           24000.00
02553           24400.00
02554           24400.00
02555           24800.00
02556           25000.00
02557           25000.00
02558           25000.00
02559           25000.00
02560           25000.00
02561           25000.00
02562           25000.00
02563           25000.00
02564           25000.00
02565           25000.00
02566           25000.00
02567           25000.00
02568           25000.00
02569           25000.00
02570           25000.00
02571           25000.00
02572           25000.00
02573           25000.00
02574           25000.00
02575           25000.00
02576           25000.00
02577           25000.00
02578           25000.00
02579           25000.00
02580           25000.00
02581           25000.00
02582           25000.00
02583           25000.00
02584           25000.00
02585           25000.00
02586           25000.00
02587           25000.00
02588           25000.00
02589           25000.00
02590           25000.00
02591           25000.00
02592           25000.00
02593           25000.00
02594           25000.00
02595           25000.00
02596           25000.00
02597           25000.00
02598           25000.00
02599           25000.00
02600           25000.00
02601           25000.00
02602           25000.00
02603           25000.00
02604           25000.00
02605           25000.00
02606           24600.00
02607           24200.00
02608           24200.00
02609           23800.00
02610           23400.00
02611           23200.00
02612           22800.00
02613           22800.00
02614           22200.00
02615           22000.00
02616           21600.00
02617           21400.00
02618           21000.00
02619           20600.00
02620           20400.00
02621           20000.00
02622           19600.00
02623           19400.00
02624           19000.00
02625           18600.00
02626           18200.00
02627           17400.00
02628           17200.00
02629           16600.00
02630           16400.00
02631           16000.00
02632           15400.00
02633           15000.00
02634           14800.00
02635           14200.00
02636           13800.00
02637           13200.00
02638           12800.00
02639           12400.00
02640           11800.00
02641           11400.00
02642           10800.00
02643           10600.00
02644           10000.00
02645            9400.00
02646            9000.00
02647            8400.00
02648            8000.00
02649            7400.00
02650            6800.00
02651            6200.00
02652            5800.00
02653            5400.00
02654            4800.00
02655            4200.00
02656            3600.00
02657            3200.00
02658            2600.00
02659            2000.00
02660            1800.00
02661            1000.00
02662             600.00
02663             200.00
02664            -400.00
02665           -1000.00
02666           -1400.00
02667           -2000.00
02668           -2400.00
02669           -2800.00
02670           -3000.00
02671           -3800.00
02672           -4400.00
02673           -5400.00
02674           -6000.00
02675           -6200.00
02676           -6600.00
02677           -7000.00
02678           -7400.00
02679           -8200.00
02680           -8400.00
02681           -9000.00
02682           -9400.00
02683          -10000.00
02684          -10600.00
02685          -11000.00
02686          -11400.00
02687          -12000.00
02688          -12400.00
02689          -13000.00
02690          -13400.00
02691          -13800.00
02692          -14400.00
02693          -14800.00
02694          -15200.00
02695          -15600.00
02696          -16000.00
02697          -16400.00
02698          -17000.00
02699          -17200.00
02700          -17800.00
02701          -18200.00
02702          -18600.00
02703          -19000.00
02704          -19400.00
02705          -19800.00
02706          -20200.00
02707          -20400.00
02708          -21000.00
02709          -21400.00
02710          -21400.00
02711          -21800.00
02712          -22200.00
02713          -22600.00
02714          -22800.00
02715          -23000.00
02716          -23400.00
02717          -23600.00
02718          -23800.00
02719          -24400.00
02720          -24400.00
02721          -24600.00
02722          -25000.00
02723          -25000.00
02724          -25000.00
02725          -25000.00
02726          -25000.00
02727          -25000.00
02728          -25000.00
02729          -25000.00
02730          -25000.00
02731          -25000.00
02732          -25000.00
02733          -25000.00
02734          -25000.00
02735          -25000.00
02736          -25000.00
02737          -25000.00
02738          -25000.00
02739          -25000.00
02740          -25000.00
02741          -25000.00
02742          -25000.00
02743          -25000.00
02744          -25000.00
02745          -25000.00
02746          -25000.00
02747          -25000.00
02748          -25000.00
02749          -25000.00
02750          -25000.00
02751          -25000.00
02752          -25000.00
02753          -25000.00
02754          -25000.00
02755          -25000.00
02756          -25000.00
02757          -25000.00
02758          -25000.00
02759          -25000.00
02760          -25000.00
02761          -25000.00
02762          -25000.00
02763          -25000.00
02764          -25000.00
02765          -25000.00
02766          -25000.00
02767          -25000.00
02768          -25000.00
02769          -25000.00
02770          -24800.00
02771          -24600.00
02772          -24600.00
02773          -24200.00
02774          -23800.00
02775          -23600.00
02776          -23400.00
02777          -23200.00
02778          -22800.00
02779          -22600.00
02780          -22200.00
02781          -22000.00
02782          -21400.00
02783          -21200.00
02784          -21000.00
02785          -20600.00
02786          -20200.00
02787          -19800.00
02788          -19600.00
02789          -19000.00
02790          -18800.00
02791          -18600.00
02792          -18000.00
02793          -17400.00
02794          -17200.00
02795          -16600.00
02796          -16400.00
02797          -15800.00
02798          -15400.00
02799          -15000.00
02800          -14600.00
02801          -14000.00
02802          -13400.00
02803          -13200.00
02804          -12600.00
02805          -12200.00
02806          -11600.00
02807          -11200.00
02808          -10800.00
02809          -10200.00
02810           -9800.00
02811           -9200.00
02812           -8800.00
02813           -8200.00
02814           -7600.00
02815           -7000.00
02816           -6800.00
02817           -6200.00
02818           -5800.00
02819           -5200.00
02820           -4600.00
02821           -4200.00
02822           -3600.00
02823           -3000.00
02824           -2600.00
02825           -2000.00
02826           -1400.00
02827           -1000.00
02828            -400.00
02829             200.00
02830             600.00
02831            1200.00
02832            1600.00
02833            2000.00
02834            2600.00
02835            3000.00
02836            3600.00
02837            4000.00
02838            4600.00
02839            5200.00
02840            5800.00
02841            6200.00
02842            6800.00
02843            7200.00
02844            7600.00
02845            8200.00
02846            8600.00
02847            9000.00
02848            9600.00
02849           10000.00
02850           10600.00
02851           11000.00
02852           11400.00
02853           12200.00
02854           12400.00
02855           13000.00
02856           13400.00
02857           13800.00
02858           14600.00
02859           15000.00
02860           15400.00
02861           15600.00
02862           16200.00
02863           16400.00
02864           17000.00
02865           17200.00
02866           17800.00
02867           18200.00
02868           18600.00
02869           19200.00
02870           19400.00
02871           19800.00
02872           20400.00
02873           20600.00
02874           21000.00
02875           21200.00
02876           21800.00
02877           21800.00
02878           22400.00
02879           22600.00
02880           22800.00
02881           23400.00
02882           23600.00
02883           23800.00
02884           24200.00
02885           24400.00
02886           24600.00
02887           25000.00
02888           25000.00
02889           25000.00
02890           25000.00
02891           25000.00
02892           25000.00
02893           25000.00
02894           25000.00
02895           25000.00
02896           25000.00
02897           25000.00
02898           25000.00
02899           25000.00
02900           25000.00
02901           25000.00
02902           25000.00
02903           25000.00
02904           25000.00
02905           25000.00
02906           25000.00
02907           25000.00
02908           25000.00
02909           25000.00
02910           25000.00
02911           25000.00
02912           25000.00
02913           25000.00
02914           25000.00
02915           25000.00
02916           25000.00
02917           25000.00
02918           25000.00
02919           25000.00
02920           25000.00
02921           25000.00
02922           25000.00
02923           25000.00
02924           25000.00
02925           25000.00
02926           25000.00
02927           25000.00
02928           25000.00
02929           25000.00
02930           25000.00
02931           25000.00
02932           25000.00
02933           25000.00
02934           25000.00
02935           25000.00
02936           25000.00
02937           24600.00
02938           24400.00
02939           24200.00
02940           24200.00
02941           23600.00
02942           23400.00
02943           23200.00
02944           22800.00
02945           22600.00
02946           22200.00
02947           22000.00
02948           21800.00
02949           21400.00
02950           21000.00
02951           20600.00
02952           20200.00
02953           19800.00
02954           19400.00
02955           19000.00
02956           18800.00
02957           18400.00
02958           18000.00
02959           17400.00
02960           17200.00
02961           16800.00
02962           16200.00
02963           15800.00
02964           15400.00
02965           15000.00
02966           14600.00
02967           14200.00
02968           13800.00
02969           13200.00
02970           12600.00
02971           12200.00
02972           11600.00
02973           11000.00
02974           10600.00
02975           10200.00
02976            9800.00
02977            9400.00
02978            8800.00
02979            8200.00
02980            7800.00
02981            7000.00
02982            6800.00
02983            6200.00
02984            5800.00
02985            5200.00
02986            4600.00
02987            4200.00
02988            3600.00
02989            3000.00
02990            2600.00
02991            2000.00
02992            1400.00
02993            1000.00
02994             400.00
02995               0.00
02996            -600.00
02997           -1000.00
02998           -1400.00
02999           -2000.00
03000           -2600.00
03001           -3000.00
03002           -3400.00
03003           -3800.00
03004           -4600.00
03005           -5400.00
03006           -6000.00
03007           -6400.00
03008           -6800.00
03009           -7000.00
03010           -7600.00
03011           -8200.00
03012           -8600.00
03013           -9200.00
03014           -9400.00
03015          -10000.00
03016          -10800.00
03017          -11000.00
03018          -11600.00
03019          -12000.00
03020          -12400.00
03021          -13200.00
03022          -13400.00
03023          -14000.00
03024          -14600.00
03025          -14800.00
03026          -15400.00
03027          -15600.00
03028          -16200.00
03029          -16600.00
03030          -17000.00
03031          -17400.00
03032          -17800.00
03033          -18200.00
03034          -18800.00
03035          -19000.00
03036          -19600.00
03037          -19800.00
03038          -20200.00
03039          -20600.00
03040          -21000.00
03041          -21400.00
03042          -21600.00
03043          -22000.00
03044          -22200.00
03045          -22800.00
03046          -23000.00
03047          -23000.00
03048          -23600.00
03049          -23800.00
03050          -24200.00
03051          -24400.00
03052          -24600.00
03053          -25000.00
03054          -25000.00
03055          -25000.00
03056          -25000.00
03057          -25000.00
03058          -25000.00
03059          -25000.00
03060          -25000.00
03061          -25000.00
03062          -25000.00
03063          -25000.00
03064          -25000.00
03065          -25000.00
03066          -25000.00
03067          -25000.00
03068          -25000.00
03069          -25000.00
03070          -25000.00
03071          -25000.00
03072          -25000.00
03073          -25000.00
03074          -25000.00
03075          -25000.00
03076          -25000.00
03077          -25000.00
03078          -25000.00
03079          -25000.00
03080          -25000.00
03081          -25000.00
03082          -25000.00
03083          -25000.00
03084          -25000.00
03085          -25000.00
03086          -25000.00
03087          -25000.00
03088          -25000.00
03089          -25000.00
03090          -25000.00
03091          -25000.00
03092          -25000.00
03093          -25000.00
03094          -25000.00
03095          -25000.00
03096          -25000.00
03097          -25000.00
03098          -25000.00
03099          -25000.00
03100          -25000.00
03101          -25000.00
03102          -24800.00
03103          -24600.00
03104          -24400.00
03105          -24400.00
03106          -23800.00
03107          -23600.00
03108          -23400.00
03109          -23000.00
03110          -22800.00
03111          -22600.00
03112          -22200.00
03113          -22000.00
03114          -21400.00
03115          -21200.00
03116          -21000.00
03117          -20400.00
03118          -20400.00
03119          -19800.00
03120          -19400.00
03121          -19000.00
03122          -18600.00
03123          -18200.00
03124          -17800.00
03125          -17400.00
03126          -17200.00
03127          -16600.00
03128          -16200.00
03129          -15800.00
03130          -15200.00
03131          -14800.00
03132          -14400.00
03133          -14000.00
03134          -13400.00
03135          -13200.00
03136          -12400.00
03137          -12200.00
03138          -11600.00
03139          -11000.00
03140          -10600.00
03141          -10200.00
03142           -9600.00
03143           -9200.00
03144           -8600.00
03145           -8000.00
03146           -7600.00
03147           -7000.00
03148           -6600.00
03149           -6000.00
03150           -5400.00
03151           -5000.00
03152           -4400.00
03153           -3800.00
03154           -3400.00
03155           -2800.00
03156           -2200.00
03157           -1800.00
03158           -1200.00
03159            -600.00
03160            -200.00
03161             400.00
03162             600.00
03163            1200.00
03164            1800.00
03165            2200.00
03166            2800.00
03167            3200.00
03168            3600.00
03169            4200.00
03170            4600.00
03171            5400.00
03172            6000.00
03173            6400.00
03174            6800.00
03175            7400.00
03176            7800.00
03177            8200.00
03178            8600.00
03179            9200.00
03180            9800.00
03181           10200.00
03182           10600.00
03183           11000.00
03184           11600.00
03185           12200.00
03186           12600.00
03187           13200.00
03188           13400.00
03189           14000.00
03190           14600.00
03191           14800.00
03192           15400.00
03193           15800.00
03194           16200.00
03195           16600.00
03196           17000.00
03197           17400.00
03198           18000.00
03199           18600.00
03200           18800.00
03201           19200.00
03202           19600.00
03203           19800.00
03204           20400.00
03205           21000.00
03206           21200.00
03207           21400.00
03208           21800.00
03209           22000.00
03210           22400.00
03211           22800.00
03212           23000.00
03213           23400.00
03214           23600.00
03215           23800.00
03216           24200.00
03217           24400.00
03218           24600.00
03219           25000.00
03220           25000.00
03221           25000.00
03222           25000.00
03223           25000.00
03224           25000.00
03225           25000.00
03226           25000.00
03227           25000.00
03228           25000.00
03229           25000.00
03230           25000.00
03231           25000.00
03232           25000.00
03233           25000.00
03234           25000.00
03235           25000.00
03236           25000.00
03237           25000.00
03238           25000.00
03239           25000.00
03240           25000.00
03241           25000.00
03242           25000.00
03243           25000.00
03244           25000.00
03245           25000.00
03246           25000.00
03247           25000.00
03248           25000.00
03249           25000.00
03250           25000.00
03251           25000.00
03252           25000.00
03253           25000.00
03254           25000.00
03255           25000.00
03256           25000.00
03257           25000.00
03258           25000.00
03259           25000.00
03260           25000.00
03261           25000.00
03262           25000.00
03263           25000.00
03264           25000.00
03265           25000.00
03266           25000.00
03267           25000.00
03268           25000.00
03269           24600.00
03270           24400.00
03271           24200.00
03272           23800.00
03273           23600.00
03274           23400.00
03275           23000.00
03276           22800.00
03277           22600.00
03278           22200.00
03279           21800.00
03280           21400.00
03281           21200.00
03282           21000.00
03283           20400.00
03284           20200.00
03285           19600.00
03286           19400.00
03287           19000.00
03288           18600.00
03289           18200.00
03290           17800.00
03291           17400.00
03292           17000.00
03293           16400.00
03294           16200.00
03295           15600.00
03296           15200.00
03297           15000.00
03298           14200.00
03299           14000.00
03300           13400.00
03301           13000.00
03302           12400.00
03303           12200.00
03304           11600.00
03305           11000.00
03306           10600.00
03307           10000.00
03308            9600.00
03309            9000.00
03310            8400.00
03311            8000.00
03312            7600.00
03313            7000.00
03314            6600.00
03315            6000.00
03316            5400.00
03317            5000.00
03318            4400.00
03319            3800.00
03320            3400.00
03321            2800.00
03322            2200.00
03323            1800.00
03324            1400.00
03325            1000.00
03326             200.00
03327            -200.00
03328            -600.00
03329           -1200.00
03330           -1800.00
03331           -2200.00
03332           -2800.00
03333           -3000.00
03334           -3600.00
03335           -4200.00
03336           -4800.00
03337           -5800.00
03338           -6200.00
03339           -6400.00
03340           -6800.00
03341           -7000.00
03342           -8000.00
03343           -8400.00
03344           -8600.00
03345           -9400.00
03346           -9800.00
03347          -10200.00
03348          -10800.00
03349          -11000.00
03350          -11800.00
03351          -12200.00
03352          -12600.00
03353          -13000.00
03354          -13600.00
03355          -14000.00
03356          -14600.00
03357          -15000.00
03358          -15600.00
03359          -15800.00
03360          -16400.00
03361          -16600.00
03362          -17200.00
03363          -17400.00
03364          -18000.00
03365          -18200.00
03366          -18800.00
03367          -19400.00
03368          -19600.00
03369          -19800.00
03370          -20400.00
03371          -20600.00
03372          -21200.00
03373          -21400.00
03374          -21800.00
03375          -22000.00
03376          -22600.00
03377          -22800.00
03378          -23000.00
03379          -23400.00
03380          -23600.00
03381          -23800.00
03382          -24200.00
03383          -24400.00
03384          -24600.00
03385          -25000.00
03386          -25000.00
03387          -25000.00
03388          -25000.00
03389          -25000.00
03390          -25000.00
03391          -25000.00
03392          -25000.00
03393          -25000.00
03394          -25000.00
03395          -25000.00
03396          -25000.00
03397          -25000.00
03398          -25000.00
03399          -25000.00
03400          -25000.00
03401          -25000.00
03402          -25000.00
03403          -25000.00
03404          -25000.00
03405          -25000.00
03406          -25000.00
03407          -25000.00
03408          -25000.00
03409          -25000.00
03410          -25000.00
03411          -25000.00
03412          -25000.00
03413          -25000.00
03414          -25000.00
03415          -25000.00
03416          -25000.00
03417          -25000.00
03418          -25000.00
03419          -25000.00
03420          -25000.00
03421          -25000.00
03422          -25000.00
03423          -25000.00
03424          -25000.00
03425          -25000.00
03426          -25000.00
03427          -25000.00
03428          -25000.00
03429          -25000.00
03430          -25000.00
03431          -25000.00
03432          -25000.00
03433          -25000.00
03434          -24800.00
03435          -24600.00
03436          -24400.00
03437          -24000.00
03438          -23800.00
03439          -23600.00
03440          -23400.00
03441          -23000.00
03442          -22800.00
03443          -22400.00
03444          -22000.00
03445          -21800.00
03446          -21400.00
03447          -21200.00
03448          -21000.00
03449          -20400.00
03450          -20200.00
03451          -19600.00
03452          -19400.00
03453          -18800.00
03454          -18600.00
03455          -18000.00
03456          -17800.00
03457          -17200.00
03458          -17000.00
03459          -16400.00
03460          -16000.00
03461          -15600.00
03462          -15200.00
03463          -14600.00
03464          -14200.00
03465          -13800.00
03466          -13400.00
03467          -12600.00
03468          -12400.00
03469          -11800.00
03470          -11400.00
03471          -10800.00
03472          -10400.00
03473          -10000.00
03474           -9400.00
03475           -9000.00
03476           -8400.00
03477           -7800.00
03478           -7400.00
03479           -7000.00
03480           -6200.00
03481           -6000.00
03482           -5200.00
03483           -4600.00
03484           -4400.00
03485           -3800.00
03486           -3400.00
03487           -2800.00
03488           -2200.00
03489           -1800.00
03490           -1200.00
03491            -600.00
03492            -200.00
03493             400.00
03494            1000.00
03495            1400.00
03496            1800.00
03497            2600.00
03498            2600.00
03499            3200.00
03500            3600.00
03501            4200.00
03502            5000.00
03503            5800.00
03504            6200.00
03505            6600.00
03506            7000.00
03507            7400.00
03508            7800.00
03509            8400.00
03510            9000.00
03511            9400.00
03512            9800.00
03513           10400.00
03514           10800.00
03515           11400.00
03516           11800.00
03517           12200.00
03518           12800.00
03519           13400.00
03520           13800.00
03521           14200.00
03522           14600.00
03523           15400.00
03524           15400.00
03525           16000.00
03526           16400.00
03527           16800.00
03528           17200.00
03529           17800.00
03530           18000.00
03531           18600.00
03532           18800.00
03533           19400.00
03534           19600.00
03535           20200.00
03536           20400.00
03537           21000.00
03538           21200.00
03539           21600.00
03540           21800.00
03541           22200.00
03542           22600.00
03543           22800.00
03544           23400.00
03545           23400.00
03546           23600.00
03547           24000.00
03548           24400.00
03549           24400.00
03550           24800.00
03551           25000.00
03552           25000.00
03553           25000.00
03554           25000.00
03555           25000.00
03556           25000.00
03557           25000.00
03558           25000.00
03559           25000.00
03560           25000.00
03561           25000.00
03562           25000.00
03563           25000.00
03564           25000.00
03565           25000.00
03566           25000.00
03567           25000.00
03568           25000.00
03569           25000.00
03570           25000.00
03571           25000.00
03572           25000.00
03573           25000.00
03574           25000.00
03575           25000.00
03576           25000.00
03577           25000.00
03578           25000.00
03579           25000.00
03580           25000.00
03581           25000.00
03582           25000.00
03583           25000.00
03584           25000.00
03585           25000.00
03586           25000.00
03587           25000.00
03588           25000.00
03589           25000.00
03590           25000.00
03591           25000.00
03592           25000.00
03593           25000.00
03594           25000.00
03595           25000.00
03596           25000.00
03597           25000.00
03598           25000.00
03599           25000.00
03600           25000.00
03601           24600.00
03602           24400.00
03603           24200.00
03604           24000.00
03605           23400.00
03606           23400.00
03607           23000.00
03608           22800.00
03609           22600.00
03610           22000.00
03611           21800.00
03612           21400.00
03613           21200.00
03614           20800.00
03615           20400.00
03616           20000.00
03617           19600.00
03618           19400.00
03619           18800.00
03620           18600.00
03621           18000.00
03622           17800.00
03623           17200.00
03624           17000.00
03625           16400.00
03626           16000.00
03627           15600.00
03628           15000.00
03629           14800.00
03630           14200.00
03631           13800.00
03632           13200.00
03633           13000.00
03634           12400.00
03635           11800.00
03636           11400.00
03637           10800.00
03638           10600.00
03639           10000.00
03640            9400.00
03641            9000.00
03642            8400.00
03643            8000.00
03644            7400.00
03645            6800.00
03646            6200.00
03647            5800.00
03648            5200.00
03649            5000.00
03650            4200.00
03651            3600.00
03652            3400.00
03653            2800.00
03654            2000.00
03655            1800.00
03656            1200.00
03657             400.00
03658             200.00
03659            -400.00
03660           -1000.00
03661           -1200.00
03662           -2000.00
03663           -2600.00
03664           -2800.00
03665           -3000.00
03666           -3600.00
03667           -4400.00
03668           -5200.00
03669           -5800.00
03670           -6200.00
03671           -6600.00
03672           -6800.00
03673           -7400.00
03674           -7800.00
03675           -8400.00
03676           -9000.00
03677           -9400.00
03678           -9800.00
03679          -10600.00
03680          -10800.00
03681          -11400.00
03682          -11800.00
03683          -12400.00
03684          -13000.00
03685          -13400.00
03686          -13800.00
03687          -14200.00
03688          -14600.00
03689          -15200.00
03690          -15600.00
03691          -15800.00
03692          -16400.00
03693          -17000.00
03694          -17200.00
03695          -17800.00
03696          -18200.00
03697          -18600.00
03698          -19000.00
03699          -19400.00
03700          -19800.00
03701          -20200.00
03702          -20400.00
03703          -21000.00
03704          -21200.00
03705          -21600.00
03706          -22000.00
03707          -22200.00
03708          -22600.00
03709          -23000.00
03710          -23000.00
03711          -23400.00
03712          -23800.00
03713          -23800.00
03714          -24400.00
03715          -24400.00
03716          -24600.00
03717          -25000.00
03718          -25000.00
03719          -25000.00
03720          -25000.00
03721          -25000.00
03722          -25000.00
03723          -25000.00
03724          -25000.00
03725          -25000.00
03726          -25000.00
03727          -25000.00
03728          -25000.00
03729          -25000.00
03730          -25000.00
03731          -25000.00
03732          -25000.00
03733          -25000.00
03734          -25000.00
03735          -25000.00
03736          -25000.00
03737          -25000.00
03738          -25000.00
03739          -25000.00
03740          -25000.00
03741          -25000.00
03742          -25000.00
03743          -25000.00
03744          -25000.00
03745          -25000.00
03746          -25000.00
03747          -25000.00
03748          -25000.00
03749          -25000.00
03750          -25000.00
03751          -25000.00
03752          -25000.00
03753          -25000.00
03754          -25000.00
03755          -25000.00
03756          -25000.00
03757          -25000.00
03758          -25000.00
03759          -25000.00
03760          -25000.00
03761          -25000.00
03762          -25000.00
03763          -25000.00
03764          -25000.00
03765          -25000.00
03766          -24600.00
03767          -24600.00
03768          -24400.00
03769          -24000.00
03770          -23800.00
03771          -23600.00
03772          -23400.00
03773          -23000.00
03774          -22800.00
03775          -22200.00
03776          -22000.00
03777          -21800.00
03778          -21400.00
03779          -21000.00
03780          -20600.00
03781          -20200.00
03782          -19800.00
03783          -19600.00
03784          -19000.00
03785          -18800.00
03786          -18400.00
03787          -18000.00
03788          -17800.00
03789          -17200.00
03790          -16600.00
03791          -16400.00
03792          -15800.00
03793          -15600.00
03794          -15000.00
03795          -14600.00
03796          -14000.00
03797          -13400.00
03798          -13200.00
03799          -12400.00
03800          -12400.00
03801          -11800.00
03802          -11200.00
03803          -10600.00
03804          -10200.00
03805           -9800.00
03806           -9200.00
03807           -8600.00
03808           -8200.00
03809           -7800.00
03810           -7200.00
03811           -6800.00
03812           -6200.00
03813           -5800.00
03814           -5200.00
03815           -4600.00
03816           -4200.00
03817           -3600.00
03818           -3000.00
03819           -2600.00
03820           -2200.00
03821           -1600.00
03822           -1000.00
03823            -600.00
03824            -200.00
03825             400.00
03826            1000.00
03827            1400.00
03828            2000.00
03829            2400.00
03830            2800.00
03831            3400.00
03832            3800.00
03833            4400.00
03834            5200.00
03835            5800.00
03836            6200.00
03837            6800.00
03838            7200.00
03839            7400.00
03840            8000.00
03841            8400.00
03842            9000.00
03843            9400.00
03844           10000.00
03845           10600.00
03846           11000.00
03847           11600.00
03848           12000.00
03849           12400.00
03850           13000.00
03851           13400.00
03852           14000.00
03853           14200.00
03854           14800.00
03855           15400.00
03856           15400.00
03857           16200.00
03858           16600.00
03859           17000.00
03860           17400.00
03861           17800.00
03862           18400.00
03863           18600.00
03864           19000.00
03865           19400.00
03866           19800.00
03867           20200.00
03868           20600.00
03869           21000.00
03870           21400.00
03871           21800.00
03872           21800.00
03873           22200.00
03874           22600.00
03875           23000.00
03876           23200.00
03877           23600.00
03878           23600.00
03879           24200.00
03880           24200.00
03881           24600.00
03882           24800.00
03883           25000.00
03884           25000.00
03885           25000.00
03886           25000.00
03887           25000.00
03888           25000.00
03889           25000.00
03890           25000.00
03891           25000.00
03892           25000.00
03893           25000.00
03894           25000.00
03895           25000.00
03896           25000.00
03897           25000.00
03898           25000.00
03899           25000.00
03900           25000.00
03901           25000.00
03902           25000.00
03903           25000.00
03904           25000.00
03905           25000.00
03906           25000.00
03907           25000.00
03908           25000.00
03909           25000.00
03910           25000.00
03911           25000.00
03912           25000.00
03913           25000.00
03914           25000.00
03915           25000.00
03916           25000.00
03917           25000.00
03918           25000.00
03919           25000.00
03920           25000.00
03921           25000.00
03922           25000.00
03923           25000.00
03924           25000.00
03925           25000.00
03926           25000.00
03927           25000.00
03928           25000.00
03929           25000.00
03930           25000.00
03931           25000.00
03932           25000.00
03933           24600.00
03934           24400.00
03935           24200.00
03936           23600.00
03937           23600.00
03938           23400.00
03939           22800.00
03940           22800.00
03941           22200.00
03942           22000.00
03943           21800.00
03944           21200.00
03945           21000.00
03946           20600.00
03947           20200.00
03948           20200.00
03949           19600.00
03950           19000.00
03951           18800.00
03952           18600.00
03953           18000.00
03954           17800.00
03955           17200.00
03956           16600.00
03957           16400.00
03958           15800.00
03959           15400.00
03960           15000.00
03961           14600.00
03962           14000.00
03963           13400.00
03964           13200.00
03965           12600.00
03966           12200.00
03967           11600.00
03968           11200.00
03969           10600.00
03970           10200.00
03971            9800.00
03972            9200.00
03973            8600.00
03974            8400.00
03975            7600.00
03976            7200.00
03977            6800.00
03978            6200.00
03979            5800.00
03980            5200.00
03981            4800.00
03982            4200.00
03983            3600.00
03984            3000.00
03985            2600.00
03986            2000.00
03987            1600.00
03988            1000.00
03989             600.00
03990               0.00
03991            -600.00
03992           -1000.00
03993           -1400.00
03994           -2000.00
03995           -2400.00
03996           -2800.00
03997           -3200.00
03998           -3800.00
03999           -4400.00
04000           -5200.00
04001           -6000.00
04002           -6200.00
04003           -6600.00
04004           -6800.00
04005           -7400.00
04006           -8200.00
04007           -8400.00
04008           -9200.00
04009           -9400.00
04010          -10000.00
04011          -10600.00
04012          -11000.00
04013          -11600.00
04014          -11800.00
04015          -12400.00
04016          -13200.00
04017          -13400.00
04018          -14000.00
04019          -14200.00
04020          -14800.00
04021          -15400.00
04022          -15600.00
04023          -16200.00
04024          -16600.00
04025          -17000.00
04026          -17400.00
04027          -18000.00
04028          -18200.00
04029          -18800.00
04030          -19000.00
04031          -19600.00
04032          -19800.00
04033          -20400.00
04034          -20600.00
04035          -21200.00
04036          -21400.00
04037          -21600.00
04038          -22000.00
04039          -22400.00
04040          -22800.00
04041          -23000.00
04042          -23400.00
04043          -23600.00
04044          -23800.00
04045          -23800.00
04046          -24400.00
04047          -24600.00
04048          -25000.00
04049          -25000.00
04050          -25000.00
04051          -25000.00
04052          -25000.00
04053          -25000.00
04054          -25000.00
04055          -25000.00
04056          -25000.00
04057          -25000.00
04058          -25000.00
04059          -25000.00
04060          -25000.00
04061          -25000.00
04062          -25000.00
04063          -25000.00
04064          -25000.00
04065          -25000.00
04066          -25000.00
04067          -25000.00
04068          -25000.00
04069          -25000.00
04070          -25000.00
04071          -25000.00
04072          -25000.00
04073          -25000.00
04074          -25000.00
04075          -25000.00
04076          -25000.00
04077          -25000.00
04078          -25000.00
04079          -25000.00
04080          -25000.00
04081          -25000.00
04082          -25000.00
04083          -25000.00
04084          -25000.00
04085          -25000.00
04086          -25000.00
04087          -25000.00
04088          -25000.00
04089          -25000.00
04090          -25000.00
04091          -25000.00
04092          -25000.00
04093          -25000.00
04094          -25000.00
04095          -25000.00
04096          -25000.00
04097          -25000.00
04098          -24600.00
04099          -24400.00
04100          -24400.00
04101          -24000.00
04102          -23600.00
04103          -23600.00
04104          -23000.00
04105          -22800.00
04106          -22600.00
04107          -22200.00
04108          -22000.00
04109          -21600.00
04110          -21400.00
04111          -20600.00
04112          -20600.00
04113          -20200.00
04114          -19800.00
04115          -19600.00
04116          -19000.00
04117          -18800.00
04118          -18200.00
04119          -17800.00
04120          -17400.00
04121          -17000.00
04122          -16600.00
04123          -16200.00
04124          -15800.00
04125          -15400.00
04126          -15000.00
04127          -14400.00
04128          -14000.00
04129          -13400.00
04130          -13000.00
04131          -12400.00
04132          -11800.00
04133          -11400.00
04134          -11000.00
04135          -10600.00
04136          -10000.00
04137           -9800.00
04138           -9200.00
04139           -8600.00
04140           -8000.00
04141           -7600.00
04142           -7000.00
04143           -6600.00
04144           -6000.00
04145           -5600.00
04146           -5000.00
04147           -4400.00
04148           -3800.00
04149           -3600.00
04150           -3000.00
04151           -2400.00
04152           -2000.00
04153           -1200.00
04154           -1000.00
04155            -400.00
04156             200.00
04157             600.00
04158            1000.00
04159            1800.00
04160            2000.00
04161            2600.00
04162            3000.00
04163            3400.00
04164            3800.00
04165            4600.00
04166            5400.00
04167            5800.00
04168            6600.00
04169            6800.00
04170            7400.00
04171            7600.00
04172            8200.00
04173            8600.00
04174            9200.00
04175            9800.00
04176           10000.00
04177           10600.00
04178           11000.00
04179           11600.00
04180           12200.00
04181           12600.00
04182           13000.00
04183           13600.00
04184           14000.00
04185           14600.00
04186           15000.00
04187           15400.00
04188           15800.00
04189           16200.00
04190           16600.00
04191           17200.00
04192           17400.00
04193           18000.00
04194           18600.00
04195           18800.00
04196           19000.00
04197           19600.00
04198           19800.00
04199           20400.00
04200           20600.00
04201           21200.00
04202           21400.00
04203           21800.00
04204           22000.00
04205           22400.00
04206           22800.00
04207           22800.00
04208           23400.00
04209           23600.00
04210           24000.00
04211           24200.00
04212           24400.00
04213           24600.00
04214           25000.00
04215           25000.00
04216           25000.00
04217           25000.00
04218           25000.00
04219           25000.00
04220           25000.00
04221           25000.00
04222           25000.00
04223           25000.00
04224           25000.00
04225           25000.00
04226           25000.00
04227           25000.00
04228           25000.00
04229           25000.00
04230           25000.00
04231           25000.00
04232           25000.00
04233           25000.00
04234           25000.00
04235           25000.00
04236           25000.00
04237           25000.00
04238           25000.00
04239           25000.00
04240           25000.00
04241           25000.00
04242           25000.00
04243           25000.00
04244           25000.00
04245           25000.00
04246           25000.00
04247           25000.00
04248           25000.00
04249           25000.00
04250           25000.00
04251           25000.00
04252           25000.00
04253           25000.00
04254           25000.00
04255           25000.00
04256           25000.00
04257           25000.00
04258           25000.00
04259           25000.00
04260           25000.00
04261           25000.00
04262           25000.00
04263           25000.00
04264           24800.00
04265           24600.00
04266           24200.00
04267           24200.00
04268           23600.00
04269           23400.00
04270           23000.00
04271           22800.00
04272           22600.00
04273           22200.00
04274           22000.00
04275           21400.00
04276           21200.00
04277           21000.00
04278           20400.00
04279           20200.00
04280           19800.00
04281           19400.00
04282           19000.00
04283           18600.00
04284           18200.00
04285           17800.00
04286           17400.00
04287           17000.00
04288           16600.00
04289           16200.00
04290           15800.00
04291           15400.00
04292           14800.00
04293           14600.00
04294           14000.00
04295           13400.00
04296           13000.00
04297           12400.00
04298           12200.00
04299           11600.00
04300           11000.00
04301           10600.00
04302           10000.00
04303            9800.00
04304            9200.00
04305            8400.00
04306            8200.00
04307            7600.00
04308            7000.00
04309            6600.00
04310            6000.00
04311            5400.00
04312            5000.00
04313            4400.00
04314            4000.00
04315            3600.00
04316            2800.00
04317            2600.00
04318            2000.00
04319            1400.00
04320            1000.00
04321             400.00
04322            -200.00
04323            -600.00
04324           -1200.00
04325           -1400.00
04326           -2200.00
04327           -2600.00
04328           -3000.00
04329           -3400.00
04330           -3800.00
04331           -4600.00
04332           -5400.00
04333           -6000.00
04334           -6400.00
04335           -6800.00
04336           -6800.00
04337           -7600.00
04338           -8200.00
04339           -8600.00
04340           -9200.00
04341           -9400.00
04342          -10200.00
04343          -10800.00
04344          -11000.00
04345          -11600.00
04346          -12200.00
04347          -12600.00
04348          -13200.00
04349          -13400.00
04350          -14000.00
04351          -14400.00
04352          -15000.00
04353          -15400.00
04354          -15800.00
04355          -16400.00
04356          -16600.00
04357          -17200.00
04358          -17400.00
04359          -18200.00
04360          -18600.00
04361          -18800.00
04362          -19200.00
04363          -19600.00
04364          -20000.00
04365          -20400.00
04366          -20600.00
04367          -21200.00
04368          -21400.00
04369          -21800.00
04370          -22000.00
04371          -22400.00
04372          -22800.00
04373          -23000.00
04374          -23400.00
04375          -23600.00
04376          -23800.00
04377          -24200.00
04378          -24600.00
04379          -24600.00
04380          -24800.00
04381          -25000.00
04382          -25000.00
04383          -25000.00
04384          -25000.00
04385          -25000.00
04386          -25000.00
04387          -25000.00
04388          -25000.00
04389          -25000.00
04390          -25000.00
04391          -25000.00
04392          -25000.00
04393          -25000.00
04394          -25000.00
04395          -25000.00
04396          -25000.00
04397          -25000.00
04398          -25000.00
04399          -25000.00
04400          -25000.00
04401          -25000.00
04402          -25000.00
04403          -25000.00
04404          -25000.00
04405          -25000.00
04406          -25000.00
04407          -25000.00
04408          -25000.00
04409          -25000.00
04410          -25000.00
04411          -25000.00
04412          -25000.00
04413          -25000.00
04414          -25000.00
04415          -25000.00
04416          -25000.00
04417          -25000.00
04418          -25000.00
04419          -25000.00
04420          -25000.00
04421          -25000.00
04422          -25000.00
04423          -25000.00
04424          -25000.00
04425          -25000.00
04426          -25000.00
04427          -25000.00
04428          -25000.00
04429          -25000.00
04430          -24600.00
04431          -24400.00
04432          -24200.00
04433          -23800.00
04434          -23600.00
04435          -23400.00
04436          -23000.00
04437          -22800.00
04438          -22600.00
04439          -22200.00
04440          -21800.00
04441          -21400.00
04442          -21200.00
04443          -20800.00
04444          -20400.00
04445          -20000.00
04446          -19800.00
04447          -19400.00
04448          -18800.00
04449          -18400.00
04450          -18200.00
04451          -17800.00
04452          -17200.00
04453          -17000.00
04454          -16400.00
04455          -16000.00
04456          -15600.00
04457          -15000.00
04458          -14800.00
04459          -14200.00
04460          -13800.00
04461          -13400.00
04462          -12800.00
04463          -12400.00
04464          -11800.00
04465          -11400.00
04466          -10800.00
04467          -10600.00
04468          -10000.00
04469           -9400.00
04470           -9200.00
04471           -8400.00
04472           -7800.00
04473           -7600.00
04474           -7000.00
04475           -6200.00
04476           -6000.00
04477           -5400.00
04478           -5000.00
04479           -4400.00
04480           -3800.00
04481           -3400.00
04482           -2800.00
04483           -2200.00
04484           -2000.00
04485           -1200.00
04486            -800.00
04487            -400.00
04488             200.00
04489             600.00
04490            1200.00
04491            1800.00
04492            2200.00
04493            2600.00
04494            3000.00
04495            3600.00
04496            4200.00
04497            5000.00
04498            5400.00
04499            6000.00
04500            6600.00
04501            6800.00
04502            7400.00
04503            7800.00
04504            8400.00
04505            8600.00
04506            9200.00
04507            9800.00
04508           10200.00
04509           10800.00
04510           11400.00
04511           11800.00
04512           12200.00
04513           12800.00
04514           13200.00
04515           13800.00
04516           14200.00
04517           14600.00
04518           15000.00
04519           15400.00
04520           16000.00
04521           16400.00
04522           17000.00
04523           17400.00
04524           17800.00
04525           18000.00
04526           18600.00
04527           19000.00
04528           19400.00
04529           19600.00
04530           20200.00
04531           20400.00
04532           21000.00
04533           21200.00
04534           21800.00
04535           22000.00
04536           22200.00
04537           22600.00
04538           22800.00
04539           23000.00
04540           23400.00
04541           23800.00
04542           24000.00
04543           24200.00
04544           24400.00
04545           24600.00
04546           25000.00
04547           25000.00
04548           25000.00
04549           25000.00
04550           25000.00
04551           25000.00
04552           25000.00
04553           25000.00
04554           25000.00
04555           25000.00
04556           25000.00
04557           25000.00
04558           25000.00
04559           25000.00
04560           25000.00
04561           25000.00
04562           25000.00
04563           25000.00
04564           25000.00
04565           25000.00
04566           25000.00
04567           25000.00
04568           25000.00
04569           25000.00
04570           25000.00
04571           25000.00
04572           25000.00
04573           25000.00
04574           25000.00
04575           25000.00
04576           25000.00
04577           25000.00
04578           25000.00
04579           25000.00
04580           25000.00
04581           25000.00
04582           25000.00
04583           25000.00
04584           25000.00
04585           25000.00
04586           25000.00
04587           25000.00
04588           25000.00
04589           25000.00
04590           25000.00
04591           25000.00
04592           25000.00
04593           25000.00
04594           25000.00
04595           25000.00
04596           24600.00
04597           24400.00
04598           24200.00
04599           24200.00
04600           23600.00
04601           23400.00
04602           23000.00
04603           22800.00
04604           22600.00
04605           22200.00
04606           21800.00
04607           21400.00
04608           21200.00
04609           20800.00
04610           20600.00
04611           20200.00
04612           19600.00
04613           19400.00
04614           19000.00
04615           18600.00
04616           18200.00
04617           17600.00
04618           17200.00
04619           17000.00
04620           16400.00
04621           16200.00
04622           15400.00
04623           15000.00
04624           14800.00
04625           14400.00
04626           13600.00
04627           13200.00
04628           13000.00
04629           12400.00
04630           11800.00
04631           11400.00
04632           10800.00
04633           10600.00
04634           10000.00
04635            9400.00
04636            9000.00
04637            8400.00
04638            8200.00
04639            7400.00
04640            7000.00
04641            6400.00
04642            6000.00
04643            5400.00
04644            5000.00
04645            4400.00
04646            3800.00
04647            3400.00
04648            2800.00
04649            2200.00
04650            2000.00
04651            1200.00
04652             600.00
04653             200.00
04654            -200.00
04655            -600.00
04656           -1200.00
04657           -1800.00
04658           -2200.00
04659           -2800.00
04660           -3000.00
04661           -3600.00
04662           -4200.00
04663           -5000.00
04664           -5800.00
04665           -6200.00
04666           -6600.00
04667           -6800.00
04668           -7000.00
04669           -8000.00
04670           -8200.00
04671           -8800.00
04672           -9400.00
04673           -9800.00
04674          -10400.00
04675          -10800.00
04676          -11400.00
04677          -11800.00
04678          -12200.00
04679          -12800.00
04680          -13200.00
04681          -13800.00
04682          -14200.00
04683          -14600.00
04684          -15400.00
04685          -15600.00
04686          -16000.00
04687          -16400.00
04688          -16800.00
04689          -17400.00
04690          -17800.00
04691          -18200.00
04692          -18600.00
04693          -18800.00
04694          -19400.00
04695          -19800.00
04696          -20200.00
04697          -20400.00
04698          -21000.00
04699          -21200.00
04700          -21400.00
04701          -21800.00
04702          -22200.00
04703          -22600.00
04704          -22800.00
04705          -23400.00
04706          -23400.00
04707          -23600.00
04708          -23800.00
04709          -24200.00
04710          -24400.00
04711          -24600.00
04712          -25000.00
04713          -25000.00
04714          -25000.00
04715          -25000.00
04716          -25000.00
04717          -25000.00
04718          -25000.00
04719          -25000.00
04720          -25000.00
04721          -25000.00
04722          -25000.00
04723          -25000.00
04724          -25000.00
04725          -25000.00
04726          -25000.00
04727          -25000.00
04728          -25000.00
04729          -25000.00
04730          -25000.00
04731          -25000.00
04732          -25000.00
04733          -25000.00
04734          -25000.00
04735          -25000.00
04736          -25000.00
04737          -25000.00
04738          -25000.00
04739          -25000.00
04740          -25000.00
04741          -25000.00
04742          -25000.00
04743          -25000.00
04744          -25000.00
04745          -25000.00
04746          -25000.00
04747          -25000.00
04748          -25000.00
04749          -25000.00
04750          -25000.00
04751          -25000.00
04752          -25000.00
04753          -25000.00
04754          -25000.00
04755          -25000.00
04756          -25000.00
04757          -25000.00
04758          -25000.00
04759          -25000.00
04760          -25000.00
04761          -24800.00
04762          -24600.00
04763          -24400.00
04764          -24200.00
04765          -23800.00
04766          -23600.00
04767          -23400.00
04768          -23000.00
04769          -22800.00
04770          -22200.00
04771          -22000.00
04772          -21800.00
04773          -21400.00
04774          -21200.00
04775          -20600.00
04776          -20400.00
04777          -20200.00
04778          -19600.00
04779          -19400.00
04780          -18800.00
04781          -18200.00
04782          -18000.00
04783          -17400.00
04784          -17200.00
04785          -16800.00
04786          -16200.00
04787          -15800.00
04788          -15400.00
04789          -15000.00
04790          -14600.00
04791          -14000.00
04792          -13600.00
04793          -13200.00
04794          -12600.00
04795          -12200.00
04796          -11800.00
04797          -11200.00
04798          -10800.00
04799          -10200.00
04800          -10000.00
04801           -9400.00
04802           -8800.00
04803           -8200.00
04804           -7800.00
04805           -7400.00
04806           -6800.00
04807           -6200.00
04808           -5800.00
04809           -5400.00
04810           -4600.00
04811           -4400.00
04812           -3600.00
04813           -3200.00
04814           -2800.00
04815           -2200.00
04816           -1800.00
04817           -1200.00
04818            -600.00
04819            -200.00
04820             400.00
04821            1000.00
04822            1400.00
04823            1800.00
04824            2200.00
04825            2800.00
04826            3400.00
04827            3800.00
04828            4200.00
04829            5200.00
04830            5400.00
04831            6000.00
04832            6600.00
04833            7000.00
04834            7400.00
04835            7800.00
04836            8400.00
04837            9000.00
04838            9400.00
04839           10000.00
04840           10600.00
04841           10800.00
04842           11600.00
04843           11800.00
04844           12400.00
04845           13000.00
04846           13400.00
04847           13800.00
04848           14200.00
04849           14800.00
04850           15400.00
04851           15800.00
04852           16200.00
04853           16400.00
04854           17200.00
04855           17400.00
04856           17800.00
04857           18200.00
04858           18600.00
04859           19000.00
04860           19400.00
04861           19800.00
04862           20200.00
04863           20400.00
04864           21000.00
04865           21200.00
04866           21600.00
04867           21800.00
04868           22200.00
04869           22600.00
04870           22800.00
04871           23000.00
04872           23400.00
04873           23600.00
04874           24200.00
04875           24200.00
04876           24400.00
04877           24600.00
04878           25000.00
04879           25000.00
04880           25000.00
04881           25000.00
04882           25000.00
04883           25000.00
04884           25000.00
04885           25000.00
04886           25000.00
04887           25000.00
04888           25000.00
04889           25000.00
04890           25000.00
04891           25000.00
04892           25000.00
04893           25000.00
04894           25000.00
04895           25000.00
04896           25000.00
04897           25000.00
04898           25000.00
04899           25000.00
04900           25000.00
04901           25000.00
04902           25000.00
04903           25000.00
04904           25000.00
04905           25000.00
04906           25000.00
04907           25000.00
04908           25000.00
04909           25000.00
04910           25000.00
04911           25000.00
04912           25000.00
04913           25000.00
04914           25000.00
04915           25000.00
04916           25000.00
04917           25000.00
04918           25000.00
04919           25000.00
04920           25000.00
04921           25000.00
04922           25000.00
04923           25000.00
04924           25000.00
04925           25000.00
04926           25000.00
04927           25000.00
04928           24600.00
04929           24400.00
04930           24200.00
04931           23800.00
04932           23600.00
04933           23400.00
04934           23000.00
04935           22800.00
04936           22200.00
04937           22000.00
04938           21800.00
04939           21400.00
04940           21000.00
04941           20600.00
04942           20400.00
04943           19800.00
04944           19600.00
04945           19200.00
04946           18800.00
04947           18600.00
04948           18000.00
04949           17400.00
04950           17000.00
04951           16600.00
04952           16400.00
04953           15800.00
04954           15400.00
04955           15000.00
04956           14600.00
04957           14000.00
04958           13800.00
04959           13200.00
04960           12600.00
04961           12200.00
04962           11800.00
04963           11400.00
04964           10800.00
04965           10200.00
04966            9800.00
04967            9400.00
04968            8800.00
04969            8400.00
04970            7800.00
04971            7400.00
04972            6800.00
04973            6200.00
04974            5800.00
04975            5200.00
04976            4600.00
04977            4200.00
04978            3600.00
04979            3400.00
04980            2600.00
04981            2000.00
04982            1600.00
04983            1000.00
04984             600.00
04985             200.00
04986            -600.00
04987            -800.00
04988           -1400.00
04989           -1800.00
04990           -2200.00
04991           -2800.00
04992           -3400.00
04993           -3800.00
04994           -4400.00
04995           -5200.00
04996           -6000.00
04997           -6200.00
04998           -6800.00
04999           -6800.00
05000           -7400.00
