Unit:(mV)
                     CH1
Frequency    301.046 kHz
00001            1000.00
00002            1000.00
00003             600.00
00004             400.00
00005             200.00
00006             200.00
00007            -400.00
00008            -400.00
00009            -600.00
00010           -1000.00
00011           -1000.00
00012           -1200.00
00013           -1400.00
00014           -1800.00
00015           -2000.00
00016           -2200.00
00017           -2800.00
00018           -2800.00
00019           -2800.00
00020           -2800.00
00021           -3400.00
00022           -3600.00
00023           -3600.00
00024           -4000.00
00025           -4200.00
00026           -4200.00
00027           -4600.00
00028           -5000.00
00029           -5000.00
00030           -5200.00
00031           -5400.00
00032           -5800.00
00033           -6000.00
00034           -6000.00
00035           -6200.00
00036           -6600.00
00037           -6600.00
00038           -6800.00
00039           -7000.00
00040           -7200.00
00041           -7400.00
00042           -7600.00
00043           -7600.00
00044           -8000.00
00045           -8200.00
00046           -8400.00
00047           -8600.00
00048           -8600.00
00049           -8600.00
00050           -9000.00
00051           -9200.00
00052           -9200.00
00053           -9400.00
00054           -9400.00
00055           -9800.00
00056           -9800.00
00057          -10000.00
00058          -10200.00
00059          -10200.00
00060          -10600.00
00061          -10600.00
00062          -10600.00
00063          -10800.00
00064          -10800.00
00065          -11000.00
00066          -11000.00
00067          -11200.00
00068          -11400.00
00069          -11400.00
00070          -11400.00
00071          -11400.00
00072          -11600.00
00073          -11600.00
00074          -11600.00
00075          -11800.00
00076          -11800.00
00077          -11800.00
00078          -12000.00
00079          -12200.00
00080          -12000.00
00081          -12200.00
00082          -12200.00
00083          -12200.00
00084          -12400.00
00085          -12200.00
00086          -12200.00
00087          -12400.00
00088          -12200.00
00089          -12200.00
00090          -12200.00
00091          -12200.00
00092          -12200.00
00093          -12400.00
00094          -12000.00
00095          -12200.00
00096          -12200.00
00097          -12200.00
00098          -11800.00
00099          -11800.00
00100          -11800.00
00101          -11800.00
00102          -11800.00
00103          -11600.00
00104          -11600.00
00105          -11600.00
00106          -11600.00
00107          -11400.00
00108          -11400.00
00109          -11400.00
00110          -11400.00
00111          -11000.00
00112          -11000.00
00113          -10800.00
00114          -10800.00
00115          -10600.00
00116          -10600.00
00117          -10400.00
00118          -10200.00
00119          -10200.00
00120          -10200.00
00121          -10000.00
00122           -9800.00
00123           -9800.00
00124           -9600.00
00125           -9400.00
00126           -9200.00
00127           -9200.00
00128           -9000.00
00129           -8600.00
00130           -8600.00
00131           -8400.00
00132           -8400.00
00133           -8400.00
00134           -7800.00
00135           -7800.00
00136           -7600.00
00137           -7400.00
00138           -7400.00
00139           -7000.00
00140           -7000.00
00141           -6800.00
00142           -6600.00
00143           -6200.00
00144           -6000.00
00145           -6000.00
00146           -5800.00
00147           -5400.00
00148           -5400.00
00149           -5200.00
00150           -5000.00
00151           -4600.00
00152           -4400.00
00153           -4200.00
00154           -3800.00
00155           -3800.00
00156           -3600.00
00157           -3400.00
00158           -3000.00
00159           -2800.00
00160           -2800.00
00161           -2200.00
00162           -2200.00
00163           -2000.00
00164           -1800.00
00165           -1600.00
00166           -1200.00
00167           -1200.00
00168            -600.00
00169            -600.00
00170            -400.00
00171            -200.00
00172             200.00
00173             400.00
00174             400.00
00175             600.00
00176            1000.00
00177            1200.00
00178            1400.00
00179            1600.00
00180            1800.00
00181            2000.00
00182            2200.00
00183            2600.00
00184            3000.00
00185            3000.00
00186            3000.00
00187            3400.00
00188            3600.00
00189            3800.00
00190            3800.00
00191            4200.00
00192            4200.00
00193            4400.00
00194            4800.00
00195            5000.00
00196            5200.00
00197            5400.00
00198            5800.00
00199            5800.00
00200            6200.00
00201            6400.00
00202            6600.00
00203            6800.00
00204            6800.00
00205            6800.00
00206            7400.00
00207            7400.00
00208            7600.00
00209            7800.00
00210            8000.00
00211            8200.00
00212            8200.00
00213            8400.00
00214            8600.00
00215            8600.00
00216            9000.00
00217            9200.00
00218            9400.00
00219            9400.00
00220            9800.00
00221            9800.00
00222           10000.00
00223           10000.00
00224           10200.00
00225           10200.00
00226           10600.00
00227           10600.00
00228           10800.00
00229           10800.00
00230           10800.00
00231           11000.00
00232           11000.00
00233           11200.00
00234           11400.00
00235           11400.00
00236           11600.00
00237           11600.00
00238           11600.00
00239           11600.00
00240           11800.00
00241           11800.00
00242           11800.00
00243           11800.00
00244           12000.00
00245           12200.00
00246           12200.00
00247           12200.00
00248           12200.00
00249           12200.00
00250           12200.00
00251           12200.00
00252           12200.00
00253           12200.00
00254           12200.00
00255           12200.00
00256           12200.00
00257           12200.00
00258           12200.00
00259           12000.00
00260           12200.00
00261           12200.00
00262           12000.00
00263           12200.00
00264           12000.00
00265           11800.00
00266           11800.00
00267           11800.00
00268           11800.00
00269           11800.00
00270           11600.00
00271           11600.00
00272           11600.00
00273           11400.00
00274           11400.00
00275           11200.00
00276           11400.00
00277           11000.00
00278           11000.00
00279           10800.00
00280           10800.00
00281           10800.00
00282           10600.00
00283           10600.00
00284           10600.00
00285           10200.00
00286           10000.00
00287           10000.00
00288           10000.00
00289            9800.00
00290            9400.00
00291            9400.00
00292            9400.00
00293            9200.00
00294            9000.00
00295            9000.00
00296            8800.00
00297            8400.00
00298            8400.00
00299            8200.00
00300            8200.00
00301            8000.00
00302            7600.00
00303            7600.00
00304            7400.00
00305            7200.00
00306            6800.00
00307            6800.00
00308            6600.00
00309            6200.00
00310            6200.00
00311            6000.00
00312            5800.00
00313            5800.00
00314            5200.00
00315            5200.00
00316            5000.00
00317            4600.00
00318            4400.00
00319            4200.00
00320            4200.00
00321            3800.00
00322            3600.00
00323            3400.00
00324            3200.00
00325            3000.00
00326            2600.00
00327            2600.00
00328            2200.00
00329            2000.00
00330            1800.00
00331            1800.00
00332            1200.00
00333            1200.00
00334            1000.00
00335             600.00
00336             400.00
00337             400.00
00338               0.00
00339            -200.00
00340            -400.00
00341            -600.00
00342           -1000.00
00343           -1200.00
00344           -1200.00
00345           -1400.00
00346           -1600.00
00347           -1800.00
00348           -2200.00
00349           -2800.00
00350           -2800.00
00351           -2800.00
00352           -2800.00
00353           -3400.00
00354           -3600.00
00355           -3600.00
00356           -3800.00
00357           -4200.00
00358           -4400.00
00359           -4400.00
00360           -4600.00
00361           -5000.00
00362           -5000.00
00363           -5400.00
00364           -5600.00
00365           -5800.00
00366           -6200.00
00367           -6200.00
00368           -6200.00
00369           -6800.00
00370           -6800.00
00371           -7000.00
00372           -7000.00
00373           -7400.00
00374           -7600.00
00375           -7800.00
00376           -7800.00
00377           -8200.00
00378           -8400.00
00379           -8600.00
00380           -8600.00
00381           -8600.00
00382           -9000.00
00383           -9200.00
00384           -9200.00
00385           -9400.00
00386           -9400.00
00387           -9800.00
00388          -10000.00
00389          -10000.00
00390          -10200.00
00391          -10200.00
00392          -10600.00
00393          -10600.00
00394          -10600.00
00395          -10800.00
00396          -10800.00
00397          -11000.00
00398          -11000.00
00399          -11000.00
00400          -11000.00
00401          -11400.00
00402          -11400.00
00403          -11400.00
00404          -11600.00
00405          -11600.00
00406          -11800.00
00407          -11800.00
00408          -11800.00
00409          -11800.00
00410          -11800.00
00411          -12000.00
00412          -11800.00
00413          -12200.00
00414          -12200.00
00415          -12200.00
00416          -12200.00
00417          -12200.00
00418          -12400.00
00419          -12200.00
00420          -12400.00
00421          -12200.00
00422          -12200.00
00423          -12200.00
00424          -12200.00
00425          -12000.00
00426          -12200.00
00427          -12000.00
00428          -12200.00
00429          -12200.00
00430          -11800.00
00431          -11800.00
00432          -11800.00
00433          -11800.00
00434          -11800.00
00435          -11600.00
00436          -11600.00
00437          -11600.00
00438          -11600.00
00439          -11400.00
00440          -11400.00
00441          -11000.00
00442          -11000.00
00443          -11000.00
00444          -11000.00
00445          -10800.00
00446          -10800.00
00447          -10800.00
00448          -10600.00
00449          -10600.00
00450          -10200.00
00451          -10200.00
00452          -10200.00
00453          -10200.00
00454          -10000.00
00455           -9800.00
00456           -9400.00
00457           -9400.00
00458           -9400.00
00459           -9200.00
00460           -9000.00
00461           -9000.00
00462           -8600.00
00463           -8600.00
00464           -8400.00
00465           -8200.00
00466           -8200.00
00467           -7800.00
00468           -7800.00
00469           -7600.00
00470           -7400.00
00471           -7200.00
00472           -7000.00
00473           -6800.00
00474           -6600.00
00475           -6400.00
00476           -6200.00
00477           -6000.00
00478           -5800.00
00479           -5400.00
00480           -5400.00
00481           -5200.00
00482           -5000.00
00483           -4800.00
00484           -4400.00
00485           -4200.00
00486           -4000.00
00487           -3800.00
00488           -3600.00
00489           -3400.00
00490           -3000.00
00491           -2800.00
00492           -2800.00
00493           -2600.00
00494           -2200.00
00495           -2000.00
00496           -2000.00
00497           -1400.00
00498           -1400.00
00499           -1200.00
00500           -1000.00
00501            -600.00
00502            -400.00
00503            -200.00
00504             200.00
00505             200.00
00506             400.00
00507             600.00
00508            1000.00
00509            1200.00
00510            1200.00
00511            1600.00
00512            1800.00
00513            2000.00
00514            2200.00
00515            2600.00
00516            2800.00
00517            2800.00
00518            3000.00
00519            3400.00
00520            3600.00
00521            3600.00
00522            3800.00
00523            4200.00
00524            4200.00
00525            4400.00
00526            4600.00
00527            5000.00
00528            5200.00
00529            5400.00
00530            5600.00
00531            5800.00
00532            6000.00
00533            6200.00
00534            6600.00
00535            6600.00
00536            6800.00
00537            6800.00
00538            7200.00
00539            7400.00
00540            7800.00
00541            7800.00
00542            8000.00
00543            8200.00
00544            8400.00
00545            8600.00
00546            8600.00
00547            9000.00
00548            9000.00
00549            9200.00
00550            9200.00
00551            9400.00
00552            9800.00
00553           10000.00
00554           10000.00
00555           10000.00
00556           10200.00
00557           10200.00
00558           10400.00
00559           10600.00
00560           10600.00
00561           10600.00
00562           10800.00
00563           11000.00
00564           11200.00
00565           11200.00
00566           11400.00
00567           11400.00
00568           11600.00
00569           11600.00
00570           11600.00
00571           11800.00
00572           11800.00
00573           11800.00
00574           11800.00
00575           12200.00
00576           12000.00
00577           12200.00
00578           12200.00
00579           12200.00
00580           12200.00
00581           12200.00
00582           12200.00
00583           12200.00
00584           12200.00
00585           12200.00
00586           12200.00
00587           12200.00
00588           12200.00
00589           12200.00
00590           12200.00
00591           12200.00
00592           12200.00
00593           12200.00
00594           12200.00
00595           12200.00
00596           12200.00
00597           11800.00
00598           12000.00
00599           11800.00
00600           11800.00
00601           11800.00
00602           11800.00
00603           11600.00
00604           11600.00
00605           11600.00
00606           11600.00
00607           11400.00
00608           11400.00
00609           11400.00
00610           11000.00
00611           11000.00
00612           10800.00
00613           10600.00
00614           10800.00
00615           10600.00
00616           10600.00
00617           10600.00
00618           10000.00
00619           10200.00
00620           10000.00
00621            9800.00
00622            9800.00
00623            9600.00
00624            9400.00
00625            9200.00
00626            9000.00
00627            9000.00
00628            8600.00
00629            8600.00
00630            8400.00
00631            8200.00
00632            8200.00
00633            8000.00
00634            7600.00
00635            7600.00
00636            7400.00
00637            7400.00
00638            6800.00
00639            6800.00
00640            6600.00
00641            6400.00
00642            6200.00
00643            5800.00
00644            5800.00
00645            5600.00
00646            5400.00
00647            5200.00
00648            5000.00
00649            4600.00
00650            4400.00
00651            4200.00
00652            4200.00
00653            3800.00
00654            3600.00
00655            3400.00
00656            3200.00
00657            3000.00
00658            2800.00
00659            2600.00
00660            2200.00
00661            2000.00
00662            2000.00
00663            1800.00
00664            1200.00
00665            1200.00
00666            1000.00
00667             600.00
00668             400.00
00669             400.00
00670             200.00
00671            -200.00
00672            -400.00
00673            -600.00
00674            -600.00
00675           -1000.00
00676           -1200.00
00677           -1200.00
00678           -1800.00
00679           -2000.00
00680           -2200.00
00681           -2600.00
00682           -2800.00
00683           -2800.00
00684           -2800.00
00685           -3400.00
00686           -3400.00
00687           -3600.00
00688           -3800.00
00689           -4200.00
00690           -4200.00
00691           -4400.00
00692           -5000.00
00693           -5000.00
00694           -5200.00
00695           -5400.00
00696           -5600.00
00697           -6000.00
00698           -6000.00
00699           -6200.00
00700           -6400.00
00701           -6600.00
00702           -6800.00
00703           -7000.00
00704           -7200.00
00705           -7400.00
00706           -7600.00
00707           -7600.00
00708           -7800.00
00709           -8200.00
00710           -8400.00
00711           -8600.00
00712           -8600.00
00713           -8600.00
00714           -9200.00
00715           -9200.00
00716           -9200.00
00717           -9400.00
00718           -9400.00
00719           -9800.00
00720          -10000.00
00721          -10000.00
00722          -10200.00
00723          -10200.00
00724          -10200.00
00725          -10600.00
00726          -10600.00
00727          -10800.00
00728          -10800.00
00729          -11000.00
00730          -11000.00
00731          -11000.00
00732          -11400.00
00733          -11400.00
00734          -11400.00
00735          -11600.00
00736          -11600.00
00737          -11600.00
00738          -11800.00
00739          -11600.00
00740          -11800.00
00741          -11800.00
00742          -11800.00
00743          -11800.00
00744          -12200.00
00745          -12200.00
00746          -11800.00
00747          -12200.00
00748          -12200.00
00749          -12200.00
00750          -12200.00
00751          -12200.00
00752          -12200.00
00753          -12200.00
00754          -12200.00
00755          -12200.00
00756          -12200.00
00757          -12200.00
00758          -12200.00
00759          -11800.00
00760          -12200.00
00761          -12000.00
00762          -12200.00
00763          -11800.00
00764          -11800.00
00765          -11800.00
00766          -11800.00
00767          -11800.00
00768          -11600.00
00769          -11600.00
00770          -11600.00
00771          -11400.00
00772          -11400.00
00773          -11400.00
00774          -11400.00
00775          -11000.00
00776          -11000.00
00777          -11000.00
00778          -10800.00
00779          -10800.00
00780          -10600.00
00781          -10600.00
00782          -10400.00
00783          -10200.00
00784          -10200.00
00785          -10000.00
00786          -10000.00
00787           -9800.00
00788           -9600.00
00789           -9400.00
00790           -9400.00
00791           -9200.00
00792           -9200.00
00793           -9000.00
00794           -8600.00
00795           -8600.00
00796           -8400.00
00797           -8200.00
00798           -8200.00
00799           -7800.00
00800           -7600.00
00801           -7600.00
00802           -7400.00
00803           -7400.00
00804           -7000.00
00805           -7000.00
00806           -6600.00
00807           -6600.00
00808           -6200.00
00809           -6000.00
00810           -5800.00
00811           -5800.00
00812           -5400.00
00813           -5200.00
00814           -4600.00
00815           -4600.00
00816           -4400.00
00817           -4400.00
00818           -4200.00
00819           -3800.00
00820           -3600.00
00821           -3400.00
00822           -3000.00
00823           -3000.00
00824           -2800.00
00825           -2600.00
00826           -2200.00
00827           -2200.00
00828           -2000.00
00829           -1800.00
00830           -1400.00
00831           -1200.00
00832           -1000.00
00833            -600.00
00834            -600.00
00835            -200.00
00836            -200.00
00837             200.00
00838             400.00
00839             600.00
00840             600.00
00841            1000.00
00842            1200.00
00843            1400.00
00844            1600.00
00845            2000.00
00846            2200.00
00847            2600.00
00848            2600.00
00849            2800.00
00850            2800.00
00851            3400.00
00852            3400.00
00853            3600.00
00854            3800.00
00855            4200.00
00856            4200.00
00857            4400.00
00858            4800.00
00859            5200.00
00860            5000.00
00861            5400.00
00862            5600.00
00863            5800.00
00864            5800.00
00865            6000.00
00866            6600.00
00867            6600.00
00868            6800.00
00869            7000.00
00870            7200.00
00871            7400.00
00872            7600.00
00873            7800.00
00874            8000.00
00875            8200.00
00876            8400.00
00877            8400.00
00878            8600.00
00879            8800.00
00880            9000.00
00881            9200.00
00882            9200.00
00883            9400.00
00884            9600.00
00885            9800.00
00886           10000.00
00887           10000.00
00888           10200.00
00889           10200.00
00890           10600.00
00891           10600.00
00892           10600.00
00893           10600.00
00894           10800.00
00895           11000.00
00896           11000.00
00897           11000.00
00898           11200.00
00899           11400.00
00900           11600.00
00901           11600.00
00902           11600.00
00903           11600.00
00904           11800.00
00905           11800.00
00906           11800.00
00907           11800.00
00908           12000.00
00909           12200.00
00910           12200.00
00911           12000.00
00912           12200.00
00913           12200.00
00914           12200.00
00915           12200.00
00916           12200.00
00917           12200.00
00918           12200.00
00919           12200.00
00920           12200.00
00921           12200.00
00922           12200.00
00923           12200.00
00924           12200.00
00925           12200.00
00926           12200.00
00927           11800.00
00928           12200.00
00929           11800.00
00930           12000.00
00931           11800.00
00932           11800.00
00933           11800.00
00934           11800.00
00935           11600.00
00936           11600.00
00937           11600.00
00938           11600.00
00939           11400.00
00940           11400.00
00941           11400.00
00942           11000.00
00943           11000.00
00944           10800.00
00945           10800.00
00946           10800.00
00947           10800.00
00948           10600.00
00949           10200.00
00950           10200.00
00951           10000.00
00952           10000.00
00953            9800.00
00954            9800.00
00955            9600.00
00956            9400.00
00957            9400.00
00958            9000.00
00959            9000.00
00960            8800.00
00961            8600.00
00962            8400.00
00963            8400.00
00964            8200.00
00965            8200.00
00966            7800.00
00967            7600.00
00968            7600.00
00969            7400.00
00970            7000.00
00971            6800.00
00972            6600.00
00973            6600.00
00974            6200.00
00975            6000.00
00976            5800.00
00977            5800.00
00978            5400.00
00979            5200.00
00980            5200.00
00981            4600.00
00982            4400.00
00983            4200.00
00984            4200.00
00985            3800.00
00986            3600.00
00987            3600.00
00988            3400.00
00989            3000.00
00990            2800.00
00991            2600.00
00992            2200.00
00993            2200.00
00994            1800.00
00995            1800.00
00996            1600.00
00997            1200.00
00998            1000.00
00999            1000.00
01000             400.00
01001             400.00
01002             200.00
01003            -200.00
01004            -400.00
01005            -600.00
01006            -600.00
01007           -1000.00
01008           -1200.00
01009           -1200.00
01010           -1400.00
01011           -1800.00
01012           -2200.00
01013           -2600.00
01014           -2800.00
01015           -2800.00
01016           -2600.00
01017           -3000.00
01018           -3600.00
01019           -3400.00
01020           -3800.00
01021           -4000.00
01022           -4200.00
01023           -4400.00
01024           -4800.00
01025           -5000.00
01026           -5000.00
01027           -5400.00
01028           -5400.00
01029           -5800.00
01030           -6000.00
01031           -6000.00
01032           -6600.00
01033           -6600.00
01034           -7000.00
01035           -7000.00
01036           -7200.00
01037           -7200.00
01038           -7600.00
01039           -7600.00
01040           -7800.00
01041           -8200.00
01042           -8400.00
01043           -8400.00
01044           -8600.00
01045           -8800.00
01046           -9000.00
01047           -9200.00
01048           -9200.00
01049           -9400.00
01050           -9400.00
01051           -9800.00
01052           -9800.00
01053          -10000.00
01054          -10200.00
01055          -10200.00
01056          -10600.00
01057          -10600.00
01058          -10600.00
01059          -10800.00
01060          -10800.00
01061          -10800.00
01062          -11000.00
01063          -11000.00
01064          -11000.00
01065          -11400.00
01066          -11400.00
01067          -11400.00
01068          -11400.00
01069          -11600.00
01070          -11600.00
01071          -11800.00
01072          -11800.00
01073          -11800.00
01074          -11800.00
01075          -12000.00
01076          -11800.00
01077          -12200.00
01078          -12000.00
01079          -12000.00
01080          -12200.00
01081          -12200.00
01082          -12200.00
01083          -12200.00
01084          -12200.00
01085          -12200.00
01086          -12200.00
01087          -12400.00
01088          -12200.00
01089          -12200.00
01090          -12000.00
01091          -12200.00
01092          -12200.00
01093          -12000.00
01094          -12200.00
01095          -12000.00
01096          -11800.00
01097          -11800.00
01098          -11800.00
01099          -11800.00
01100          -11800.00
01101          -11600.00
01102          -11600.00
01103          -11600.00
01104          -11400.00
01105          -11400.00
01106          -11400.00
01107          -11200.00
01108          -11000.00
01109          -11000.00
01110          -10800.00
01111          -10800.00
01112          -10600.00
01113          -10600.00
01114          -10400.00
01115          -10200.00
01116          -10200.00
01117          -10000.00
01118          -10000.00
01119           -9800.00
01120           -9800.00
01121           -9600.00
01122           -9400.00
01123           -9200.00
01124           -9200.00
01125           -9000.00
01126           -8600.00
01127           -8600.00
01128           -8600.00
01129           -8200.00
01130           -8200.00
01131           -7800.00
01132           -7600.00
01133           -7600.00
01134           -7400.00
01135           -7000.00
01136           -7000.00
01137           -6800.00
01138           -6600.00
01139           -6200.00
01140           -6200.00
01141           -6000.00
01142           -5800.00
01143           -5400.00
01144           -5200.00
01145           -5200.00
01146           -5000.00
01147           -4600.00
01148           -4600.00
01149           -4200.00
01150           -4200.00
01151           -3800.00
01152           -3600.00
01153           -3600.00
01154           -3400.00
01155           -3000.00
01156           -2800.00
01157           -2600.00
01158           -2200.00
01159           -2000.00
01160           -2000.00
01161           -1800.00
01162           -1400.00
01163           -1200.00
01164           -1000.00
01165            -600.00
01166            -600.00
01167            -400.00
01168            -200.00
01169             200.00
01170             400.00
01171             400.00
01172             600.00
01173            1000.00
01174            1200.00
01175            1200.00
01176            1400.00
01177            2000.00
01178            2000.00
01179            2600.00
01180            2600.00
01181            2800.00
01182            3000.00
01183            3000.00
01184            3400.00
01185            3600.00
01186            3800.00
01187            3800.00
01188            4200.00
01189            4400.00
01190            5000.00
01191            5000.00
01192            5200.00
01193            5400.00
01194            5800.00
01195            5800.00
01196            6000.00
01197            6000.00
01198            6600.00
01199            6600.00
01200            6800.00
01201            7000.00
01202            7200.00
01203            7400.00
01204            7600.00
01205            7600.00
01206            8000.00
01207            8200.00
01208            8400.00
01209            8400.00
01210            8600.00
01211            9000.00
01212            9000.00
01213            9200.00
01214            9200.00
01215            9400.00
01216            9400.00
01217            9800.00
01218           10000.00
01219           10000.00
01220           10000.00
01221           10000.00
01222           10400.00
01223           10600.00
01224           10600.00
01225           10600.00
01226           10800.00
01227           11000.00
01228           11000.00
01229           11200.00
01230           11200.00
01231           11400.00
01232           11400.00
01233           11400.00
01234           11600.00
01235           11600.00
01236           11600.00
01237           11600.00
01238           11800.00
01239           11800.00
01240           11800.00
01241           12000.00
01242           12000.00
01243           12200.00
01244           12200.00
01245           12200.00
01246           12200.00
01247           12200.00
01248           12200.00
01249           12200.00
01250           12200.00
01251           12200.00
01252           12200.00
01253           12200.00
01254           12200.00
01255           12200.00
01256           12200.00
01257           12200.00
01258           12200.00
01259           12200.00
01260           12200.00
01261           12200.00
01262           12200.00
01263           12000.00
01264           11800.00
01265           11800.00
01266           11600.00
01267           11600.00
01268           11600.00
01269           11600.00
01270           11600.00
01271           11400.00
01272           11400.00
01273           11400.00
01274           11200.00
01275           11200.00
01276           11000.00
01277           10800.00
01278           10600.00
01279           10600.00
01280           10600.00
01281           10600.00
01282           10400.00
01283           10000.00
01284           10000.00
01285           10000.00
01286            9800.00
01287            9800.00
01288            9400.00
01289            9400.00
01290            9200.00
01291            9000.00
01292            8600.00
01293            8600.00
01294            8400.00
01295            8400.00
01296            8200.00
01297            7800.00
01298            7800.00
01299            7600.00
01300            7400.00
01301            7000.00
01302            7000.00
01303            6800.00
01304            6600.00
01305            6600.00
01306            6200.00
01307            6000.00
01308            6000.00
01309            5800.00
01310            5400.00
01311            5200.00
01312            5000.00
01313            4600.00
01314            4400.00
01315            4400.00
01316            4200.00
01317            4200.00
01318            3600.00
01319            3600.00
01320            3400.00
01321            3000.00
01322            3000.00
01323            2800.00
01324            2600.00
01325            2200.00
01326            2000.00
01327            1800.00
01328            1800.00
01329            1200.00
01330            1000.00
01331            1000.00
01332             400.00
01333             400.00
01334             200.00
01335            -200.00
01336            -400.00
01337            -600.00
01338            -600.00
01339            -800.00
01340           -1200.00
01341           -1200.00
01342           -1400.00
01343           -1800.00
01344           -2000.00
01345           -2400.00
01346           -2800.00
01347           -2800.00
01348           -2800.00
01349           -3000.00
01350           -3600.00
01351           -3600.00
01352           -3800.00
01353           -4200.00
01354           -4200.00
01355           -4400.00
01356           -4600.00
01357           -5000.00
01358           -5000.00
01359           -5400.00
01360           -5400.00
01361           -5800.00
01362           -6200.00
01363           -6200.00
01364           -6200.00
01365           -6800.00
01366           -6800.00
01367           -7000.00
01368           -7400.00
01369           -7200.00
01370           -7600.00
01371           -7600.00
01372           -7800.00
01373           -8200.00
01374           -8400.00
01375           -8600.00
01376           -8600.00
01377           -8600.00
01378           -8800.00
01379           -9200.00
01380           -9200.00
01381           -9400.00
01382           -9400.00
01383           -9600.00
01384           -9800.00
01385          -10000.00
01386          -10200.00
01387          -10200.00
01388          -10400.00
01389          -10200.00
01390          -10600.00
01391          -10800.00
01392          -10800.00
01393          -10800.00
01394          -10800.00
01395          -11000.00
01396          -11000.00
01397          -11400.00
01398          -11400.00
01399          -11400.00
01400          -11600.00
01401          -11600.00
01402          -11600.00
01403          -11800.00
01404          -11800.00
01405          -11800.00
01406          -11800.00
01407          -11800.00
01408          -12000.00
01409          -12200.00
01410          -12200.00
01411          -12200.00
01412          -12200.00
01413          -12200.00
01414          -12200.00
01415          -12200.00
01416          -12200.00
01417          -12400.00
01418          -12000.00
01419          -12400.00
01420          -12200.00
01421          -12200.00
01422          -12200.00
01423          -12200.00
01424          -12200.00
01425          -12200.00
01426          -12200.00
01427          -12200.00
01428          -11800.00
01429          -11800.00
01430          -11800.00
01431          -11800.00
01432          -11800.00
01433          -11600.00
01434          -11800.00
01435          -11600.00
01436          -11600.00
01437          -11400.00
01438          -11400.00
01439          -11200.00
01440          -11000.00
01441          -11000.00
01442          -10800.00
01443          -10800.00
01444          -10600.00
01445          -10800.00
01446          -10600.00
01447          -10200.00
01448          -10200.00
01449          -10000.00
01450          -10000.00
01451           -9800.00
01452           -9400.00
01453           -9400.00
01454           -9400.00
01455           -9200.00
01456           -9200.00
01457           -9000.00
01458           -8600.00
01459           -8600.00
01460           -8600.00
01461           -8200.00
01462           -8200.00
01463           -7800.00
01464           -7600.00
01465           -7600.00
01466           -7400.00
01467           -7200.00
01468           -7000.00
01469           -6800.00
01470           -6600.00
01471           -6200.00
01472           -6200.00
01473           -6000.00
01474           -5800.00
01475           -5800.00
01476           -5400.00
01477           -5200.00
01478           -5000.00
01479           -4600.00
01480           -4400.00
01481           -4400.00
01482           -4200.00
01483           -4000.00
01484           -3600.00
01485           -3600.00
01486           -3200.00
01487           -3000.00
01488           -2800.00
01489           -2600.00
01490           -2400.00
01491           -2200.00
01492           -2000.00
01493           -1800.00
01494           -1400.00
01495           -1200.00
01496           -1000.00
01497           -1000.00
01498            -600.00
01499            -400.00
01500            -200.00
01501             200.00
01502             400.00
01503             400.00
01504             600.00
01505            1000.00
01506            1200.00
01507            1400.00
01508            1400.00
01509            1800.00
01510            2000.00
01511            2400.00
01512            2600.00
01513            2800.00
01514            2800.00
01515            3000.00
01516            3600.00
01517            3600.00
01518            3800.00
01519            4200.00
01520            4200.00
01521            4400.00
01522            4600.00
01523            5000.00
01524            5200.00
01525            5200.00
01526            5800.00
01527            5800.00
01528            5800.00
01529            6000.00
01530            6400.00
01531            6600.00
01532            6800.00
01533            7000.00
01534            7000.00
01535            7400.00
01536            7600.00
01537            7600.00
01538            7800.00
01539            8200.00
01540            8200.00
01541            8400.00
01542            8600.00
01543            8600.00
01544            9000.00
01545            9200.00
01546            9200.00
01547            9400.00
01548            9400.00
01549            9800.00
01550            9800.00
01551           10000.00
01552           10000.00
01553           10200.00
01554           10600.00
01555           10600.00
01556           10600.00
01557           10600.00
01558           10800.00
01559           10800.00
01560           11000.00
01561           11000.00
01562           11000.00
01563           11400.00
01564           11400.00
01565           11600.00
01566           11600.00
01567           11600.00
01568           11600.00
01569           11800.00
01570           11600.00
01571           11800.00
01572           12000.00
01573           12200.00
01574           11800.00
01575           12200.00
01576           12200.00
01577           12200.00
01578           12200.00
01579           12200.00
01580           12200.00
01581           12200.00
01582           12200.00
01583           12400.00
01584           12200.00
01585           12200.00
01586           12200.00
01587           12200.00
01588           12200.00
01589           12200.00
01590           12200.00
01591           12200.00
01592           12200.00
01593           12200.00
01594           12200.00
01595           11800.00
01596           11800.00
01597           11800.00
01598           11800.00
01599           11800.00
01600           11600.00
01601           11600.00
01602           11600.00
01603           11600.00
01604           11600.00
01605           11400.00
01606           11000.00
01607           11000.00
01608           11000.00
01609           11000.00
01610           10800.00
01611           10600.00
01612           10600.00
01613           10400.00
01614           10200.00
01615           10000.00
01616           10000.00
01617            9800.00
01618            9800.00
01619            9600.00
01620            9400.00
01621            9400.00
01622            9000.00
01623            9000.00
01624            8600.00
01625            8600.00
01626            8400.00
01627            8400.00
01628            8200.00
01629            8000.00
01630            7600.00
01631            7600.00
01632            7400.00
01633            7400.00
01634            7000.00
01635            6800.00
01636            6600.00
01637            6400.00
01638            6200.00
01639            6000.00
01640            5800.00
01641            5800.00
01642            5400.00
01643            5200.00
01644            5000.00
01645            5000.00
01646            4400.00
01647            4400.00
01648            4200.00
01649            3800.00
01650            3800.00
01651            3600.00
01652            3400.00
01653            3000.00
01654            3000.00
01655            2600.00
01656            2600.00
01657            2200.00
01658            2000.00
01659            1800.00
01660            1800.00
01661            1200.00
01662            1200.00
01663            1000.00
01664             600.00
01665             400.00
01666             200.00
01667             200.00
01668            -200.00
01669            -400.00
01670            -600.00
01671           -1000.00
01672           -1000.00
01673           -1200.00
01674           -1400.00
01675           -1800.00
01676           -2000.00
01677           -2200.00
01678           -2800.00
01679           -2800.00
01680           -2600.00
01681           -3000.00
01682           -3400.00
01683           -3600.00
01684           -3600.00
01685           -3800.00
01686           -4400.00
01687           -4400.00
01688           -4600.00
01689           -5000.00
01690           -5200.00
01691           -5400.00
01692           -5400.00
01693           -5800.00
01694           -6000.00
01695           -6000.00
01696           -6200.00
01697           -6600.00
01698           -6800.00
01699           -7000.00
01700           -7400.00
01701           -7200.00
01702           -7600.00
01703           -7600.00
01704           -7800.00
01705           -8000.00
01706           -8200.00
01707           -8400.00
01708           -8600.00
01709           -8600.00
01710           -9000.00
01711           -9000.00
01712           -9200.00
01713           -9200.00
01714           -9400.00
01715           -9400.00
01716           -9800.00
01717           -9800.00
01718          -10200.00
01719          -10200.00
01720          -10200.00
01721          -10600.00
01722          -10400.00
01723          -10600.00
01724          -10800.00
01725          -10800.00
01726          -10800.00
01727          -11000.00
01728          -11200.00
01729          -11200.00
01730          -11400.00
01731          -11400.00
01732          -11400.00
01733          -11400.00
01734          -11600.00
01735          -11800.00
01736          -11800.00
01737          -11800.00
01738          -11800.00
01739          -11800.00
01740          -12000.00
01741          -12000.00
01742          -12000.00
01743          -12200.00
01744          -12200.00
01745          -12200.00
01746          -12200.00
01747          -12200.00
01748          -12200.00
01749          -12200.00
01750          -12200.00
01751          -12200.00
01752          -12200.00
01753          -12200.00
01754          -12200.00
01755          -12200.00
01756          -12200.00
01757          -12200.00
01758          -12000.00
01759          -11800.00
01760          -11800.00
01761          -11800.00
01762          -11800.00
01763          -11800.00
01764          -11800.00
01765          -11600.00
01766          -11800.00
01767          -11800.00
01768          -11600.00
01769          -11400.00
01770          -11200.00
01771          -11200.00
01772          -11000.00
01773          -11000.00
01774          -10800.00
01775          -10800.00
01776          -10800.00
01777          -10600.00
01778          -10200.00
01779          -10200.00
01780          -10200.00
01781          -10200.00
01782           -9800.00
01783           -9800.00
01784           -9800.00
01785           -9400.00
01786           -9200.00
01787           -9200.00
01788           -9000.00
01789           -9000.00
01790           -8600.00
01791           -8600.00
01792           -8400.00
01793           -8400.00
01794           -8200.00
01795           -7800.00
01796           -7800.00
01797           -7600.00
01798           -7400.00
01799           -7200.00
01800           -7000.00
01801           -6800.00
01802           -6600.00
01803           -6600.00
01804           -6200.00
01805           -6000.00
01806           -6000.00
01807           -5800.00
01808           -5400.00
01809           -5200.00
01810           -5000.00
01811           -5000.00
01812           -4600.00
01813           -4400.00
01814           -4400.00
01815           -3800.00
01816           -3800.00
01817           -3600.00
01818           -3400.00
01819           -3000.00
01820           -2800.00
01821           -2800.00
01822           -2600.00
01823           -2200.00
01824           -2000.00
01825           -1800.00
01826           -1400.00
01827           -1200.00
01828           -1200.00
01829            -600.00
01830            -600.00
01831            -400.00
01832            -400.00
01833             200.00
01834             200.00
01835             400.00
01836             600.00
01837            1000.00
01838            1200.00
01839            1400.00
01840            1400.00
01841            1800.00
01842            2000.00
01843            2600.00
01844            2600.00
01845            2800.00
01846            3000.00
01847            3000.00
01848            3400.00
01849            3400.00
01850            3600.00
01851            4200.00
01852            4200.00
01853            4400.00
01854            4600.00
01855            5000.00
01856            5200.00
01857            5400.00
01858            5800.00
01859            5800.00
01860            6000.00
01861            6200.00
01862            6200.00
01863            6600.00
01864            6800.00
01865            7000.00
01866            7000.00
01867            7400.00
01868            7400.00
01869            7800.00
01870            7800.00
01871            8200.00
01872            8400.00
01873            8400.00
01874            8600.00
01875            8600.00
01876            9000.00
01877            9000.00
01878            9200.00
01879            9400.00
01880            9400.00
01881            9400.00
01882            9800.00
01883           10000.00
01884           10000.00
01885           10200.00
01886           10200.00
01887           10400.00
01888           10600.00
01889           10600.00
01890           10600.00
01891           10800.00
01892           10800.00
01893           11000.00
01894           11000.00
01895           11200.00
01896           11400.00
01897           11400.00
01898           11600.00
01899           11600.00
01900           11600.00
01901           11600.00
01902           11800.00
01903           11800.00
01904           12000.00
01905           11800.00
01906           12200.00
01907           12200.00
01908           12200.00
01909           12200.00
01910           12200.00
01911           12200.00
01912           12400.00
01913           12200.00
01914           12200.00
01915           12200.00
01916           12400.00
01917           12200.00
01918           12200.00
01919           12200.00
01920           12200.00
01921           12200.00
01922           12200.00
01923           12200.00
01924           12200.00
01925           12200.00
01926           12000.00
01927           11800.00
01928           12200.00
01929           11800.00
01930           11800.00
01931           11800.00
01932           11600.00
01933           11600.00
01934           11600.00
01935           11600.00
01936           11600.00
01937           11400.00
01938           11000.00
01939           11000.00
01940           10800.00
01941           10800.00
01942           10800.00
01943           10600.00
01944           10600.00
01945           10200.00
01946           10000.00
01947           10200.00
01948           10000.00
01949            9800.00
01950            9800.00
01951            9400.00
01952            9400.00
01953            9200.00
01954            9000.00
01955            9000.00
01956            8600.00
01957            8600.00
01958            8400.00
01959            8400.00
01960            8400.00
01961            8200.00
01962            7800.00
01963            7600.00
01964            7400.00
01965            7400.00
01966            7000.00
01967            6800.00
01968            6800.00
01969            6600.00
01970            6200.00
01971            6000.00
01972            6000.00
01973            5800.00
01974            5400.00
01975            5400.00
01976            5200.00
01977            5000.00
01978            4600.00
01979            4400.00
01980            4200.00
01981            4000.00
01982            3800.00
01983            3600.00
01984            3600.00
01985            3400.00
01986            3000.00
01987            2800.00
01988            2600.00
01989            2200.00
01990            2000.00
01991            2000.00
01992            1800.00
01993            1400.00
01994            1200.00
01995            1000.00
01996             600.00
01997             400.00
01998             200.00
01999             200.00
02000            -200.00
02001            -400.00
02002            -600.00
02003            -800.00
02004           -1200.00
02005           -1200.00
02006           -1400.00
02007           -1600.00
02008           -2000.00
02009           -2200.00
02010           -2800.00
02011           -2800.00
02012           -2800.00
02013           -2800.00
02014           -3400.00
02015           -3600.00
02016           -3600.00
02017           -4200.00
02018           -4400.00
02019           -4400.00
02020           -4600.00
02021           -5000.00
02022           -5000.00
02023           -5200.00
02024           -5400.00
02025           -5800.00
02026           -6000.00
02027           -6000.00
02028           -6200.00
02029           -6600.00
02030           -6800.00
02031           -6800.00
02032           -7000.00
02033           -7200.00
02034           -7600.00
02035           -7600.00
02036           -7800.00
02037           -7800.00
02038           -8200.00
02039           -8400.00
02040           -8600.00
02041           -8600.00
02042           -8800.00
02043           -9200.00
02044           -9200.00
02045           -9400.00
02046           -9400.00
02047           -9600.00
02048           -9800.00
02049           -9800.00
02050          -10000.00
02051          -10200.00
02052          -10200.00
02053          -10400.00
02054          -10600.00
02055          -10600.00
02056          -10800.00
02057          -10800.00
02058          -11000.00
02059          -11000.00
02060          -11200.00
02061          -11000.00
02062          -11400.00
02063          -11400.00
02064          -11400.00
02065          -11600.00
02066          -11600.00
02067          -11800.00
02068          -11800.00
02069          -11800.00
02070          -11800.00
02071          -11800.00
02072          -11800.00
02073          -12000.00
02074          -12200.00
02075          -12000.00
02076          -12200.00
02077          -12400.00
02078          -12200.00
02079          -12200.00
02080          -12400.00
02081          -12200.00
02082          -12400.00
02083          -12400.00
02084          -12200.00
02085          -12200.00
02086          -12200.00
02087          -12400.00
02088          -12200.00
02089          -12200.00
02090          -12000.00
02091          -12200.00
02092          -12000.00
02093          -11800.00
02094          -11800.00
02095          -11800.00
02096          -11800.00
02097          -11800.00
02098          -11600.00
02099          -11600.00
02100          -11600.00
02101          -11400.00
02102          -11400.00
02103          -11400.00
02104          -11000.00
02105          -11000.00
02106          -10800.00
02107          -10800.00
02108          -10800.00
02109          -10600.00
02110          -10600.00
02111          -10200.00
02112          -10200.00
02113          -10200.00
02114          -10000.00
02115          -10000.00
02116           -9800.00
02117           -9400.00
02118           -9200.00
02119           -9200.00
02120           -9200.00
02121           -9000.00
02122           -8600.00
02123           -8600.00
02124           -8400.00
02125           -8400.00
02126           -8200.00
02127           -7800.00
02128           -7800.00
02129           -7600.00
02130           -7600.00
02131           -7400.00
02132           -7000.00
02133           -7000.00
02134           -6800.00
02135           -6600.00
02136           -6200.00
02137           -6000.00
02138           -6000.00
02139           -5800.00
02140           -5400.00
02141           -5200.00
02142           -5200.00
02143           -5000.00
02144           -4600.00
02145           -4600.00
02146           -4400.00
02147           -4200.00
02148           -3800.00
02149           -3800.00
02150           -3400.00
02151           -3000.00
02152           -3000.00
02153           -2800.00
02154           -2600.00
02155           -2200.00
02156           -2200.00
02157           -2000.00
02158           -1800.00
02159           -1400.00
02160           -1200.00
02161           -1000.00
02162            -600.00
02163            -600.00
02164            -200.00
02165            -200.00
02166             200.00
02167             400.00
02168             600.00
02169            1000.00
02170            1200.00
02171            1200.00
02172            1600.00
02173            1800.00
02174            2000.00
02175            2200.00
02176            2600.00
02177            2800.00
02178            2800.00
02179            3000.00
02180            3400.00
02181            3600.00
02182            3600.00
02183            4200.00
02184            4200.00
02185            4400.00
02186            4400.00
02187            5000.00
02188            5200.00
02189            5200.00
02190            5400.00
02191            5800.00
02192            6000.00
02193            6000.00
02194            6400.00
02195            6600.00
02196            6800.00
02197            6800.00
02198            7000.00
02199            7400.00
02200            7400.00
02201            7600.00
02202            7800.00
02203            8000.00
02204            8200.00
02205            8400.00
02206            8600.00
02207            8600.00
02208            9000.00
02209            9000.00
02210            9000.00
02211            9200.00
02212            9400.00
02213            9800.00
02214            9800.00
02215           10000.00
02216           10000.00
02217           10200.00
02218           10200.00
02219           10400.00
02220           10600.00
02221           10600.00
02222           10800.00
02223           10800.00
02224           11000.00
02225           11000.00
02226           11000.00
02227           11200.00
02228           11400.00
02229           11400.00
02230           11600.00
02231           11600.00
02232           11600.00
02233           11800.00
02234           11800.00
02235           11800.00
02236           12200.00
02237           12000.00
02238           12200.00
02239           12200.00
02240           12200.00
02241           12200.00
02242           12200.00
02243           12200.00
02244           12200.00
02245           12200.00
02246           12400.00
02247           12200.00
02248           12200.00
02249           12200.00
02250           12200.00
02251           12200.00
02252           12200.00
02253           12200.00
02254           12200.00
02255           12200.00
02256           12200.00
02257           12200.00
02258           12200.00
02259           12000.00
02260           11800.00
02261           11800.00
02262           11800.00
02263           11800.00
02264           11800.00
02265           11600.00
02266           11600.00
02267           11600.00
02268           11600.00
02269           11200.00
02270           11000.00
02271           11200.00
02272           11000.00
02273           10800.00
02274           10600.00
02275           10600.00
02276           10600.00
02277           10600.00
02278           10200.00
02279           10200.00
02280           10000.00
02281           10000.00
02282            9800.00
02283            9400.00
02284            9400.00
02285            9200.00
02286            9000.00
02287            9000.00
02288            9000.00
02289            8600.00
02290            8400.00
02291            8400.00
02292            8200.00
02293            7800.00
02294            7800.00
02295            7800.00
02296            7400.00
02297            7400.00
02298            7000.00
02299            6800.00
02300            6800.00
02301            6600.00
02302            6400.00
02303            6200.00
02304            6000.00
02305            5800.00
02306            5800.00
02307            5200.00
02308            5200.00
02309            5000.00
02310            5000.00
02311            4400.00
02312            4400.00
02313            4200.00
02314            3800.00
02315            3600.00
02316            3400.00
02317            3400.00
02318            3000.00
02319            2800.00
02320            2600.00
02321            2400.00
02322            2000.00
02323            1800.00
02324            1400.00
02325            1400.00
02326            1200.00
02327            1000.00
02328             600.00
02329             400.00
02330             400.00
02331             200.00
02332            -200.00
02333            -400.00
02334            -600.00
02335            -600.00
02336           -1200.00
02337           -1200.00
02338           -1400.00
02339           -1800.00
02340           -2000.00
02341           -2200.00
02342           -2800.00
02343           -3000.00
02344           -2800.00
02345           -2800.00
02346           -3400.00
02347           -3600.00
02348           -3600.00
02349           -3800.00
02350           -4400.00
02351           -4200.00
02352           -4600.00
02353           -5000.00
02354           -5000.00
02355           -5200.00
02356           -5400.00
02357           -5600.00
02358           -6000.00
02359           -6000.00
02360           -6000.00
02361           -6600.00
02362           -6800.00
02363           -6800.00
02364           -7000.00
02365           -7000.00
02366           -7400.00
02367           -7600.00
02368           -7600.00
02369           -8200.00
02370           -8200.00
02371           -8400.00
02372           -8600.00
02373           -8600.00
02374           -8800.00
02375           -9000.00
02376           -9200.00
02377           -9200.00
02378           -9400.00
02379           -9400.00
02380           -9600.00
02381           -9800.00
02382          -10000.00
02383          -10000.00
02384          -10200.00
02385          -10200.00
02386          -10400.00
02387          -10600.00
02388          -10800.00
02389          -10800.00
02390          -10800.00
02391          -10800.00
02392          -11000.00
02393          -11000.00
02394          -11400.00
02395          -11400.00
02396          -11600.00
02397          -11600.00
02398          -11600.00
02399          -11600.00
02400          -11800.00
02401          -11600.00
02402          -11800.00
02403          -11800.00
02404          -12000.00
02405          -12200.00
02406          -12200.00
02407          -12200.00
02408          -12200.00
02409          -12200.00
02410          -12400.00
02411          -12400.00
02412          -12200.00
02413          -12200.00
02414          -12400.00
02415          -12400.00
02416          -12400.00
02417          -12200.00
02418          -12200.00
02419          -12400.00
02420          -12400.00
02421          -12200.00
02422          -12200.00
02423          -12200.00
02424          -12000.00
02425          -11800.00
02426          -11800.00
02427          -11800.00
02428          -11800.00
02429          -11800.00
02430          -11600.00
02431          -11600.00
02432          -11600.00
02433          -11400.00
02434          -11400.00
02435          -11000.00
02436          -11400.00
02437          -11000.00
02438          -11000.00
02439          -10800.00
02440          -10800.00
02441          -10800.00
02442          -10600.00
02443          -10200.00
02444          -10200.00
02445          -10200.00
02446          -10000.00
02447           -9800.00
02448           -9600.00
02449           -9800.00
02450           -9400.00
02451           -9200.00
02452           -9200.00
02453           -9000.00
02454           -9000.00
02455           -8600.00
02456           -8600.00
02457           -8400.00
02458           -8200.00
02459           -8200.00
02460           -7800.00
02461           -7600.00
02462           -7600.00
02463           -7400.00
02464           -7000.00
02465           -7000.00
02466           -6800.00
02467           -6600.00
02468           -6200.00
02469           -6200.00
02470           -6000.00
02471           -5800.00
02472           -5800.00
02473           -5400.00
02474           -5200.00
02475           -5000.00
02476           -4600.00
02477           -4600.00
02478           -4400.00
02479           -4200.00
02480           -3800.00
02481           -3800.00
02482           -3400.00
02483           -3000.00
02484           -3000.00
02485           -2800.00
02486           -2600.00
02487           -2200.00
02488           -2200.00
02489           -2000.00
02490           -1600.00
02491           -1400.00
02492           -1200.00
02493           -1000.00
02494            -600.00
02495            -600.00
02496            -200.00
02497            -200.00
02498             200.00
02499             400.00
02500             600.00
02501             800.00
02502            1000.00
02503            1200.00
02504            1400.00
02505            1800.00
02506            2000.00
02507            2200.00
02508            2600.00
02509            2800.00
02510            2800.00
02511            3000.00
02512            3400.00
02513            3600.00
02514            3600.00
02515            4000.00
02516            4200.00
02517            4200.00
02518            4600.00
02519            4800.00
02520            5000.00
02521            5200.00
02522            5400.00
02523            5800.00
02524            5800.00
02525            6000.00
02526            6200.00
02527            6600.00
02528            6800.00
02529            6800.00
02530            7000.00
02531            7400.00
02532            7600.00
02533            7600.00
02534            7800.00
02535            8000.00
02536            8200.00
02537            8200.00
02538            8400.00
02539            8600.00
02540            8600.00
02541            9000.00
02542            9000.00
02543            9200.00
02544            9400.00
02545            9400.00
02546            9800.00
02547           10000.00
02548           10000.00
02549           10000.00
02550           10200.00
02551           10400.00
02552           10600.00
02553           10800.00
02554           10600.00
02555           10800.00
02556           10800.00
02557           11000.00
02558           11000.00
02559           11000.00
02560           11400.00
02561           11400.00
02562           11600.00
02563           11600.00
02564           11600.00
02565           11600.00
02566           11800.00
02567           11800.00
02568           12000.00
02569           11800.00
02570           12200.00
02571           12000.00
02572           12200.00
02573           12200.00
02574           12200.00
02575           12200.00
02576           12200.00
02577           12200.00
02578           12200.00
02579           12200.00
02580           12200.00
02581           12200.00
02582           12200.00
02583           12400.00
02584           12200.00
02585           12200.00
02586           12200.00
02587           12200.00
02588           12200.00
02589           12200.00
02590           11800.00
02591           11800.00
02592           11800.00
02593           11800.00
02594           11800.00
02595           11800.00
02596           11600.00
02597           11600.00
02598           11600.00
02599           11600.00
02600           11400.00
02601           11400.00
02602           11000.00
02603           11200.00
02604           10800.00
02605           10800.00
02606           10600.00
02607           10600.00
02608           10800.00
02609           10400.00
02610           10200.00
02611           10200.00
02612           10000.00
02613            9800.00
02614            9800.00
02615            9800.00
02616            9400.00
02617            9400.00
02618            9200.00
02619            9000.00
02620            9000.00
02621            8600.00
02622            8400.00
02623            8400.00
02624            8400.00
02625            8200.00
02626            7800.00
02627            7600.00
02628            7600.00
02629            7400.00
02630            7000.00
02631            6800.00
02632            6800.00
02633            6600.00
02634            6400.00
02635            6200.00
02636            6000.00
02637            5800.00
02638            5600.00
02639            5400.00
02640            5200.00
02641            5000.00
02642            4800.00
02643            4600.00
02644            4400.00
02645            4200.00
02646            3800.00
02647            3600.00
02648            3600.00
02649            3400.00
02650            3000.00
02651            2800.00
02652            2600.00
02653            2200.00
02654            2000.00
02655            1800.00
02656            1800.00
02657            1400.00
02658            1200.00
02659            1000.00
02660             600.00
02661             400.00
02662             400.00
02663             200.00
02664            -200.00
02665            -400.00
02666            -600.00
02667            -800.00
02668           -1000.00
02669           -1200.00
02670           -1200.00
02671           -1800.00
02672           -2000.00
02673           -2200.00
02674           -2600.00
02675           -3000.00
02676           -2800.00
02677           -2800.00
02678           -3000.00
02679           -3600.00
02680           -3600.00
02681           -3800.00
02682           -4400.00
02683           -4400.00
02684           -4400.00
02685           -5000.00
02686           -5000.00
02687           -5200.00
02688           -5400.00
02689           -5400.00
02690           -6000.00
02691           -6000.00
02692           -6200.00
02693           -6600.00
02694           -6600.00
02695           -6800.00
02696           -7000.00
02697           -7400.00
02698           -7400.00
02699           -7600.00
02700           -7600.00
02701           -7800.00
02702           -8200.00
02703           -8400.00
02704           -8400.00
02705           -8600.00
02706           -8600.00
02707           -9000.00
02708           -9200.00
02709           -9200.00
02710           -9200.00
02711           -9400.00
02712           -9800.00
02713           -9800.00
02714           -9800.00
02715          -10200.00
02716          -10200.00
02717          -10200.00
02718          -10600.00
02719          -10600.00
02720          -10800.00
02721          -10800.00
02722          -10800.00
02723          -10800.00
02724          -11000.00
02725          -11000.00
02726          -11400.00
02727          -11600.00
02728          -11600.00
02729          -11600.00
02730          -11600.00
02731          -11800.00
02732          -11800.00
02733          -11600.00
02734          -11800.00
02735          -11800.00
02736          -12000.00
02737          -12200.00
02738          -12200.00
02739          -11800.00
02740          -12200.00
02741          -12400.00
02742          -12200.00
02743          -12400.00
02744          -12200.00
02745          -12200.00
02746          -12400.00
02747          -12200.00
02748          -12200.00
02749          -12200.00
02750          -12200.00
02751          -12200.00
02752          -12200.00
02753          -12000.00
02754          -12200.00
02755          -12000.00
02756          -11800.00
02757          -11800.00
02758          -11800.00
02759          -11800.00
02760          -11800.00
02761          -11600.00
02762          -11600.00
02763          -11600.00
02764          -11600.00
02765          -11400.00
02766          -11400.00
02767          -11000.00
02768          -11000.00
02769          -11000.00
02770          -10800.00
02771          -10800.00
02772          -10800.00
02773          -10800.00
02774          -10600.00
02775          -10600.00
02776          -10200.00
02777          -10200.00
02778          -10200.00
02779           -9800.00
02780           -9800.00
02781           -9400.00
02782           -9400.00
02783           -9200.00
02784           -9200.00
02785           -9000.00
02786           -8800.00
02787           -8600.00
02788           -8600.00
02789           -8400.00
02790           -8200.00
02791           -8000.00
02792           -7800.00
02793           -7600.00
02794           -7600.00
02795           -7400.00
02796           -7000.00
02797           -7000.00
02798           -6800.00
02799           -6600.00
02800           -6600.00
02801           -6200.00
02802           -6000.00
02803           -5800.00
02804           -5800.00
02805           -5400.00
02806           -5200.00
02807           -5000.00
02808           -4800.00
02809           -4600.00
02810           -4400.00
02811           -4200.00
02812           -3800.00
02813           -3800.00
02814           -3600.00
02815           -3400.00
02816           -3000.00
02817           -2800.00
02818           -2600.00
02819           -2600.00
02820           -2200.00
02821           -2000.00
02822           -1800.00
02823           -1400.00
02824           -1200.00
02825           -1000.00
02826            -600.00
02827            -600.00
02828            -400.00
02829             200.00
02830             200.00
02831             400.00
02832             600.00
02833            1000.00
02834            1000.00
02835            1200.00
02836            1400.00
02837            1600.00
02838            1800.00
02839            2200.00
02840            2400.00
02841            2800.00
02842            2800.00
02843            3000.00
02844            3400.00
02845            3600.00
02846            3600.00
02847            3800.00
02848            4200.00
02849            4200.00
02850            4600.00
02851            4800.00
02852            5000.00
02853            5200.00
02854            5400.00
02855            5800.00
02856            5800.00
02857            6000.00
02858            6200.00
02859            6400.00
02860            6800.00
02861            6800.00
02862            7000.00
02863            7200.00
02864            7400.00
02865            7600.00
02866            7800.00
02867            7800.00
02868            8200.00
02869            8400.00
02870            8400.00
02871            8400.00
02872            8800.00
02873            9000.00
02874            9000.00
02875            9200.00
02876            9400.00
02877            9400.00
02878            9800.00
02879            9800.00
02880           10000.00
02881           10000.00
02882           10400.00
02883           10200.00
02884           10600.00
02885           10600.00
02886           10800.00
02887           10800.00
02888           10800.00
02889           11000.00
02890           11000.00
02891           11400.00
02892           11400.00
02893           11400.00
02894           11600.00
02895           11600.00
02896           11600.00
02897           11800.00
02898           11800.00
02899           12200.00
02900           11800.00
02901           12000.00
02902           11800.00
02903           12200.00
02904           12200.00
02905           12200.00
02906           12200.00
02907           12200.00
02908           12400.00
02909           12200.00
02910           12200.00
02911           12400.00
02912           12200.00
02913           12400.00
02914           12200.00
02915           12200.00
02916           12200.00
02917           12200.00
02918           12200.00
02919           12200.00
02920           12200.00
02921           12200.00
02922           12000.00
02923           12000.00
02924           11800.00
02925           11800.00
02926           11800.00
02927           11600.00
02928           11600.00
02929           11600.00
02930           11600.00
02931           11400.00
02932           11400.00
02933           11400.00
02934           11200.00
02935           11200.00
02936           10800.00
02937           10800.00
02938           10800.00
02939           10600.00
02940           10600.00
02941           10600.00
02942           10200.00
02943           10200.00
02944           10200.00
02945           10000.00
02946            9800.00
02947            9800.00
02948            9400.00
02949            9400.00
02950            9200.00
02951            9000.00
02952            9000.00
02953            8600.00
02954            8600.00
02955            8600.00
02956            8200.00
02957            8200.00
02958            7800.00
02959            7800.00
02960            7600.00
02961            7400.00
02962            7400.00
02963            7000.00
02964            6800.00
02965            6800.00
02966            6600.00
02967            6200.00
02968            6000.00
02969            5800.00
02970            5800.00
02971            5400.00
02972            5400.00
02973            5200.00
02974            4800.00
02975            4600.00
02976            4400.00
02977            4200.00
02978            3800.00
02979            3800.00
02980            3600.00
02981            3400.00
02982            3000.00
02983            2800.00
02984            2600.00
02985            2200.00
02986            2200.00
02987            2000.00
02988            1800.00
02989            1400.00
02990            1200.00
02991            1000.00
02992             600.00
02993             600.00
02994             400.00
02995             200.00
02996            -200.00
02997            -400.00
02998            -600.00
02999            -800.00
03000           -1200.00
03001           -1200.00
03002           -1400.00
03003           -1600.00
03004           -1800.00
03005           -2200.00
03006           -2600.00
03007           -3000.00
03008           -2800.00
03009           -2800.00
03010           -3200.00
03011           -3600.00
03012           -3600.00
03013           -3800.00
03014           -4200.00
03015           -4200.00
03016           -4400.00
03017           -4600.00
03018           -5000.00
03019           -5000.00
03020           -5400.00
03021           -5600.00
03022           -5800.00
03023           -6000.00
03024           -6000.00
03025           -6400.00
03026           -6600.00
03027           -6800.00
03028           -7000.00
03029           -7000.00
03030           -7400.00
03031           -7600.00
03032           -7600.00
03033           -7600.00
03034           -8200.00
03035           -8200.00
03036           -8400.00
03037           -8600.00
03038           -8600.00
03039           -9000.00
03040           -9000.00
03041           -9200.00
03042           -9200.00
03043           -9400.00
03044           -9400.00
03045          -10000.00
03046          -10000.00
03047          -10000.00
03048          -10200.00
03049          -10200.00
03050          -10600.00
03051          -10600.00
03052          -10600.00
03053          -10800.00
03054          -11000.00
03055          -11000.00
03056          -11000.00
03057          -11000.00
03058          -11400.00
03059          -11400.00
03060          -11600.00
03061          -11600.00
03062          -11600.00
03063          -11800.00
03064          -11800.00
03065          -11800.00
03066          -11800.00
03067          -11800.00
03068          -12200.00
03069          -12200.00
03070          -12200.00
03071          -12200.00
03072          -12400.00
03073          -12200.00
03074          -12200.00
03075          -12200.00
03076          -12200.00
03077          -12400.00
03078          -12400.00
03079          -12400.00
03080          -12200.00
03081          -12200.00
03082          -12200.00
03083          -12200.00
03084          -12200.00
03085          -12200.00
03086          -12000.00
03087          -12200.00
03088          -11800.00
03089          -11800.00
03090          -11800.00
03091          -11800.00
03092          -11600.00
03093          -11800.00
03094          -11600.00
03095          -11400.00
03096          -11600.00
03097          -11400.00
03098          -11400.00
03099          -11200.00
03100          -11000.00
03101          -11000.00
03102          -11000.00
03103          -10800.00
03104          -10800.00
03105          -10600.00
03106          -10600.00
03107          -10400.00
03108          -10200.00
03109          -10200.00
03110          -10000.00
03111           -9800.00
03112           -9800.00
03113           -9400.00
03114           -9400.00
03115           -9200.00
03116           -9200.00
03117           -9200.00
03118           -9000.00
03119           -8600.00
03120           -8600.00
03121           -8600.00
03122           -8400.00
03123           -8200.00
03124           -8000.00
03125           -7800.00
03126           -7600.00
03127           -7400.00
03128           -7200.00
03129           -7000.00
03130           -7000.00
03131           -6800.00
03132           -6400.00
03133           -6200.00
03134           -6000.00
03135           -6000.00
03136           -5800.00
03137           -5400.00
03138           -5200.00
03139           -5000.00
03140           -5000.00
03141           -4600.00
03142           -4400.00
03143           -4200.00
03144           -3800.00
03145           -3800.00
03146           -3600.00
03147           -3400.00
03148           -3000.00
03149           -2800.00
03150           -2600.00
03151           -2200.00
03152           -2200.00
03153           -2000.00
03154           -1800.00
03155           -1400.00
03156           -1200.00
03157           -1000.00
03158            -600.00
03159            -600.00
03160            -400.00
03161            -200.00
03162             200.00
03163             400.00
03164             600.00
03165            1000.00
03166            1000.00
03167            1200.00
03168            1200.00
03169            1600.00
03170            2000.00
03171            2200.00
03172            2400.00
03173            2600.00
03174            2800.00
03175            3000.00
03176            3200.00
03177            3400.00
03178            3600.00
03179            3800.00
03180            4200.00
03181            4200.00
03182            4400.00
03183            4600.00
03184            5000.00
03185            5200.00
03186            5400.00
03187            5400.00
03188            5800.00
03189            6000.00
03190            6000.00
03191            6200.00
03192            6600.00
03193            6800.00
03194            7000.00
03195            7000.00
03196            7400.00
03197            7600.00
03198            7600.00
03199            7800.00
03200            8200.00
03201            8200.00
03202            8400.00
03203            8600.00
03204            8400.00
03205            9000.00
03206            9000.00
03207            9200.00
03208            9200.00
03209            9400.00
03210            9800.00
03211            9800.00
03212            9800.00
03213           10000.00
03214           10200.00
03215           10200.00
03216           10600.00
03217           10600.00
03218           10800.00
03219           10800.00
03220           11000.00
03221           11000.00
03222           11400.00
03223           11000.00
03224           11400.00
03225           11600.00
03226           11600.00
03227           11600.00
03228           11600.00
03229           11800.00
03230           11800.00
03231           12000.00
03232           12000.00
03233           12200.00
03234           12200.00
03235           12200.00
03236           12200.00
03237           12200.00
03238           12200.00
03239           12200.00
03240           12200.00
03241           12200.00
03242           12200.00
03243           12200.00
03244           12200.00
03245           12400.00
03246           12200.00
03247           12200.00
03248           12200.00
03249           12200.00
03250           12200.00
03251           12200.00
03252           12000.00
03253           12200.00
03254           11800.00
03255           12200.00
03256           11800.00
03257           11800.00
03258           11800.00
03259           11600.00
03260           11600.00
03261           11600.00
03262           11600.00
03263           11600.00
03264           11400.00
03265           11400.00
03266           11400.00
03267           11000.00
03268           11000.00
03269           10800.00
03270           10800.00
03271           10600.00
03272           10600.00
03273           10600.00
03274           10400.00
03275           10200.00
03276           10200.00
03277           10000.00
03278           10000.00
03279            9800.00
03280            9600.00
03281            9400.00
03282            9200.00
03283            9200.00
03284            9000.00
03285            8800.00
03286            8600.00
03287            8400.00
03288            8400.00
03289            8200.00
03290            8000.00
03291            7800.00
03292            7800.00
03293            7400.00
03294            7400.00
03295            7000.00
03296            7000.00
03297            6600.00
03298            6400.00
03299            6200.00
03300            6000.00
03301            6000.00
03302            5800.00
03303            5400.00
03304            5200.00
03305            5200.00
03306            4600.00
03307            4600.00
03308            4400.00
03309            4200.00
03310            3800.00
03311            3800.00
03312            3600.00
03313            3400.00
03314            3000.00
03315            2800.00
03316            2600.00
03317            2400.00
03318            2000.00
03319            1800.00
03320            1800.00
03321            1600.00
03322            1200.00
03323            1000.00
03324             800.00
03325             600.00
03326             400.00
03327             200.00
03328            -200.00
03329            -400.00
03330            -600.00
03331            -600.00
03332           -1000.00
03333           -1200.00
03334           -1400.00
03335           -1400.00
03336           -1800.00
03337           -2000.00
03338           -2600.00
03339           -2800.00
03340           -2800.00
03341           -2800.00
03342           -3000.00
03343           -3600.00
03344           -3600.00
03345           -3800.00
03346           -4200.00
03347           -4400.00
03348           -4400.00
03349           -4800.00
03350           -5000.00
03351           -5200.00
03352           -5400.00
03353           -5400.00
03354           -5800.00
03355           -6000.00
03356           -6000.00
03357           -6200.00
03358           -6800.00
03359           -6800.00
03360           -7000.00
03361           -7000.00
03362           -7400.00
03363           -7400.00
03364           -7600.00
03365           -7800.00
03366           -8200.00
03367           -8200.00
03368           -8400.00
03369           -8600.00
03370           -8600.00
03371           -8800.00
03372           -9000.00
03373           -9200.00
03374           -9200.00
03375           -9400.00
03376           -9600.00
03377          -10000.00
03378          -10000.00
03379          -10200.00
03380          -10200.00
03381          -10200.00
03382          -10600.00
03383          -10600.00
03384          -10800.00
03385          -10800.00
03386          -10800.00
03387          -10800.00
03388          -11000.00
03389          -11000.00
03390          -11400.00
03391          -11400.00
03392          -11600.00
03393          -11600.00
03394          -11800.00
03395          -11600.00
03396          -11800.00
03397          -11800.00
03398          -11800.00
03399          -11800.00
03400          -12400.00
03401          -12200.00
03402          -12200.00
03403          -12200.00
03404          -12200.00
03405          -12200.00
03406          -12200.00
03407          -12200.00
03408          -12400.00
03409          -12200.00
03410          -12200.00
03411          -12400.00
03412          -12200.00
03413          -12200.00
03414          -12400.00
03415          -12200.00
03416          -12200.00
03417          -12200.00
03418          -12000.00
03419          -12200.00
03420          -11800.00
03421          -11800.00
03422          -12000.00
03423          -11800.00
03424          -11800.00
03425          -11600.00
03426          -11600.00
03427          -11600.00
03428          -11600.00
03429          -11400.00
03430          -11400.00
03431          -11400.00
03432          -11200.00
03433          -11200.00
03434          -11000.00
03435          -10800.00
03436          -10600.00
03437          -10800.00
03438          -10600.00
03439          -10200.00
03440          -10200.00
03441          -10200.00
03442          -10200.00
03443          -10000.00
03444           -9800.00
03445           -9800.00
03446           -9400.00
03447           -9200.00
03448           -9200.00
03449           -9200.00
03450           -9000.00
03451           -9000.00
03452           -8600.00
03453           -8400.00
03454           -8400.00
03455           -8200.00
03456           -8000.00
03457           -7600.00
03458           -7600.00
03459           -7400.00
03460           -7400.00
03461           -7000.00
03462           -7000.00
03463           -6800.00
03464           -6600.00
03465           -6400.00
03466           -6000.00
03467           -6000.00
03468           -5800.00
03469           -5400.00
03470           -5200.00
03471           -5200.00
03472           -4800.00
03473           -4600.00
03474           -4400.00
03475           -4200.00
03476           -3800.00
03477           -3800.00
03478           -3600.00
03479           -3400.00
03480           -3000.00
03481           -2800.00
03482           -2600.00
03483           -2400.00
03484           -2200.00
03485           -2000.00
03486           -1800.00
03487           -1600.00
03488           -1200.00
03489           -1200.00
03490           -1000.00
03491            -600.00
03492            -400.00
03493            -200.00
03494             200.00
03495             200.00
03496             400.00
03497             600.00
03498            1000.00
03499            1200.00
03500            1200.00
03501            1400.00
03502            1800.00
03503            2200.00
03504            2400.00
03505            2600.00
03506            2800.00
03507            2800.00
03508            3000.00
03509            3400.00
03510            3400.00
03511            3600.00
03512            4200.00
03513            4200.00
03514            4400.00
03515            4600.00
03516            5000.00
03517            5000.00
03518            5200.00
03519            5600.00
03520            5800.00
03521            6000.00
03522            6000.00
03523            6200.00
03524            6600.00
03525            6600.00
03526            6800.00
03527            7000.00
03528            7400.00
03529            7600.00
03530            7600.00
03531            7800.00
03532            8200.00
03533            8200.00
03534            8400.00
03535            8600.00
03536            8600.00
03537            9000.00
03538            9200.00
03539            9200.00
03540            9200.00
03541            9600.00
03542            9400.00
03543           10000.00
03544           10000.00
03545           10000.00
03546           10000.00
03547           10200.00
03548           10600.00
03549           10600.00
03550           10800.00
03551           10800.00
03552           10800.00
03553           11000.00
03554           11200.00
03555           11200.00
03556           11400.00
03557           11400.00
03558           11600.00
03559           11600.00
03560           11800.00
03561           11600.00
03562           11800.00
03563           11800.00
03564           12000.00
03565           11800.00
03566           12200.00
03567           12200.00
03568           12200.00
03569           12200.00
03570           12200.00
03571           12200.00
03572           12200.00
03573           12200.00
03574           12200.00
03575           12400.00
03576           12200.00
03577           12200.00
03578           12200.00
03579           12200.00
03580           12200.00
03581           12200.00
03582           12200.00
03583           12200.00
03584           12000.00
03585           12200.00
03586           12200.00
03587           12200.00
03588           12000.00
03589           11800.00
03590           11800.00
03591           11800.00
03592           11600.00
03593           11600.00
03594           11600.00
03595           11600.00
03596           11400.00
03597           11400.00
03598           11400.00
03599           11000.00
03600           11000.00
03601           10800.00
03602           10800.00
03603           10600.00
03604           10600.00
03605           10600.00
03606           10600.00
03607           10200.00
03608           10000.00
03609           10000.00
03610            9800.00
03611            9800.00
03612            9800.00
03613            9400.00
03614            9400.00
03615            9000.00
03616            9000.00
03617            8800.00
03618            8600.00
03619            8400.00
03620            8400.00
03621            8200.00
03622            8000.00
03623            7800.00
03624            7800.00
03625            7400.00
03626            7400.00
03627            7200.00
03628            6800.00
03629            6800.00
03630            6600.00
03631            6400.00
03632            6000.00
03633            6000.00
03634            5800.00
03635            5600.00
03636            5400.00
03637            5000.00
03638            4800.00
03639            4600.00
03640            4400.00
03641            4200.00
03642            3800.00
03643            3800.00
03644            3600.00
03645            3400.00
03646            3200.00
03647            2800.00
03648            2600.00
03649            2600.00
03650            2200.00
03651            2000.00
03652            1800.00
03653            1800.00
03654            1200.00
03655            1000.00
03656            1000.00
03657             600.00
03658             400.00
03659             200.00
03660               0.00
03661            -400.00
03662            -400.00
03663            -800.00
03664           -1000.00
03665           -1200.00
03666           -1200.00
03667           -1400.00
03668           -1800.00
03669           -2000.00
03670           -2200.00
03671           -2800.00
03672           -2800.00
03673           -2800.00
03674           -2800.00
03675           -3600.00
03676           -3600.00
03677           -3800.00
03678           -3800.00
03679           -4400.00
03680           -4400.00
03681           -4600.00
03682           -5000.00
03683           -5000.00
03684           -5200.00
03685           -5400.00
03686           -5600.00
03687           -6000.00
03688           -6000.00
03689           -6200.00
03690           -6600.00
03691           -6800.00
03692           -7000.00
03693           -7000.00
03694           -7200.00
03695           -7600.00
03696           -7600.00
03697           -7600.00
03698           -8200.00
03699           -8200.00
03700           -8400.00
03701           -8600.00
03702           -8600.00
03703           -9000.00
03704           -9000.00
03705           -9200.00
03706           -9400.00
03707           -9400.00
03708           -9800.00
03709          -10000.00
03710          -10000.00
03711          -10200.00
03712          -10200.00
03713          -10200.00
03714          -10600.00
03715          -10600.00
03716          -10800.00
03717          -10800.00
03718          -10800.00
03719          -11000.00
03720          -11000.00
03721          -11400.00
03722          -11200.00
03723          -11400.00
03724          -11600.00
03725          -11600.00
03726          -11600.00
03727          -11600.00
03728          -11800.00
03729          -11800.00
03730          -11800.00
03731          -12200.00
03732          -12200.00
03733          -12200.00
03734          -12200.00
03735          -12000.00
03736          -12200.00
03737          -12200.00
03738          -12200.00
03739          -12200.00
03740          -12200.00
03741          -12400.00
03742          -12200.00
03743          -12200.00
03744          -12200.00
03745          -12200.00
03746          -12200.00
03747          -12200.00
03748          -12200.00
03749          -12200.00
03750          -12200.00
03751          -12000.00
03752          -11800.00
03753          -12000.00
03754          -12000.00
03755          -11800.00
03756          -11800.00
03757          -11800.00
03758          -11600.00
03759          -11600.00
03760          -11600.00
03761          -11400.00
03762          -11400.00
03763          -11400.00
03764          -11000.00
03765          -11000.00
03766          -10800.00
03767          -10800.00
03768          -10800.00
03769          -10800.00
03770          -10600.00
03771          -10600.00
03772          -10400.00
03773          -10200.00
03774          -10200.00
03775          -10000.00
03776           -9800.00
03777           -9800.00
03778           -9400.00
03779           -9400.00
03780           -9400.00
03781           -9200.00
03782           -9000.00
03783           -9000.00
03784           -8600.00
03785           -8600.00
03786           -8400.00
03787           -8400.00
03788           -8200.00
03789           -7800.00
03790           -7800.00
03791           -7400.00
03792           -7400.00
03793           -7200.00
03794           -6800.00
03795           -7000.00
03796           -6600.00
03797           -6400.00
03798           -6200.00
03799           -6000.00
03800           -5800.00
03801           -5400.00
03802           -5400.00
03803           -5200.00
03804           -4800.00
03805           -4600.00
03806           -4400.00
03807           -4200.00
03808           -3800.00
03809           -3800.00
03810           -3600.00
03811           -3400.00
03812           -3200.00
03813           -2800.00
03814           -2600.00
03815           -2200.00
03816           -2200.00
03817           -2000.00
03818           -1800.00
03819           -1800.00
03820           -1200.00
03821           -1200.00
03822           -1000.00
03823            -600.00
03824            -400.00
03825            -200.00
03826            -200.00
03827             200.00
03828             600.00
03829             600.00
03830             800.00
03831            1200.00
03832            1400.00
03833            1400.00
03834            1800.00
03835            2000.00
03836            2200.00
03837            2600.00
03838            2800.00
03839            2800.00
03840            3000.00
03841            3400.00
03842            3400.00
03843            3600.00
03844            4000.00
03845            4200.00
03846            4400.00
03847            4600.00
03848            5000.00
03849            5200.00
03850            5200.00
03851            5400.00
03852            5800.00
03853            6000.00
03854            6000.00
03855            6200.00
03856            6600.00
03857            6800.00
03858            6800.00
03859            7000.00
03860            7400.00
03861            7600.00
03862            7600.00
03863            7800.00
03864            8200.00
03865            8200.00
03866            8400.00
03867            8600.00
03868            8600.00
03869            9000.00
03870            9000.00
03871            9200.00
03872            9400.00
03873            9400.00
03874            9600.00
03875            9800.00
03876           10000.00
03877           10000.00
03878           10200.00
03879           10200.00
03880           10600.00
03881           10600.00
03882           10800.00
03883           10600.00
03884           11000.00
03885           11000.00
03886           11400.00
03887           11400.00
03888           11400.00
03889           11400.00
03890           11600.00
03891           11600.00
03892           11600.00
03893           11800.00
03894           11800.00
03895           11800.00
03896           11800.00
03897           11800.00
03898           11800.00
03899           12200.00
03900           12200.00
03901           12200.00
03902           12000.00
03903           12200.00
03904           12200.00
03905           12200.00
03906           12200.00
03907           12200.00
03908           12200.00
03909           12200.00
03910           12200.00
03911           12200.00
03912           12200.00
03913           12200.00
03914           12200.00
03915           12200.00
03916           12200.00
03917           12200.00
03918           12000.00
03919           12200.00
03920           12200.00
03921           11800.00
03922           11800.00
03923           11800.00
03924           11600.00
03925           11600.00
03926           11600.00
03927           11600.00
03928           11600.00
03929           11400.00
03930           11400.00
03931           11200.00
03932           11000.00
03933           10800.00
03934           10800.00
03935           10800.00
03936           10600.00
03937           10600.00
03938           10600.00
03939           10200.00
03940           10000.00
03941           10000.00
03942           10000.00
03943            9800.00
03944            9800.00
03945            9400.00
03946            9200.00
03947            9200.00
03948            9000.00
03949            9000.00
03950            8600.00
03951            8600.00
03952            8400.00
03953            8400.00
03954            8200.00
03955            7800.00
03956            7600.00
03957            7600.00
03958            7400.00
03959            7000.00
03960            7000.00
03961            6800.00
03962            6600.00
03963            6200.00
03964            6000.00
03965            6000.00
03966            5800.00
03967            5600.00
03968            5200.00
03969            5000.00
03970            5000.00
03971            4600.00
03972            4400.00
03973            4200.00
03974            4200.00
03975            3800.00
03976            3600.00
03977            3400.00
03978            3400.00
03979            3000.00
03980            2800.00
03981            2600.00
03982            2200.00
03983            2000.00
03984            2000.00
03985            1400.00
03986            1200.00
03987            1200.00
03988            1000.00
03989             800.00
03990             400.00
03991             200.00
03992            -200.00
03993            -200.00
03994            -400.00
03995            -600.00
03996            -600.00
03997           -1200.00
03998           -1200.00
03999           -1400.00
04000           -1800.00
04001           -2000.00
04002           -2200.00
04003           -2800.00
04004           -2800.00
04005           -2800.00
04006           -2800.00
04007           -3400.00
04008           -3600.00
04009           -3600.00
04010           -3800.00
04011           -4200.00
04012           -4400.00
04013           -4600.00
04014           -5000.00
04015           -5000.00
04016           -5200.00
04017           -5400.00
04018           -5800.00
04019           -6000.00
04020           -6000.00
04021           -6200.00
04022           -6600.00
04023           -6600.00
04024           -6800.00
04025           -7000.00
04026           -7400.00
04027           -7400.00
04028           -7600.00
04029           -7800.00
04030           -7800.00
04031           -8200.00
04032           -8400.00
04033           -8600.00
04034           -8600.00
04035           -8800.00
04036           -9000.00
04037           -9200.00
04038           -9400.00
04039           -9400.00
04040           -9600.00
04041           -9800.00
04042           -9800.00
04043          -10000.00
04044          -10200.00
04045          -10200.00
04046          -10600.00
04047          -10400.00
04048          -10600.00
04049          -10800.00
04050          -10800.00
04051          -11000.00
04052          -11000.00
04053          -11400.00
04054          -11400.00
04055          -11400.00
04056          -11400.00
04057          -11600.00
04058          -11600.00
04059          -11600.00
04060          -11600.00
04061          -11800.00
04062          -11800.00
04063          -11800.00
04064          -11800.00
04065          -12200.00
04066          -12200.00
04067          -12200.00
04068          -12000.00
04069          -12200.00
04070          -12200.00
04071          -12200.00
04072          -12200.00
04073          -12200.00
04074          -12200.00
04075          -12200.00
04076          -12200.00
04077          -12200.00
04078          -12000.00
04079          -12200.00
04080          -12200.00
04081          -12200.00
04082          -11800.00
04083          -12000.00
04084          -12200.00
04085          -11800.00
04086          -11800.00
04087          -11800.00
04088          -11800.00
04089          -11800.00
04090          -11800.00
04091          -11600.00
04092          -11600.00
04093          -11600.00
04094          -11400.00
04095          -11400.00
04096          -11400.00
04097          -11200.00
04098          -11400.00
04099          -11000.00
04100          -10800.00
04101          -10800.00
04102          -10800.00
04103          -10600.00
04104          -10400.00
04105          -10200.00
04106          -10200.00
04107          -10000.00
04108           -9800.00
04109           -9800.00
04110           -9800.00
04111           -9400.00
04112           -9400.00
04113           -9200.00
04114           -9200.00
04115           -9000.00
04116           -8600.00
04117           -8600.00
04118           -8400.00
04119           -8200.00
04120           -8000.00
04121           -8000.00
04122           -7600.00
04123           -7600.00
04124           -7400.00
04125           -7000.00
04126           -7000.00
04127           -6800.00
04128           -6600.00
04129           -6200.00
04130           -6200.00
04131           -6000.00
04132           -5800.00
04133           -5400.00
04134           -5200.00
04135           -5200.00
04136           -4600.00
04137           -4600.00
04138           -4400.00
04139           -4400.00
04140           -4200.00
04141           -3800.00
04142           -3600.00
04143           -3400.00
04144           -3000.00
04145           -3000.00
04146           -2600.00
04147           -2600.00
04148           -2200.00
04149           -2000.00
04150           -1800.00
04151           -1600.00
04152           -1200.00
04153           -1200.00
04154           -1000.00
04155            -600.00
04156            -400.00
04157            -200.00
04158               0.00
04159             200.00
04160             400.00
04161             600.00
04162             800.00
04163            1000.00
04164            1200.00
04165            1600.00
04166            1600.00
04167            2000.00
04168            2200.00
04169            2600.00
04170            2800.00
04171            2800.00
04172            3000.00
04173            3400.00
04174            3600.00
04175            3600.00
04176            3800.00
04177            4200.00
04178            4400.00
04179            4400.00
04180            4600.00
04181            5200.00
04182            5200.00
04183            5400.00
04184            5600.00
04185            5800.00
04186            6000.00
04187            6200.00
04188            6600.00
04189            6600.00
04190            6800.00
04191            7000.00
04192            7400.00
04193            7600.00
04194            7600.00
04195            7800.00
04196            8000.00
04197            8200.00
04198            8400.00
04199            8400.00
04200            8600.00
04201            9000.00
04202            9000.00
04203            9200.00
04204            9200.00
04205            9400.00
04206            9600.00
04207            9800.00
04208           10000.00
04209           10000.00
04210           10200.00
04211           10200.00
04212           10200.00
04213           10600.00
04214           10600.00
04215           10800.00
04216           10800.00
04217           11000.00
04218           11000.00
04219           11200.00
04220           11400.00
04221           11400.00
04222           11400.00
04223           11600.00
04224           11600.00
04225           11600.00
04226           11600.00
04227           11800.00
04228           11800.00
04229           11800.00
04230           11800.00
04231           11800.00
04232           12200.00
04233           12200.00
04234           12200.00
04235           12200.00
04236           12200.00
04237           12200.00
04238           12200.00
04239           12200.00
04240           12200.00
04241           12200.00
04242           12200.00
04243           12200.00
04244           12200.00
04245           12200.00
04246           12200.00
04247           12200.00
04248           12200.00
04249           12200.00
04250           12200.00
04251           11800.00
04252           11800.00
04253           11800.00
04254           11800.00
04255           11800.00
04256           11800.00
04257           11600.00
04258           11600.00
04259           11600.00
04260           11600.00
04261           11400.00
04262           11200.00
04263           11400.00
04264           11000.00
04265           11000.00
04266           10800.00
04267           10800.00
04268           10800.00
04269           10600.00
04270           10600.00
04271           10200.00
04272           10200.00
04273           10000.00
04274           10000.00
04275            9800.00
04276            9800.00
04277            9600.00
04278            9400.00
04279            9200.00
04280            9200.00
04281            9000.00
04282            8800.00
04283            8600.00
04284            8400.00
04285            8200.00
04286            8200.00
04287            7800.00
04288            7800.00
04289            7600.00
04290            7400.00
04291            7000.00
04292            6800.00
04293            6600.00
04294            6600.00
04295            6400.00
04296            6000.00
04297            6000.00
04298            5800.00
04299            5400.00
04300            5200.00
04301            5200.00
04302            5000.00
04303            4600.00
04304            4400.00
04305            4200.00
04306            3800.00
04307            3800.00
04308            3600.00
04309            3400.00
04310            3000.00
04311            2800.00
04312            2600.00
04313            2600.00
04314            2400.00
04315            2000.00
04316            2000.00
04317            1800.00
04318            1400.00
04319            1200.00
04320            1000.00
04321             600.00
04322             400.00
04323             200.00
04324             200.00
04325            -200.00
04326            -600.00
04327            -600.00
04328            -600.00
04329           -1000.00
04330           -1200.00
04331           -1200.00
04332           -1800.00
04333           -1800.00
04334           -2200.00
04335           -2600.00
04336           -3000.00
04337           -2800.00
04338           -2800.00
04339           -3200.00
04340           -3600.00
04341           -3600.00
04342           -3800.00
04343           -4200.00
04344           -4400.00
04345           -4400.00
04346           -5000.00
04347           -5000.00
04348           -5200.00
04349           -5400.00
04350           -5800.00
04351           -5800.00
04352           -6000.00
04353           -6200.00
04354           -6600.00
04355           -6800.00
04356           -6800.00
04357           -7000.00
04358           -7400.00
04359           -7600.00
04360           -7600.00
04361           -7800.00
04362           -8200.00
04363           -8200.00
04364           -8400.00
04365           -8600.00
04366           -8600.00
04367           -8800.00
04368           -9000.00
04369           -9200.00
04370           -9400.00
04371           -9400.00
04372           -9800.00
04373           -9800.00
04374          -10000.00
04375          -10000.00
04376          -10200.00
04377          -10200.00
04378          -10400.00
04379          -10600.00
04380          -10600.00
04381          -10800.00
04382          -10800.00
04383          -11000.00
04384          -11000.00
04385          -11200.00
04386          -11400.00
04387          -11400.00
04388          -11600.00
04389          -11600.00
04390          -11600.00
04391          -11600.00
04392          -11600.00
04393          -11800.00
04394          -11600.00
04395          -11800.00
04396          -11800.00
04397          -11800.00
04398          -11800.00
04399          -12200.00
04400          -12000.00
04401          -12400.00
04402          -12200.00
04403          -12200.00
04404          -12200.00
04405          -12200.00
04406          -12200.00
04407          -12200.00
04408          -12200.00
04409          -12200.00
04410          -12000.00
04411          -12400.00
04412          -12200.00
04413          -12200.00
04414          -12200.00
04415          -12200.00
04416          -12000.00
04417          -11800.00
04418          -12000.00
04419          -11800.00
04420          -11800.00
04421          -11800.00
04422          -11800.00
04423          -11600.00
04424          -11600.00
04425          -11600.00
04426          -11400.00
04427          -11400.00
04428          -11400.00
04429          -11200.00
04430          -11000.00
04431          -11000.00
04432          -11000.00
04433          -10800.00
04434          -10600.00
04435          -10600.00
04436          -10600.00
04437          -10400.00
04438          -10200.00
04439          -10000.00
04440          -10000.00
04441           -9800.00
04442           -9800.00
04443           -9400.00
04444           -9400.00
04445           -9200.00
04446           -9000.00
04447           -8800.00
04448           -8800.00
04449           -8400.00
04450           -8400.00
04451           -8200.00
04452           -8000.00
04453           -7800.00
04454           -7600.00
04455           -7600.00
04456           -7400.00
04457           -7200.00
04458           -7000.00
04459           -6800.00
04460           -6600.00
04461           -6200.00
04462           -6200.00
04463           -6000.00
04464           -5800.00
04465           -5400.00
04466           -5400.00
04467           -5200.00
04468           -4800.00
04469           -4600.00
04470           -4600.00
04471           -4400.00
04472           -4200.00
04473           -3800.00
04474           -3600.00
04475           -3600.00
04476           -3000.00
04477           -2800.00
04478           -2800.00
04479           -2600.00
04480           -2200.00
04481           -2000.00
04482           -2000.00
04483           -1600.00
04484           -1200.00
04485           -1000.00
04486           -1000.00
04487            -600.00
04488            -600.00
04489            -200.00
04490               0.00
04491             200.00
04492             400.00
04493             600.00
04494             600.00
04495            1000.00
04496            1200.00
04497            1400.00
04498            1800.00
04499            1800.00
04500            2200.00
04501            2600.00
04502            2800.00
04503            2800.00
04504            3000.00
04505            3400.00
04506            3600.00
04507            3600.00
04508            3800.00
04509            4200.00
04510            4200.00
04511            4400.00
04512            5000.00
04513            5000.00
04514            5200.00
04515            5400.00
04516            5800.00
04517            5800.00
04518            6000.00
04519            6200.00
04520            6600.00
04521            6600.00
04522            6800.00
04523            7000.00
04524            7200.00
04525            7600.00
04526            7600.00
04527            7600.00
04528            7800.00
04529            8400.00
04530            8400.00
04531            8400.00
04532            8600.00
04533            9000.00
04534            9000.00
04535            9200.00
04536            9200.00
04537            9600.00
04538            9600.00
04539            9800.00
04540           10000.00
04541           10000.00
04542           10200.00
04543           10200.00
04544           10600.00
04545           10600.00
04546           10600.00
04547           10600.00
04548           10800.00
04549           10800.00
04550           11000.00
04551           11000.00
04552           11200.00
04553           11400.00
04554           11400.00
04555           11600.00
04556           11600.00
04557           11400.00
04558           11600.00
04559           11600.00
04560           11800.00
04561           11800.00
04562           11800.00
04563           12000.00
04564           12000.00
04565           12200.00
04566           12200.00
04567           12200.00
04568           12200.00
04569           12200.00
04570           12200.00
04571           12200.00
04572           12200.00
04573           12200.00
04574           12200.00
04575           12200.00
04576           12200.00
04577           12200.00
04578           12200.00
04579           12200.00
04580           12200.00
04581           12200.00
04582           12200.00
04583           12200.00
04584           11800.00
04585           11800.00
04586           11800.00
04587           11800.00
04588           11800.00
04589           11800.00
04590           11600.00
04591           11600.00
04592           11600.00
04593           11400.00
04594           11400.00
04595           11400.00
04596           11000.00
04597           11000.00
04598           11000.00
04599           10800.00
04600           10600.00
04601           10600.00
04602           10600.00
04603           10600.00
04604           10200.00
04605           10000.00
04606           10000.00
04607            9800.00
04608            9800.00
04609            9400.00
04610            9400.00
04611            9200.00
04612            9000.00
04613            9000.00
04614            8600.00
04615            8600.00
04616            8400.00
04617            8200.00
04618            8200.00
04619            7800.00
04620            7600.00
04621            7600.00
04622            7400.00
04623            7400.00
04624            6800.00
04625            6800.00
04626            6600.00
04627            6600.00
04628            6000.00
04629            6000.00
04630            5800.00
04631            5400.00
04632            5200.00
04633            5200.00
04634            5000.00
04635            4600.00
04636            4400.00
04637            4400.00
04638            4200.00
04639            3800.00
04640            3600.00
04641            3400.00
04642            3400.00
04643            3000.00
04644            2800.00
04645            2600.00
04646            2400.00
04647            2200.00
04648            1800.00
04649            1800.00
04650            1400.00
04651            1200.00
04652            1000.00
04653             600.00
04654             400.00
04655             200.00
04656             200.00
04657               0.00
04658            -400.00
04659            -600.00
04660            -600.00
04661           -1000.00
04662           -1000.00
04663           -1200.00
04664           -1800.00
04665           -1800.00
04666           -2200.00
04667           -2600.00
04668           -2800.00
04669           -2800.00
04670           -2800.00
04671           -3000.00
04672           -3600.00
04673           -3600.00
04674           -3800.00
04675           -4200.00
04676           -4200.00
04677           -4400.00
04678           -4600.00
04679           -5000.00
04680           -5200.00
04681           -5400.00
04682           -5800.00
04683           -5800.00
04684           -6200.00
04685           -6200.00
04686           -6600.00
04687           -6800.00
04688           -6800.00
04689           -7000.00
04690           -7200.00
04691           -7600.00
04692           -7600.00
04693           -7800.00
04694           -7800.00
04695           -8200.00
04696           -8400.00
04697           -8400.00
04698           -8600.00
04699           -8800.00
04700           -9000.00
04701           -9200.00
04702           -9200.00
04703           -9400.00
04704           -9400.00
04705           -9800.00
04706          -10000.00
04707          -10000.00
04708          -10000.00
04709          -10200.00
04710          -10200.00
04711          -10400.00
04712          -10600.00
04713          -10800.00
04714          -11000.00
04715          -11000.00
04716          -11000.00
04717          -11000.00
04718          -11000.00
04719          -11400.00
04720          -11400.00
04721          -11400.00
04722          -11600.00
04723          -11600.00
04724          -11800.00
04725          -11800.00
04726          -11800.00
04727          -11800.00
04728          -11800.00
04729          -12000.00
04730          -12000.00
04731          -12200.00
04732          -12000.00
04733          -12200.00
04734          -12200.00
04735          -12200.00
04736          -12200.00
04737          -12200.00
04738          -12200.00
04739          -12200.00
04740          -12400.00
04741          -12200.00
04742          -12200.00
04743          -12400.00
04744          -12200.00
04745          -12200.00
04746          -12000.00
04747          -12200.00
04748          -12200.00
04749          -11800.00
04750          -11800.00
04751          -12000.00
04752          -11800.00
04753          -11800.00
04754          -11800.00
04755          -11600.00
04756          -11600.00
04757          -11400.00
04758          -11600.00
04759          -11400.00
04760          -11200.00
04761          -11200.00
04762          -11200.00
04763          -10800.00
04764          -10800.00
04765          -10800.00
04766          -10800.00
04767          -10600.00
04768          -10600.00
04769          -10200.00
04770          -10200.00
04771          -10000.00
04772          -10000.00
04773           -9800.00
04774           -9800.00
04775           -9400.00
04776           -9400.00
04777           -9200.00
04778           -9200.00
04779           -9000.00
04780           -8600.00
04781           -8600.00
04782           -8400.00
04783           -8400.00
04784           -8200.00
04785           -7800.00
04786           -7800.00
04787           -7400.00
04788           -7400.00
04789           -7000.00
04790           -7000.00
04791           -6800.00
04792           -6600.00
04793           -6600.00
04794           -6200.00
04795           -6000.00
04796           -5800.00
04797           -5400.00
04798           -5200.00
04799           -5200.00
04800           -5000.00
04801           -4600.00
04802           -4400.00
04803           -4400.00
04804           -4000.00
04805           -4200.00
04806           -3800.00
04807           -3400.00
04808           -3000.00
04809           -3000.00
04810           -2800.00
04811           -2800.00
04812           -2200.00
04813           -2200.00
04814           -2000.00
04815           -1800.00
04816           -1400.00
04817           -1200.00
04818           -1200.00
04819            -600.00
04820            -600.00
04821            -400.00
04822            -200.00
04823             200.00
04824             200.00
04825             400.00
04826             600.00
04827            1000.00
04828            1200.00
04829            1400.00
04830            1800.00
04831            1800.00
04832            2000.00
04833            2400.00
04834            2600.00
04835            2800.00
04836            2800.00
04837            3200.00
04838            3400.00
04839            3600.00
04840            3800.00
04841            4200.00
04842            4400.00
04843            4600.00
04844            4800.00
04845            5000.00
04846            5200.00
04847            5400.00
04848            5400.00
04849            5800.00
04850            6000.00
04851            6200.00
04852            6400.00
04853            6800.00
04854            6800.00
04855            7000.00
04856            7400.00
04857            7400.00
04858            7600.00
04859            7800.00
04860            8200.00
04861            8200.00
04862            8400.00
04863            8400.00
04864            8600.00
04865            8800.00
04866            9000.00
04867            9200.00
04868            9200.00
04869            9400.00
04870            9600.00
04871            9800.00
04872           10000.00
04873           10000.00
04874           10000.00
04875           10200.00
04876           10200.00
04877           10600.00
04878           10600.00
04879           10600.00
04880           10800.00
04881           11000.00
04882           10800.00
04883           11000.00
04884           11000.00
04885           11200.00
04886           11400.00
04887           11600.00
04888           11600.00
04889           11600.00
04890           11800.00
04891           11800.00
04892           11800.00
04893           11800.00
04894           11800.00
04895           12000.00
04896           12200.00
04897           12200.00
04898           12000.00
04899           12200.00
04900           12200.00
04901           12200.00
04902           12200.00
04903           12200.00
04904           12200.00
04905           12200.00
04906           12200.00
04907           12200.00
04908           12200.00
04909           12200.00
04910           12200.00
04911           12200.00
04912           12000.00
04913           12200.00
04914           12200.00
04915           12000.00
04916           12000.00
04917           12000.00
04918           11800.00
04919           11800.00
04920           11600.00
04921           11600.00
04922           11600.00
04923           11600.00
04924           11400.00
04925           11600.00
04926           11400.00
04927           11400.00
04928           11000.00
04929           11000.00
04930           10800.00
04931           10800.00
04932           10600.00
04933           10600.00
04934           10600.00
04935           10400.00
04936           10200.00
04937           10000.00
04938           10000.00
04939            9800.00
04940            9800.00
04941            9600.00
04942            9400.00
04943            9200.00
04944            9000.00
04945            9000.00
04946            8600.00
04947            8600.00
04948            8400.00
04949            8400.00
04950            8200.00
04951            8000.00
04952            7600.00
04953            7600.00
04954            7400.00
04955            7000.00
04956            7000.00
04957            6800.00
04958            6600.00
04959            6400.00
04960            6200.00
04961            6000.00
04962            5800.00
04963            5800.00
04964            5200.00
04965            5200.00
04966            4800.00
04967            4600.00
04968            4600.00
04969            4200.00
04970            4200.00
04971            4000.00
04972            3600.00
04973            3600.00
04974            3400.00
04975            3000.00
04976            2800.00
04977            2600.00
04978            2400.00
04979            2200.00
04980            2000.00
04981            1800.00
04982            1600.00
04983            1200.00
04984            1000.00
04985             800.00
04986             600.00
04987             400.00
04988             200.00
04989            -200.00
04990            -400.00
04991            -600.00
04992            -600.00
04993           -1000.00
04994           -1200.00
04995           -1400.00
04996           -1400.00
04997           -1800.00
04998           -2200.00
04999           -2600.00
05000           -2800.00
