Unit:(mV)
                     CH1
Frequency    300.995 kHz
00001            1800.00
00002            1200.00
00003            1000.00
00004             600.00
00005             200.00
00006            -200.00
00007            -400.00
00008           -1000.00
00009           -1200.00
00010           -1400.00
00011           -1800.00
00012           -2200.00
00013           -2600.00
00014           -2800.00
00015           -3400.00
00016           -3800.00
00017           -4400.00
00018           -4600.00
00019           -4600.00
00020           -5000.00
00021           -5400.00
00022           -6000.00
00023           -6200.00
00024           -6600.00
00025           -6800.00
00026           -7200.00
00027           -7600.00
00028           -7800.00
00029           -8400.00
00030           -8800.00
00031           -9000.00
00032           -9400.00
00033           -9800.00
00034          -10000.00
00035          -10200.00
00036          -10800.00
00037          -11000.00
00038          -11200.00
00039          -11600.00
00040          -11800.00
00041          -12200.00
00042          -12600.00
00043          -12800.00
00044          -13000.00
00045          -13400.00
00046          -13400.00
00047          -14000.00
00048          -14200.00
00049          -14400.00
00050          -14800.00
00051          -15000.00
00052          -15400.00
00053          -15600.00
00054          -15600.00
00055          -15800.00
00056          -16200.00
00057          -16400.00
00058          -16600.00
00059          -16600.00
00060          -17000.00
00061          -17200.00
00062          -17200.00
00063          -17400.00
00064          -17800.00
00065          -18000.00
00066          -18000.00
00067          -18000.00
00068          -18200.00
00069          -18200.00
00070          -18600.00
00071          -18600.00
00072          -18800.00
00073          -19000.00
00074          -19000.00
00075          -19000.00
00076          -19000.00
00077          -19400.00
00078          -19600.00
00079          -19600.00
00080          -19600.00
00081          -19600.00
00082          -19600.00
00083          -19800.00
00084          -19800.00
00085          -19800.00
00086          -19800.00
00087          -19800.00
00088          -19800.00
00089          -19800.00
00090          -19800.00
00091          -19800.00
00092          -19800.00
00093          -19800.00
00094          -19600.00
00095          -19800.00
00096          -19600.00
00097          -19600.00
00098          -19600.00
00099          -19600.00
00100          -19400.00
00101          -19400.00
00102          -19200.00
00103          -19000.00
00104          -19000.00
00105          -18800.00
00106          -18800.00
00107          -18600.00
00108          -18400.00
00109          -18200.00
00110          -18000.00
00111          -18000.00
00112          -18000.00
00113          -17800.00
00114          -17400.00
00115          -17200.00
00116          -17200.00
00117          -17000.00
00118          -16600.00
00119          -16600.00
00120          -16400.00
00121          -16000.00
00122          -15800.00
00123          -15600.00
00124          -15400.00
00125          -15400.00
00126          -15000.00
00127          -14800.00
00128          -14400.00
00129          -14200.00
00130          -14000.00
00131          -13800.00
00132          -13400.00
00133          -13000.00
00134          -12600.00
00135          -12400.00
00136          -12200.00
00137          -11800.00
00138          -11800.00
00139          -11400.00
00140          -11000.00
00141          -10600.00
00142          -10200.00
00143          -10200.00
00144           -9800.00
00145           -9600.00
00146           -9200.00
00147           -8600.00
00148           -8600.00
00149           -8200.00
00150           -7800.00
00151           -7600.00
00152           -7000.00
00153           -6800.00
00154           -6600.00
00155           -6000.00
00156           -5800.00
00157           -5400.00
00158           -5000.00
00159           -4600.00
00160           -4400.00
00161           -3800.00
00162           -3600.00
00163           -3400.00
00164           -2800.00
00165           -2600.00
00166           -2000.00
00167           -1800.00
00168           -1400.00
00169           -1000.00
00170            -600.00
00171            -200.00
00172             200.00
00173             400.00
00174            1000.00
00175            1200.00
00176            1800.00
00177            2000.00
00178            2200.00
00179            2600.00
00180            3000.00
00181            3400.00
00182            3600.00
00183            4200.00
00184            4600.00
00185            4800.00
00186            5200.00
00187            5400.00
00188            5800.00
00189            6000.00
00190            6600.00
00191            6800.00
00192            7200.00
00193            7600.00
00194            7800.00
00195            8200.00
00196            8600.00
00197            9000.00
00198            9200.00
00199            9800.00
00200           10000.00
00201           10200.00
00202           10600.00
00203           11000.00
00204           11000.00
00205           11600.00
00206           11800.00
00207           12200.00
00208           12400.00
00209           12800.00
00210           13000.00
00211           13200.00
00212           13600.00
00213           14000.00
00214           14200.00
00215           14400.00
00216           14600.00
00217           15000.00
00218           15200.00
00219           15400.00
00220           15400.00
00221           15800.00
00222           16200.00
00223           16400.00
00224           16400.00
00225           16600.00
00226           17000.00
00227           17000.00
00228           17200.00
00229           17400.00
00230           17600.00
00231           17800.00
00232           18000.00
00233           18000.00
00234           18200.00
00235           18400.00
00236           18600.00
00237           18600.00
00238           18800.00
00239           18800.00
00240           19200.00
00241           19000.00
00242           19400.00
00243           19400.00
00244           19400.00
00245           19600.00
00246           19600.00
00247           19600.00
00248           19600.00
00249           19800.00
00250           19600.00
00251           19800.00
00252           19800.00
00253           19800.00
00254           19800.00
00255           19600.00
00256           19800.00
00257           19800.00
00258           19600.00
00259           19800.00
00260           19600.00
00261           19600.00
00262           19600.00
00263           19600.00
00264           19600.00
00265           19400.00
00266           19400.00
00267           19400.00
00268           19200.00
00269           19000.00
00270           19000.00
00271           19000.00
00272           18800.00
00273           18600.00
00274           18600.00
00275           18200.00
00276           18200.00
00277           18000.00
00278           18000.00
00279           17800.00
00280           17600.00
00281           17200.00
00282           17000.00
00283           17000.00
00284           16600.00
00285           16600.00
00286           16400.00
00287           16200.00
00288           15800.00
00289           15800.00
00290           15400.00
00291           15400.00
00292           15000.00
00293           14800.00
00294           14600.00
00295           14200.00
00296           14000.00
00297           13800.00
00298           13400.00
00299           13200.00
00300           12800.00
00301           12400.00
00302           12200.00
00303           12200.00
00304           11600.00
00305           11600.00
00306           11200.00
00307           10600.00
00308           10600.00
00309           10000.00
00310           10000.00
00311            9600.00
00312            9200.00
00313            8600.00
00314            8400.00
00315            8400.00
00316            8000.00
00317            7600.00
00318            7400.00
00319            6800.00
00320            6600.00
00321            6000.00
00322            5800.00
00323            5400.00
00324            5200.00
00325            4800.00
00326            4400.00
00327            4200.00
00328            3600.00
00329            3400.00
00330            2800.00
00331            2600.00
00332            2200.00
00333            1800.00
00334            1400.00
00335            1000.00
00336             600.00
00337             400.00
00338            -200.00
00339            -400.00
00340            -800.00
00341           -1200.00
00342           -1400.00
00343           -1800.00
00344           -2200.00
00345           -2400.00
00346           -2800.00
00347           -3400.00
00348           -3800.00
00349           -4400.00
00350           -4600.00
00351           -4600.00
00352           -5000.00
00353           -5400.00
00354           -6000.00
00355           -6000.00
00356           -6600.00
00357           -7000.00
00358           -7000.00
00359           -7600.00
00360           -8000.00
00361           -8200.00
00362           -8600.00
00363           -9000.00
00364           -9200.00
00365           -9800.00
00366          -10000.00
00367          -10200.00
00368          -10400.00
00369          -11000.00
00370          -11000.00
00371          -11400.00
00372          -11800.00
00373          -12200.00
00374          -12400.00
00375          -12600.00
00376          -13200.00
00377          -13200.00
00378          -13400.00
00379          -13800.00
00380          -14000.00
00381          -14200.00
00382          -14800.00
00383          -14800.00
00384          -15000.00
00385          -15400.00
00386          -15600.00
00387          -15800.00
00388          -15800.00
00389          -16400.00
00390          -16400.00
00391          -16800.00
00392          -16600.00
00393          -17000.00
00394          -17200.00
00395          -17400.00
00396          -17400.00
00397          -17800.00
00398          -17800.00
00399          -18200.00
00400          -18200.00
00401          -18600.00
00402          -18600.00
00403          -18600.00
00404          -18800.00
00405          -19000.00
00406          -19000.00
00407          -19000.00
00408          -19400.00
00409          -19400.00
00410          -19600.00
00411          -19600.00
00412          -19600.00
00413          -19600.00
00414          -19800.00
00415          -19600.00
00416          -19800.00
00417          -19800.00
00418          -19800.00
00419          -19800.00
00420          -19800.00
00421          -19800.00
00422          -19800.00
00423          -19800.00
00424          -19800.00
00425          -19800.00
00426          -19800.00
00427          -19600.00
00428          -19800.00
00429          -19600.00
00430          -19600.00
00431          -19600.00
00432          -19400.00
00433          -19400.00
00434          -19000.00
00435          -19000.00
00436          -19000.00
00437          -18800.00
00438          -18800.00
00439          -18800.00
00440          -18600.00
00441          -18400.00
00442          -18200.00
00443          -18000.00
00444          -17800.00
00445          -17800.00
00446          -17600.00
00447          -17400.00
00448          -17200.00
00449          -17000.00
00450          -16800.00
00451          -16400.00
00452          -16400.00
00453          -16200.00
00454          -15800.00
00455          -15800.00
00456          -15600.00
00457          -15200.00
00458          -15000.00
00459          -14800.00
00460          -14600.00
00461          -14200.00
00462          -14000.00
00463          -13800.00
00464          -13400.00
00465          -13200.00
00466          -13000.00
00467          -12600.00
00468          -12400.00
00469          -12000.00
00470          -11600.00
00471          -11600.00
00472          -11000.00
00473          -10800.00
00474          -10600.00
00475          -10200.00
00476          -10000.00
00477           -9600.00
00478           -9200.00
00479           -9000.00
00480           -8600.00
00481           -8400.00
00482           -7800.00
00483           -7600.00
00484           -7200.00
00485           -7000.00
00486           -6600.00
00487           -6200.00
00488           -5800.00
00489           -5400.00
00490           -5000.00
00491           -4600.00
00492           -4400.00
00493           -3800.00
00494           -3800.00
00495           -3200.00
00496           -2800.00
00497           -2600.00
00498           -2200.00
00499           -2000.00
00500           -1400.00
00501           -1000.00
00502            -600.00
00503            -400.00
00504             200.00
00505             400.00
00506            1000.00
00507            1000.00
00508            1400.00
00509            1800.00
00510            2200.00
00511            2600.00
00512            2800.00
00513            3400.00
00514            3600.00
00515            4200.00
00516            4400.00
00517            5000.00
00518            5200.00
00519            5400.00
00520            5800.00
00521            6000.00
00522            6600.00
00523            6800.00
00524            7000.00
00525            7600.00
00526            8000.00
00527            8200.00
00528            8400.00
00529            8800.00
00530            9200.00
00531            9400.00
00532           10000.00
00533           10000.00
00534           10600.00
00535           10800.00
00536           11000.00
00537           11400.00
00538           11600.00
00539           11800.00
00540           12200.00
00541           12600.00
00542           13000.00
00543           13200.00
00544           13400.00
00545           13800.00
00546           14000.00
00547           14200.00
00548           14600.00
00549           14800.00
00550           15000.00
00551           15400.00
00552           15400.00
00553           15800.00
00554           16000.00
00555           16200.00
00556           16400.00
00557           16600.00
00558           17000.00
00559           17000.00
00560           17200.00
00561           17400.00
00562           17400.00
00563           17800.00
00564           18000.00
00565           18000.00
00566           18200.00
00567           18600.00
00568           18600.00
00569           18600.00
00570           18600.00
00571           18800.00
00572           19000.00
00573           19200.00
00574           19200.00
00575           19400.00
00576           19400.00
00577           19600.00
00578           19600.00
00579           19600.00
00580           19600.00
00581           19600.00
00582           19600.00
00583           19800.00
00584           19600.00
00585           19800.00
00586           19800.00
00587           19800.00
00588           19800.00
00589           19800.00
00590           19800.00
00591           19600.00
00592           19800.00
00593           19800.00
00594           19600.00
00595           19600.00
00596           19600.00
00597           19600.00
00598           19600.00
00599           19400.00
00600           19200.00
00601           19000.00
00602           19000.00
00603           18800.00
00604           18800.00
00605           18600.00
00606           18600.00
00607           18200.00
00608           18200.00
00609           18000.00
00610           17800.00
00611           17800.00
00612           17600.00
00613           17200.00
00614           17200.00
00615           17000.00
00616           17000.00
00617           16600.00
00618           16600.00
00619           16200.00
00620           16000.00
00621           15600.00
00622           15400.00
00623           15400.00
00624           15200.00
00625           14800.00
00626           14600.00
00627           14200.00
00628           14000.00
00629           13800.00
00630           13400.00
00631           13200.00
00632           13000.00
00633           13000.00
00634           12400.00
00635           12200.00
00636           11800.00
00637           11600.00
00638           11400.00
00639           10800.00
00640           10600.00
00641           10400.00
00642           10000.00
00643            9600.00
00644            9200.00
00645            9000.00
00646            8600.00
00647            8400.00
00648            7800.00
00649            7600.00
00650            7400.00
00651            7000.00
00652            6600.00
00653            6000.00
00654            5800.00
00655            5600.00
00656            5200.00
00657            4600.00
00658            4400.00
00659            4200.00
00660            3600.00
00661            3400.00
00662            2800.00
00663            2600.00
00664            2200.00
00665            2000.00
00666            1400.00
00667            1000.00
00668             600.00
00669             400.00
00670            -200.00
00671            -400.00
00672            -800.00
00673           -1000.00
00674           -1400.00
00675           -1800.00
00676           -2000.00
00677           -2400.00
00678           -2800.00
00679           -3000.00
00680           -3600.00
00681           -4400.00
00682           -4600.00
00683           -4800.00
00684           -4600.00
00685           -5200.00
00686           -5800.00
00687           -6000.00
00688           -6400.00
00689           -6800.00
00690           -7000.00
00691           -7600.00
00692           -7800.00
00693           -8200.00
00694           -8600.00
00695           -8600.00
00696           -9200.00
00697           -9400.00
00698           -9800.00
00699          -10200.00
00700          -10400.00
00701          -10800.00
00702          -11000.00
00703          -11400.00
00704          -11800.00
00705          -11800.00
00706          -12400.00
00707          -12600.00
00708          -13000.00
00709          -13200.00
00710          -13400.00
00711          -13600.00
00712          -14000.00
00713          -14200.00
00714          -14600.00
00715          -14800.00
00716          -15000.00
00717          -15400.00
00718          -15400.00
00719          -15800.00
00720          -16000.00
00721          -16200.00
00722          -16400.00
00723          -16600.00
00724          -17200.00
00725          -17200.00
00726          -17200.00
00727          -17200.00
00728          -17800.00
00729          -17800.00
00730          -18000.00
00731          -18000.00
00732          -18200.00
00733          -18200.00
00734          -18400.00
00735          -18800.00
00736          -18800.00
00737          -19000.00
00738          -19000.00
00739          -19000.00
00740          -19400.00
00741          -19400.00
00742          -19400.00
00743          -19400.00
00744          -19600.00
00745          -19600.00
00746          -19800.00
00747          -19800.00
00748          -19800.00
00749          -19800.00
00750          -19800.00
00751          -19800.00
00752          -19800.00
00753          -19800.00
00754          -19800.00
00755          -19800.00
00756          -19800.00
00757          -19800.00
00758          -19600.00
00759          -19800.00
00760          -19600.00
00761          -19600.00
00762          -19600.00
00763          -19400.00
00764          -19400.00
00765          -19200.00
00766          -19000.00
00767          -19000.00
00768          -19000.00
00769          -19000.00
00770          -18800.00
00771          -18800.00
00772          -18600.00
00773          -18400.00
00774          -18200.00
00775          -18200.00
00776          -18000.00
00777          -17800.00
00778          -17400.00
00779          -17400.00
00780          -17200.00
00781          -17200.00
00782          -16600.00
00783          -16600.00
00784          -16400.00
00785          -16400.00
00786          -16200.00
00787          -15800.00
00788          -15600.00
00789          -15400.00
00790          -15000.00
00791          -14800.00
00792          -14600.00
00793          -14400.00
00794          -14000.00
00795          -13800.00
00796          -13400.00
00797          -13400.00
00798          -13200.00
00799          -12800.00
00800          -12400.00
00801          -12200.00
00802          -11800.00
00803          -11600.00
00804          -11400.00
00805          -11000.00
00806          -10600.00
00807          -10200.00
00808          -10200.00
00809           -9600.00
00810           -9400.00
00811           -9000.00
00812           -8600.00
00813           -8400.00
00814           -7800.00
00815           -7600.00
00816           -7200.00
00817           -7000.00
00818           -6600.00
00819           -6200.00
00820           -6000.00
00821           -5800.00
00822           -5200.00
00823           -5000.00
00824           -4400.00
00825           -4200.00
00826           -3800.00
00827           -3400.00
00828           -3000.00
00829           -2800.00
00830           -2200.00
00831           -2000.00
00832           -1400.00
00833           -1200.00
00834            -600.00
00835            -400.00
00836            -200.00
00837             400.00
00838             600.00
00839            1000.00
00840            1400.00
00841            1800.00
00842            2200.00
00843            2600.00
00844            2800.00
00845            3000.00
00846            3600.00
00847            4200.00
00848            4400.00
00849            5000.00
00850            5200.00
00851            5400.00
00852            5800.00
00853            6000.00
00854            6200.00
00855            6800.00
00856            7000.00
00857            7400.00
00858            7800.00
00859            8200.00
00860            8600.00
00861            9000.00
00862            9000.00
00863            9600.00
00864            9800.00
00865           10000.00
00866           10200.00
00867           10600.00
00868           11000.00
00869           11400.00
00870           11600.00
00871           12000.00
00872           12200.00
00873           12600.00
00874           12600.00
00875           13000.00
00876           13400.00
00877           13800.00
00878           14000.00
00879           14200.00
00880           14400.00
00881           14800.00
00882           15000.00
00883           15400.00
00884           15400.00
00885           15600.00
00886           15800.00
00887           16400.00
00888           16400.00
00889           16600.00
00890           16800.00
00891           17000.00
00892           17200.00
00893           17200.00
00894           17400.00
00895           17800.00
00896           18000.00
00897           18000.00
00898           18200.00
00899           18400.00
00900           18600.00
00901           18600.00
00902           18800.00
00903           18800.00
00904           19000.00
00905           19000.00
00906           19400.00
00907           19400.00
00908           19400.00
00909           19400.00
00910           19600.00
00911           19600.00
00912           19600.00
00913           19800.00
00914           19800.00
00915           19800.00
00916           19800.00
00917           19800.00
00918           19800.00
00919           19800.00
00920           19800.00
00921           19800.00
00922           19800.00
00923           19600.00
00924           19800.00
00925           19600.00
00926           19600.00
00927           19600.00
00928           19600.00
00929           19400.00
00930           19400.00
00931           19400.00
00932           19200.00
00933           19000.00
00934           19000.00
00935           19000.00
00936           18800.00
00937           18600.00
00938           18600.00
00939           18200.00
00940           18200.00
00941           18000.00
00942           18000.00
00943           17800.00
00944           17600.00
00945           17400.00
00946           17200.00
00947           17200.00
00948           17000.00
00949           16600.00
00950           16400.00
00951           16400.00
00952           16200.00
00953           15800.00
00954           15600.00
00955           15400.00
00956           15200.00
00957           15000.00
00958           14800.00
00959           14600.00
00960           14000.00
00961           14000.00
00962           13600.00
00963           13200.00
00964           13200.00
00965           12800.00
00966           12600.00
00967           12200.00
00968           11800.00
00969           11600.00
00970           11400.00
00971           11000.00
00972           10600.00
00973           10400.00
00974           10000.00
00975            9600.00
00976            9400.00
00977            9000.00
00978            8600.00
00979            8400.00
00980            8000.00
00981            7600.00
00982            7400.00
00983            7000.00
00984            6800.00
00985            6200.00
00986            6000.00
00987            5600.00
00988            5200.00
00989            5000.00
00990            4600.00
00991            4200.00
00992            3800.00
00993            3600.00
00994            3000.00
00995            2600.00
00996            2200.00
00997            2000.00
00998            1400.00
00999            1200.00
01000             600.00
01001             400.00
01002             200.00
01003            -400.00
01004            -600.00
01005           -1000.00
01006           -1400.00
01007           -1800.00
01008           -2000.00
01009           -2400.00
01010           -2800.00
01011           -3000.00
01012           -3600.00
01013           -4200.00
01014           -4400.00
01015           -4600.00
01016           -4600.00
01017           -5200.00
01018           -5600.00
01019           -6000.00
01020           -6200.00
01021           -6600.00
01022           -7000.00
01023           -7400.00
01024           -7800.00
01025           -7800.00
01026           -8600.00
01027           -9000.00
01028           -9000.00
01029           -9400.00
01030           -9400.00
01031          -10000.00
01032          -10200.00
01033          -10600.00
01034          -11000.00
01035          -11400.00
01036          -11600.00
01037          -11800.00
01038          -12200.00
01039          -12600.00
01040          -12600.00
01041          -13000.00
01042          -13400.00
01043          -13800.00
01044          -14000.00
01045          -14200.00
01046          -14600.00
01047          -14800.00
01048          -15000.00
01049          -15200.00
01050          -15600.00
01051          -15800.00
01052          -15800.00
01053          -16200.00
01054          -16400.00
01055          -16600.00
01056          -17000.00
01057          -17000.00
01058          -17200.00
01059          -17400.00
01060          -17400.00
01061          -17800.00
01062          -18000.00
01063          -18000.00
01064          -18200.00
01065          -18400.00
01066          -18600.00
01067          -18800.00
01068          -18800.00
01069          -18800.00
01070          -19000.00
01071          -19000.00
01072          -19200.00
01073          -19200.00
01074          -19400.00
01075          -19400.00
01076          -19400.00
01077          -19600.00
01078          -19800.00
01079          -19600.00
01080          -19800.00
01081          -19800.00
01082          -19800.00
01083          -19800.00
01084          -19800.00
01085          -19800.00
01086          -19800.00
01087          -19800.00
01088          -19800.00
01089          -19800.00
01090          -19800.00
01091          -19600.00
01092          -19800.00
01093          -19400.00
01094          -19600.00
01095          -19400.00
01096          -19400.00
01097          -19000.00
01098          -19000.00
01099          -19000.00
01100          -19000.00
01101          -19000.00
01102          -18800.00
01103          -18800.00
01104          -18600.00
01105          -18200.00
01106          -18200.00
01107          -18200.00
01108          -18000.00
01109          -17800.00
01110          -17800.00
01111          -17400.00
01112          -17200.00
01113          -17200.00
01114          -16800.00
01115          -16800.00
01116          -16400.00
01117          -16200.00
01118          -15800.00
01119          -15800.00
01120          -15600.00
01121          -15400.00
01122          -15000.00
01123          -15000.00
01124          -14600.00
01125          -14600.00
01126          -14200.00
01127          -14000.00
01128          -13400.00
01129          -13400.00
01130          -13200.00
01131          -12800.00
01132          -12400.00
01133          -12200.00
01134          -12000.00
01135          -11600.00
01136          -11400.00
01137          -11000.00
01138          -10600.00
01139          -10200.00
01140          -10200.00
01141          -10000.00
01142           -9400.00
01143           -9000.00
01144           -8600.00
01145           -8400.00
01146           -8200.00
01147           -7600.00
01148           -7400.00
01149           -7000.00
01150           -6800.00
01151           -6200.00
01152           -6000.00
01153           -5800.00
01154           -5200.00
01155           -4800.00
01156           -4600.00
01157           -4200.00
01158           -3800.00
01159           -3400.00
01160           -3000.00
01161           -2600.00
01162           -2200.00
01163           -2000.00
01164           -1400.00
01165           -1200.00
01166            -600.00
01167            -400.00
01168            -200.00
01169             400.00
01170             600.00
01171            1000.00
01172            1400.00
01173            1600.00
01174            2000.00
01175            2200.00
01176            2600.00
01177            3000.00
01178            3400.00
01179            3800.00
01180            4200.00
01181            4600.00
01182            5000.00
01183            5200.00
01184            5400.00
01185            6000.00
01186            6200.00
01187            6600.00
01188            6800.00
01189            7400.00
01190            7600.00
01191            8200.00
01192            8200.00
01193            8800.00
01194            9000.00
01195            9200.00
01196            9400.00
01197           10000.00
01198           10000.00
01199           10600.00
01200           11000.00
01201           11400.00
01202           11600.00
01203           11800.00
01204           12200.00
01205           12400.00
01206           13000.00
01207           13000.00
01208           13200.00
01209           13800.00
01210           13800.00
01211           14200.00
01212           14400.00
01213           14800.00
01214           15000.00
01215           15200.00
01216           15400.00
01217           15800.00
01218           15800.00
01219           16200.00
01220           16400.00
01221           16400.00
01222           16600.00
01223           17000.00
01224           17200.00
01225           17400.00
01226           17400.00
01227           17800.00
01228           18000.00
01229           18000.00
01230           18200.00
01231           18400.00
01232           18600.00
01233           18600.00
01234           18800.00
01235           19000.00
01236           18800.00
01237           19000.00
01238           19400.00
01239           19400.00
01240           19400.00
01241           19600.00
01242           19600.00
01243           19600.00
01244           19600.00
01245           19600.00
01246           19800.00
01247           19800.00
01248           19800.00
01249           19800.00
01250           19800.00
01251           19800.00
01252           19800.00
01253           19800.00
01254           19800.00
01255           19600.00
01256           19800.00
01257           19600.00
01258           19600.00
01259           19600.00
01260           19400.00
01261           19600.00
01262           19400.00
01263           19400.00
01264           19400.00
01265           19000.00
01266           19000.00
01267           19000.00
01268           18800.00
01269           18800.00
01270           18600.00
01271           18400.00
01272           18600.00
01273           18200.00
01274           18000.00
01275           17800.00
01276           17400.00
01277           17400.00
01278           17400.00
01279           17000.00
01280           17000.00
01281           16600.00
01282           16600.00
01283           16400.00
01284           16200.00
01285           15800.00
01286           15600.00
01287           15600.00
01288           15000.00
01289           15000.00
01290           14800.00
01291           14600.00
01292           14200.00
01293           14000.00
01294           13800.00
01295           13400.00
01296           13200.00
01297           12800.00
01298           12600.00
01299           12200.00
01300           12200.00
01301           11600.00
01302           11400.00
01303           11000.00
01304           10800.00
01305           10600.00
01306           10000.00
01307            9800.00
01308            9400.00
01309            9200.00
01310            9000.00
01311            8400.00
01312            8200.00
01313            7800.00
01314            7600.00
01315            7000.00
01316            6800.00
01317            6400.00
01318            6000.00
01319            5800.00
01320            5200.00
01321            5000.00
01322            4400.00
01323            4200.00
01324            3600.00
01325            3400.00
01326            3000.00
01327            2800.00
01328            2400.00
01329            2000.00
01330            1800.00
01331            1200.00
01332             800.00
01333             400.00
01334             200.00
01335            -200.00
01336            -600.00
01337           -1000.00
01338           -1200.00
01339           -1800.00
01340           -2000.00
01341           -2200.00
01342           -2600.00
01343           -2800.00
01344           -3400.00
01345           -4000.00
01346           -4400.00
01347           -4600.00
01348           -4600.00
01349           -5000.00
01350           -5600.00
01351           -6000.00
01352           -6200.00
01353           -6800.00
01354           -7000.00
01355           -7000.00
01356           -7800.00
01357           -7800.00
01358           -8400.00
01359           -8600.00
01360           -9000.00
01361           -9400.00
01362           -9400.00
01363          -10000.00
01364          -10200.00
01365          -10600.00
01366          -10800.00
01367          -11000.00
01368          -11600.00
01369          -11800.00
01370          -12200.00
01371          -12400.00
01372          -12600.00
01373          -13000.00
01374          -13400.00
01375          -13600.00
01376          -13800.00
01377          -14000.00
01378          -14400.00
01379          -14800.00
01380          -15000.00
01381          -15000.00
01382          -15400.00
01383          -15600.00
01384          -15800.00
01385          -16000.00
01386          -16400.00
01387          -16600.00
01388          -16800.00
01389          -17000.00
01390          -17200.00
01391          -17400.00
01392          -17400.00
01393          -17800.00
01394          -18000.00
01395          -18000.00
01396          -18000.00
01397          -18200.00
01398          -18600.00
01399          -18600.00
01400          -19000.00
01401          -18800.00
01402          -19000.00
01403          -19000.00
01404          -19200.00
01405          -19400.00
01406          -19600.00
01407          -19600.00
01408          -19600.00
01409          -19600.00
01410          -19600.00
01411          -19800.00
01412          -19800.00
01413          -19800.00
01414          -19800.00
01415          -19800.00
01416          -19800.00
01417          -19800.00
01418          -19800.00
01419          -19800.00
01420          -19800.00
01421          -19800.00
01422          -19800.00
01423          -19600.00
01424          -19600.00
01425          -19600.00
01426          -19600.00
01427          -19600.00
01428          -19400.00
01429          -19400.00
01430          -19000.00
01431          -19000.00
01432          -19000.00
01433          -18800.00
01434          -18800.00
01435          -18800.00
01436          -18600.00
01437          -18600.00
01438          -18200.00
01439          -18000.00
01440          -18000.00
01441          -18000.00
01442          -17800.00
01443          -17400.00
01444          -17200.00
01445          -17200.00
01446          -17000.00
01447          -16600.00
01448          -16600.00
01449          -16400.00
01450          -16200.00
01451          -15800.00
01452          -15800.00
01453          -15600.00
01454          -15400.00
01455          -15000.00
01456          -14800.00
01457          -14600.00
01458          -14200.00
01459          -14000.00
01460          -13800.00
01461          -13400.00
01462          -13400.00
01463          -13000.00
01464          -12600.00
01465          -12400.00
01466          -11800.00
01467          -11600.00
01468          -11400.00
01469          -11000.00
01470          -10600.00
01471          -10600.00
01472          -10200.00
01473           -9800.00
01474           -9400.00
01475           -9200.00
01476           -8800.00
01477           -8600.00
01478           -8200.00
01479           -7800.00
01480           -7400.00
01481           -7000.00
01482           -6800.00
01483           -6600.00
01484           -6000.00
01485           -5800.00
01486           -5400.00
01487           -5000.00
01488           -4400.00
01489           -4200.00
01490           -3800.00
01491           -3400.00
01492           -3000.00
01493           -2800.00
01494           -2200.00
01495           -2000.00
01496           -1800.00
01497           -1200.00
01498           -1000.00
01499            -600.00
01500            -200.00
01501             200.00
01502             400.00
01503            1000.00
01504            1200.00
01505            1800.00
01506            2000.00
01507            2200.00
01508            2600.00
01509            2800.00
01510            3400.00
01511            3600.00
01512            4200.00
01513            4600.00
01514            5000.00
01515            5200.00
01516            5400.00
01517            5800.00
01518            6200.00
01519            6600.00
01520            6800.00
01521            7400.00
01522            7600.00
01523            7800.00
01524            8400.00
01525            8600.00
01526            9000.00
01527            9200.00
01528            9400.00
01529            9800.00
01530           10200.00
01531           10600.00
01532           10800.00
01533           11400.00
01534           11600.00
01535           11800.00
01536           12200.00
01537           12400.00
01538           12800.00
01539           13000.00
01540           13400.00
01541           13800.00
01542           14000.00
01543           14000.00
01544           14200.00
01545           14800.00
01546           15000.00
01547           15200.00
01548           15400.00
01549           15800.00
01550           15800.00
01551           16400.00
01552           16400.00
01553           16400.00
01554           16600.00
01555           17000.00
01556           17200.00
01557           17200.00
01558           17400.00
01559           17800.00
01560           18000.00
01561           18000.00
01562           18200.00
01563           18200.00
01564           18600.00
01565           18600.00
01566           18600.00
01567           18800.00
01568           19000.00
01569           19000.00
01570           19000.00
01571           19400.00
01572           19400.00
01573           19400.00
01574           19600.00
01575           19600.00
01576           19600.00
01577           19800.00
01578           19800.00
01579           19800.00
01580           19600.00
01581           19800.00
01582           19800.00
01583           19800.00
01584           20000.00
01585           19800.00
01586           19600.00
01587           19600.00
01588           19800.00
01589           19600.00
01590           19600.00
01591           19600.00
01592           19600.00
01593           19600.00
01594           19400.00
01595           19400.00
01596           19200.00
01597           19000.00
01598           19000.00
01599           19000.00
01600           18800.00
01601           18600.00
01602           18600.00
01603           18600.00
01604           18400.00
01605           18200.00
01606           18200.00
01607           18000.00
01608           18000.00
01609           17600.00
01610           17200.00
01611           17200.00
01612           17000.00
01613           17000.00
01614           16400.00
01615           16400.00
01616           16200.00
01617           16200.00
01618           15800.00
01619           15600.00
01620           15400.00
01621           15000.00
01622           14800.00
01623           14600.00
01624           14200.00
01625           14200.00
01626           13800.00
01627           13400.00
01628           13200.00
01629           13000.00
01630           12600.00
01631           12200.00
01632           12200.00
01633           11800.00
01634           11600.00
01635           11200.00
01636           10800.00
01637           10600.00
01638           10200.00
01639            9800.00
01640            9800.00
01641            9200.00
01642            9000.00
01643            8600.00
01644            8400.00
01645            7800.00
01646            7400.00
01647            7200.00
01648            6800.00
01649            6400.00
01650            6200.00
01651            5800.00
01652            5400.00
01653            5200.00
01654            4600.00
01655            4200.00
01656            3800.00
01657            3600.00
01658            3400.00
01659            2800.00
01660            2600.00
01661            2000.00
01662            1800.00
01663            1400.00
01664            1000.00
01665             600.00
01666             200.00
01667            -200.00
01668            -400.00
01669            -800.00
01670           -1200.00
01671           -1400.00
01672           -2000.00
01673           -2200.00
01674           -2600.00
01675           -2800.00
01676           -3200.00
01677           -3800.00
01678           -4400.00
01679           -4600.00
01680           -4600.00
01681           -4800.00
01682           -5400.00
01683           -6000.00
01684           -6000.00
01685           -6600.00
01686           -6800.00
01687           -7000.00
01688           -7600.00
01689           -7800.00
01690           -8200.00
01691           -8600.00
01692           -9000.00
01693           -9200.00
01694           -9400.00
01695           -9800.00
01696          -10200.00
01697          -10200.00
01698          -10800.00
01699          -11000.00
01700          -11400.00
01701          -11800.00
01702          -12200.00
01703          -12400.00
01704          -12600.00
01705          -13000.00
01706          -13400.00
01707          -13400.00
01708          -13800.00
01709          -14200.00
01710          -14600.00
01711          -14800.00
01712          -15000.00
01713          -15200.00
01714          -15600.00
01715          -15600.00
01716          -15800.00
01717          -16200.00
01718          -16200.00
01719          -16600.00
01720          -16800.00
01721          -17000.00
01722          -17200.00
01723          -17400.00
01724          -17400.00
01725          -17800.00
01726          -18000.00
01727          -18000.00
01728          -18200.00
01729          -18200.00
01730          -18600.00
01731          -18800.00
01732          -18800.00
01733          -18800.00
01734          -19000.00
01735          -19000.00
01736          -19000.00
01737          -19400.00
01738          -19400.00
01739          -19400.00
01740          -19600.00
01741          -19600.00
01742          -19600.00
01743          -19600.00
01744          -19800.00
01745          -19800.00
01746          -19800.00
01747          -19800.00
01748          -19800.00
01749          -19800.00
01750          -19800.00
01751          -19800.00
01752          -19800.00
01753          -19800.00
01754          -19800.00
01755          -19600.00
01756          -19600.00
01757          -19600.00
01758          -19400.00
01759          -19600.00
01760          -19400.00
01761          -19400.00
01762          -19400.00
01763          -19000.00
01764          -19000.00
01765          -19000.00
01766          -18800.00
01767          -18800.00
01768          -18600.00
01769          -18600.00
01770          -18200.00
01771          -18200.00
01772          -18000.00
01773          -18000.00
01774          -17800.00
01775          -17400.00
01776          -17400.00
01777          -17200.00
01778          -17200.00
01779          -17000.00
01780          -16600.00
01781          -16600.00
01782          -16200.00
01783          -15800.00
01784          -15800.00
01785          -15600.00
01786          -15400.00
01787          -15000.00
01788          -15000.00
01789          -14600.00
01790          -14200.00
01791          -14000.00
01792          -13800.00
01793          -13400.00
01794          -13200.00
01795          -13000.00
01796          -12800.00
01797          -12400.00
01798          -12200.00
01799          -11800.00
01800          -11600.00
01801          -11000.00
01802          -11000.00
01803          -10600.00
01804          -10200.00
01805          -10000.00
01806           -9600.00
01807           -9200.00
01808           -9000.00
01809           -8600.00
01810           -8200.00
01811           -7800.00
01812           -7600.00
01813           -7000.00
01814           -6800.00
01815           -6200.00
01816           -6200.00
01817           -5800.00
01818           -5200.00
01819           -5000.00
01820           -4600.00
01821           -4400.00
01822           -3800.00
01823           -3600.00
01824           -3200.00
01825           -2800.00
01826           -2600.00
01827           -2000.00
01828           -1800.00
01829           -1400.00
01830           -1000.00
01831            -600.00
01832            -200.00
01833             200.00
01834             400.00
01835            1000.00
01836            1200.00
01837            1600.00
01838            1800.00
01839            2000.00
01840            2600.00
01841            2800.00
01842            3400.00
01843            3600.00
01844            4200.00
01845            4400.00
01846            5000.00
01847            5000.00
01848            5200.00
01849            5800.00
01850            6000.00
01851            6200.00
01852            6800.00
01853            7000.00
01854            7600.00
01855            7800.00
01856            8200.00
01857            8400.00
01858            8800.00
01859            9200.00
01860            9400.00
01861            9800.00
01862           10200.00
01863           10600.00
01864           10800.00
01865           11400.00
01866           11400.00
01867           11800.00
01868           12200.00
01869           12400.00
01870           12600.00
01871           13000.00
01872           13200.00
01873           13800.00
01874           14000.00
01875           14200.00
01876           14600.00
01877           14600.00
01878           14800.00
01879           15400.00
01880           15400.00
01881           15600.00
01882           15800.00
01883           16200.00
01884           16400.00
01885           16600.00
01886           16600.00
01887           17000.00
01888           17200.00
01889           17400.00
01890           17400.00
01891           17400.00
01892           18000.00
01893           18000.00
01894           18200.00
01895           18200.00
01896           18600.00
01897           18600.00
01898           18600.00
01899           18800.00
01900           19000.00
01901           19000.00
01902           19000.00
01903           19400.00
01904           19400.00
01905           19400.00
01906           19400.00
01907           19400.00
01908           19600.00
01909           19600.00
01910           19800.00
01911           19600.00
01912           19800.00
01913           19800.00
01914           19600.00
01915           19800.00
01916           19800.00
01917           19800.00
01918           19600.00
01919           19800.00
01920           19800.00
01921           19600.00
01922           19600.00
01923           19600.00
01924           19600.00
01925           19600.00
01926           19600.00
01927           19400.00
01928           19400.00
01929           19200.00
01930           19000.00
01931           18800.00
01932           19000.00
01933           18800.00
01934           18600.00
01935           18600.00
01936           18200.00
01937           18200.00
01938           18200.00
01939           18000.00
01940           17800.00
01941           17600.00
01942           17400.00
01943           17200.00
01944           17200.00
01945           17000.00
01946           16600.00
01947           16400.00
01948           16200.00
01949           16000.00
01950           15800.00
01951           15600.00
01952           15400.00
01953           15200.00
01954           14800.00
01955           14600.00
01956           14200.00
01957           14000.00
01958           13800.00
01959           13600.00
01960           13400.00
01961           13200.00
01962           12800.00
01963           12400.00
01964           12200.00
01965           11800.00
01966           11600.00
01967           11400.00
01968           11000.00
01969           10600.00
01970           10000.00
01971           10000.00
01972            9400.00
01973            9200.00
01974            9000.00
01975            8400.00
01976            8400.00
01977            8200.00
01978            7800.00
01979            7400.00
01980            6800.00
01981            6600.00
01982            6200.00
01983            5800.00
01984            5400.00
01985            5200.00
01986            4600.00
01987            4200.00
01988            4200.00
01989            3600.00
01990            3400.00
01991            2800.00
01992            2600.00
01993            2200.00
01994            1800.00
01995            1400.00
01996            1000.00
01997             600.00
01998             400.00
01999               0.00
02000            -400.00
02001            -600.00
02002           -1200.00
02003           -1400.00
02004           -1800.00
02005           -2000.00
02006           -2400.00
02007           -2800.00
02008           -3000.00
02009           -3600.00
02010           -4400.00
02011           -4600.00
02012           -4600.00
02013           -4800.00
02014           -5200.00
02015           -5800.00
02016           -6000.00
02017           -6200.00
02018           -6800.00
02019           -7000.00
02020           -7600.00
02021           -7800.00
02022           -8200.00
02023           -8400.00
02024           -9000.00
02025           -9200.00
02026           -9400.00
02027           -9800.00
02028          -10200.00
02029          -10600.00
02030          -10800.00
02031          -11000.00
02032          -11400.00
02033          -11600.00
02034          -12000.00
02035          -12400.00
02036          -12600.00
02037          -13000.00
02038          -13200.00
02039          -13400.00
02040          -13800.00
02041          -14000.00
02042          -14400.00
02043          -14800.00
02044          -14800.00
02045          -15000.00
02046          -15400.00
02047          -15600.00
02048          -15800.00
02049          -16000.00
02050          -16200.00
02051          -16400.00
02052          -16800.00
02053          -17000.00
02054          -17200.00
02055          -17200.00
02056          -17400.00
02057          -17600.00
02058          -17800.00
02059          -18000.00
02060          -18200.00
02061          -18200.00
02062          -18200.00
02063          -18600.00
02064          -18800.00
02065          -18800.00
02066          -18800.00
02067          -19000.00
02068          -19000.00
02069          -19200.00
02070          -19400.00
02071          -19400.00
02072          -19400.00
02073          -19400.00
02074          -19600.00
02075          -19600.00
02076          -19800.00
02077          -19800.00
02078          -19600.00
02079          -19800.00
02080          -19800.00
02081          -19800.00
02082          -19800.00
02083          -19800.00
02084          -19800.00
02085          -19800.00
02086          -19800.00
02087          -19800.00
02088          -19600.00
02089          -19800.00
02090          -19600.00
02091          -19400.00
02092          -19400.00
02093          -19400.00
02094          -19200.00
02095          -19000.00
02096          -19000.00
02097          -18800.00
02098          -18800.00
02099          -18800.00
02100          -18800.00
02101          -18600.00
02102          -18200.00
02103          -18200.00
02104          -18200.00
02105          -18000.00
02106          -17800.00
02107          -17800.00
02108          -17400.00
02109          -17400.00
02110          -17200.00
02111          -16600.00
02112          -16600.00
02113          -16600.00
02114          -16200.00
02115          -16200.00
02116          -15600.00
02117          -15600.00
02118          -15400.00
02119          -15000.00
02120          -15000.00
02121          -14600.00
02122          -14400.00
02123          -14000.00
02124          -13800.00
02125          -13600.00
02126          -13400.00
02127          -13000.00
02128          -12800.00
02129          -12400.00
02130          -12200.00
02131          -11600.00
02132          -11600.00
02133          -11400.00
02134          -10800.00
02135          -10600.00
02136          -10200.00
02137          -10000.00
02138           -9400.00
02139           -9400.00
02140           -9000.00
02141           -8600.00
02142           -8400.00
02143           -8000.00
02144           -7600.00
02145           -7400.00
02146           -7000.00
02147           -6600.00
02148           -6200.00
02149           -5800.00
02150           -5400.00
02151           -5200.00
02152           -4600.00
02153           -4400.00
02154           -3800.00
02155           -3600.00
02156           -3400.00
02157           -3000.00
02158           -2600.00
02159           -2200.00
02160           -2000.00
02161           -1400.00
02162           -1200.00
02163            -600.00
02164            -400.00
02165            -200.00
02166             400.00
02167             600.00
02168            1000.00
02169            1400.00
02170            1800.00
02171            2000.00
02172            2400.00
02173            2600.00
02174            3000.00
02175            3400.00
02176            4000.00
02177            4200.00
02178            4600.00
02179            5000.00
02180            5200.00
02181            5800.00
02182            6000.00
02183            6200.00
02184            6800.00
02185            6800.00
02186            7400.00
02187            7600.00
02188            8200.00
02189            8400.00
02190            9000.00
02191            9000.00
02192            9400.00
02193            9800.00
02194           10000.00
02195           10400.00
02196           10800.00
02197           10800.00
02198           11400.00
02199           11800.00
02200           12200.00
02201           12400.00
02202           12600.00
02203           13000.00
02204           13200.00
02205           13600.00
02206           13800.00
02207           14200.00
02208           14200.00
02209           14800.00
02210           15000.00
02211           15200.00
02212           15400.00
02213           15600.00
02214           15800.00
02215           16200.00
02216           16200.00
02217           16400.00
02218           16600.00
02219           17000.00
02220           17000.00
02221           17200.00
02222           17400.00
02223           17800.00
02224           18000.00
02225           18000.00
02226           18000.00
02227           18200.00
02228           18600.00
02229           18600.00
02230           18600.00
02231           18600.00
02232           18800.00
02233           18800.00
02234           19000.00
02235           19000.00
02236           19400.00
02237           19400.00
02238           19400.00
02239           19600.00
02240           19600.00
02241           19600.00
02242           19600.00
02243           19600.00
02244           19800.00
02245           19600.00
02246           19800.00
02247           19800.00
02248           19800.00
02249           19800.00
02250           19800.00
02251           19800.00
02252           19600.00
02253           19600.00
02254           19600.00
02255           19600.00
02256           19600.00
02257           19600.00
02258           19400.00
02259           19600.00
02260           19400.00
02261           19000.00
02262           19400.00
02263           19000.00
02264           19000.00
02265           18800.00
02266           18600.00
02267           18600.00
02268           18200.00
02269           18200.00
02270           18200.00
02271           18000.00
02272           18000.00
02273           17800.00
02274           17400.00
02275           17400.00
02276           17200.00
02277           17000.00
02278           16600.00
02279           16600.00
02280           16400.00
02281           16200.00
02282           16000.00
02283           15600.00
02284           15400.00
02285           15400.00
02286           15000.00
02287           14600.00
02288           14600.00
02289           14200.00
02290           13800.00
02291           13800.00
02292           13200.00
02293           13200.00
02294           12800.00
02295           12600.00
02296           12200.00
02297           11800.00
02298           11600.00
02299           11400.00
02300           10800.00
02301           10600.00
02302           10400.00
02303           10000.00
02304            9800.00
02305            9400.00
02306            9000.00
02307            8600.00
02308            8400.00
02309            8000.00
02310            7600.00
02311            7400.00
02312            7000.00
02313            6600.00
02314            6200.00
02315            5800.00
02316            5400.00
02317            5200.00
02318            5000.00
02319            4200.00
02320            4000.00
02321            3800.00
02322            3400.00
02323            3000.00
02324            2600.00
02325            2200.00
02326            1800.00
02327            1400.00
02328            1200.00
02329             800.00
02330             400.00
02331             200.00
02332            -400.00
02333            -600.00
02334           -1000.00
02335           -1200.00
02336           -1600.00
02337           -2200.00
02338           -2200.00
02339           -2800.00
02340           -2800.00
02341           -3600.00
02342           -4200.00
02343           -4600.00
02344           -4600.00
02345           -4600.00
02346           -5200.00
02347           -5600.00
02348           -5800.00
02349           -6200.00
02350           -6800.00
02351           -7000.00
02352           -7400.00
02353           -7800.00
02354           -7800.00
02355           -8400.00
02356           -8600.00
02357           -9200.00
02358           -9400.00
02359           -9600.00
02360          -10000.00
02361          -10600.00
02362          -10800.00
02363          -11000.00
02364          -11400.00
02365          -11600.00
02366          -12000.00
02367          -12400.00
02368          -12600.00
02369          -13000.00
02370          -13200.00
02371          -13400.00
02372          -13800.00
02373          -14000.00
02374          -14400.00
02375          -14800.00
02376          -14800.00
02377          -15000.00
02378          -15400.00
02379          -15400.00
02380          -15800.00
02381          -15800.00
02382          -16200.00
02383          -16400.00
02384          -16600.00
02385          -17000.00
02386          -17200.00
02387          -17200.00
02388          -17400.00
02389          -17400.00
02390          -17800.00
02391          -18000.00
02392          -18200.00
02393          -18000.00
02394          -18200.00
02395          -18600.00
02396          -18600.00
02397          -18800.00
02398          -19000.00
02399          -18800.00
02400          -19000.00
02401          -19000.00
02402          -19200.00
02403          -19400.00
02404          -19400.00
02405          -19600.00
02406          -19600.00
02407          -19800.00
02408          -19600.00
02409          -19600.00
02410          -19800.00
02411          -19800.00
02412          -19800.00
02413          -19800.00
02414          -19800.00
02415          -19800.00
02416          -19800.00
02417          -19800.00
02418          -19800.00
02419          -19800.00
02420          -19800.00
02421          -19600.00
02422          -19600.00
02423          -19600.00
02424          -19400.00
02425          -19400.00
02426          -19200.00
02427          -19400.00
02428          -19000.00
02429          -19000.00
02430          -19000.00
02431          -18800.00
02432          -18800.00
02433          -18600.00
02434          -18200.00
02435          -18400.00
02436          -18200.00
02437          -18000.00
02438          -18000.00
02439          -17800.00
02440          -17400.00
02441          -17400.00
02442          -17200.00
02443          -17000.00
02444          -16800.00
02445          -16600.00
02446          -16400.00
02447          -16200.00
02448          -15800.00
02449          -15600.00
02450          -15400.00
02451          -15000.00
02452          -15000.00
02453          -14800.00
02454          -14400.00
02455          -14200.00
02456          -14000.00
02457          -13800.00
02458          -13400.00
02459          -13000.00
02460          -12600.00
02461          -12400.00
02462          -12200.00
02463          -11800.00
02464          -11600.00
02465          -11400.00
02466          -11000.00
02467          -10600.00
02468          -10200.00
02469          -10000.00
02470           -9800.00
02471           -9200.00
02472           -9000.00
02473           -8600.00
02474           -8400.00
02475           -8200.00
02476           -7600.00
02477           -7400.00
02478           -7000.00
02479           -6800.00
02480           -6200.00
02481           -6000.00
02482           -5400.00
02483           -5200.00
02484           -4800.00
02485           -4400.00
02486           -4200.00
02487           -3800.00
02488           -3400.00
02489           -3000.00
02490           -2800.00
02491           -2200.00
02492           -2000.00
02493           -1800.00
02494           -1200.00
02495           -1000.00
02496            -400.00
02497            -200.00
02498             200.00
02499             400.00
02500            1000.00
02501            1200.00
02502            1800.00
02503            2000.00
02504            2200.00
02505            2600.00
02506            3000.00
02507            3600.00
02508            3800.00
02509            4200.00
02510            4600.00
02511            4800.00
02512            5200.00
02513            5600.00
02514            5800.00
02515            6200.00
02516            6600.00
02517            6800.00
02518            7400.00
02519            7800.00
02520            8200.00
02521            8400.00
02522            8600.00
02523            9000.00
02524            9400.00
02525            9800.00
02526           10000.00
02527           10400.00
02528           10600.00
02529           11000.00
02530           11400.00
02531           11600.00
02532           11800.00
02533           12200.00
02534           12400.00
02535           13000.00
02536           13200.00
02537           13400.00
02538           13800.00
02539           14000.00
02540           14200.00
02541           14600.00
02542           14800.00
02543           15000.00
02544           15000.00
02545           15600.00
02546           15600.00
02547           16200.00
02548           16400.00
02549           16400.00
02550           16600.00
02551           16600.00
02552           17000.00
02553           17200.00
02554           17400.00
02555           17400.00
02556           17800.00
02557           18000.00
02558           18000.00
02559           18200.00
02560           18200.00
02561           18600.00
02562           18600.00
02563           18600.00
02564           18800.00
02565           19000.00
02566           19000.00
02567           19000.00
02568           19400.00
02569           19400.00
02570           19400.00
02571           19600.00
02572           19600.00
02573           19600.00
02574           19600.00
02575           19600.00
02576           19800.00
02577           19600.00
02578           19800.00
02579           19800.00
02580           19800.00
02581           19600.00
02582           19600.00
02583           19800.00
02584           19800.00
02585           19800.00
02586           19600.00
02587           19800.00
02588           19600.00
02589           19600.00
02590           19600.00
02591           19400.00
02592           19400.00
02593           19400.00
02594           19000.00
02595           19200.00
02596           18800.00
02597           18800.00
02598           18600.00
02599           18600.00
02600           18600.00
02601           18600.00
02602           18200.00
02603           18000.00
02604           18000.00
02605           17800.00
02606           17400.00
02607           17400.00
02608           17200.00
02609           17000.00
02610           17000.00
02611           16600.00
02612           16400.00
02613           16200.00
02614           16000.00
02615           15600.00
02616           15400.00
02617           15400.00
02618           15000.00
02619           14800.00
02620           14200.00
02621           14200.00
02622           13800.00
02623           13800.00
02624           13400.00
02625           13200.00
02626           12800.00
02627           12400.00
02628           12200.00
02629           11800.00
02630           11600.00
02631           11400.00
02632           10800.00
02633           10600.00
02634           10400.00
02635           10000.00
02636            9800.00
02637            9400.00
02638            9000.00
02639            9000.00
02640            8400.00
02641            8200.00
02642            7600.00
02643            7400.00
02644            7000.00
02645            6800.00
02646            6400.00
02647            6000.00
02648            5800.00
02649            5400.00
02650            5200.00
02651            4600.00
02652            4200.00
02653            3800.00
02654            3400.00
02655            3000.00
02656            2600.00
02657            2600.00
02658            2000.00
02659            1800.00
02660            1200.00
02661            1000.00
02662             400.00
02663             200.00
02664            -200.00
02665            -600.00
02666           -1000.00
02667           -1200.00
02668           -1400.00
02669           -2000.00
02670           -2200.00
02671           -2600.00
02672           -2800.00
02673           -3400.00
02674           -3800.00
02675           -4400.00
02676           -4600.00
02677           -4600.00
02678           -5000.00
02679           -5800.00
02680           -6000.00
02681           -6200.00
02682           -6800.00
02683           -7000.00
02684           -7200.00
02685           -7600.00
02686           -8200.00
02687           -8400.00
02688           -8600.00
02689           -9000.00
02690           -9400.00
02691           -9800.00
02692          -10000.00
02693          -10200.00
02694          -10600.00
02695          -11000.00
02696          -11400.00
02697          -11600.00
02698          -11800.00
02699          -12400.00
02700          -12600.00
02701          -12800.00
02702          -13000.00
02703          -13400.00
02704          -13800.00
02705          -14000.00
02706          -14200.00
02707          -14600.00
02708          -14800.00
02709          -15000.00
02710          -15200.00
02711          -15400.00
02712          -15600.00
02713          -16000.00
02714          -16200.00
02715          -16400.00
02716          -16600.00
02717          -17000.00
02718          -17000.00
02719          -17200.00
02720          -17400.00
02721          -17400.00
02722          -17800.00
02723          -18000.00
02724          -18000.00
02725          -18200.00
02726          -18200.00
02727          -18400.00
02728          -18800.00
02729          -18800.00
02730          -18800.00
02731          -19000.00
02732          -19000.00
02733          -19200.00
02734          -19000.00
02735          -19400.00
02736          -19600.00
02737          -19600.00
02738          -19600.00
02739          -19800.00
02740          -19600.00
02741          -19600.00
02742          -19800.00
02743          -19800.00
02744          -19800.00
02745          -19800.00
02746          -19800.00
02747          -19800.00
02748          -19800.00
02749          -19800.00
02750          -19800.00
02751          -19800.00
02752          -19800.00
02753          -19600.00
02754          -19600.00
02755          -19600.00
02756          -19600.00
02757          -19600.00
02758          -19400.00
02759          -19400.00
02760          -19200.00
02761          -19000.00
02762          -19000.00
02763          -18800.00
02764          -18800.00
02765          -18800.00
02766          -18600.00
02767          -18200.00
02768          -18200.00
02769          -18200.00
02770          -18000.00
02771          -17800.00
02772          -17400.00
02773          -17400.00
02774          -17200.00
02775          -17000.00
02776          -16600.00
02777          -16600.00
02778          -16400.00
02779          -16200.00
02780          -15800.00
02781          -15600.00
02782          -15400.00
02783          -15000.00
02784          -15000.00
02785          -14800.00
02786          -14600.00
02787          -14000.00
02788          -13800.00
02789          -13800.00
02790          -13400.00
02791          -13200.00
02792          -12600.00
02793          -12400.00
02794          -12200.00
02795          -11800.00
02796          -11800.00
02797          -11400.00
02798          -11000.00
02799          -10600.00
02800          -10200.00
02801          -10200.00
02802           -9800.00
02803           -9400.00
02804           -9200.00
02805           -8600.00
02806           -8600.00
02807           -8000.00
02808           -7800.00
02809           -7400.00
02810           -6800.00
02811           -6800.00
02812           -6200.00
02813           -6000.00
02814           -5800.00
02815           -5200.00
02816           -4800.00
02817           -4400.00
02818           -4400.00
02819           -3800.00
02820           -3600.00
02821           -3200.00
02822           -2800.00
02823           -2200.00
02824           -2200.00
02825           -1600.00
02826           -1200.00
02827            -800.00
02828            -600.00
02829            -200.00
02830             200.00
02831             400.00
02832            1000.00
02833            1200.00
02834            1800.00
02835            2000.00
02836            2200.00
02837            2600.00
02838            2800.00
02839            3400.00
02840            3800.00
02841            4200.00
02842            4600.00
02843            5000.00
02844            5000.00
02845            5600.00
02846            5800.00
02847            6200.00
02848            6600.00
02849            6800.00
02850            7200.00
02851            7600.00
02852            8200.00
02853            8400.00
02854            8600.00
02855            9000.00
02856            9400.00
02857            9800.00
02858           10000.00
02859           10200.00
02860           10600.00
02861           11000.00
02862           11200.00
02863           11600.00
02864           11800.00
02865           12200.00
02866           12400.00
02867           12800.00
02868           13200.00
02869           13400.00
02870           13800.00
02871           14000.00
02872           14000.00
02873           14600.00
02874           14800.00
02875           14800.00
02876           15200.00
02877           15400.00
02878           15800.00
02879           16000.00
02880           16200.00
02881           16400.00
02882           16600.00
02883           16600.00
02884           17000.00
02885           17000.00
02886           17200.00
02887           17400.00
02888           17800.00
02889           17800.00
02890           18000.00
02891           18200.00
02892           18200.00
02893           18400.00
02894           18600.00
02895           18800.00
02896           18800.00
02897           19000.00
02898           19000.00
02899           19200.00
02900           19400.00
02901           19400.00
02902           19400.00
02903           19600.00
02904           19600.00
02905           19600.00
02906           19600.00
02907           19600.00
02908           19600.00
02909           19800.00
02910           19800.00
02911           19600.00
02912           19800.00
02913           19600.00
02914           19800.00
02915           19800.00
02916           19800.00
02917           19600.00
02918           19600.00
02919           19600.00
02920           19400.00
02921           19600.00
02922           19600.00
02923           19600.00
02924           19600.00
02925           19400.00
02926           19400.00
02927           19200.00
02928           19000.00
02929           19000.00
02930           18800.00
02931           18600.00
02932           18600.00
02933           18600.00
02934           18200.00
02935           18200.00
02936           18000.00
02937           18000.00
02938           17800.00
02939           17400.00
02940           17400.00
02941           17000.00
02942           17000.00
02943           16600.00
02944           16400.00
02945           16400.00
02946           16000.00
02947           15800.00
02948           15600.00
02949           15400.00
02950           14800.00
02951           14800.00
02952           14600.00
02953           14200.00
02954           14000.00
02955           13800.00
02956           13400.00
02957           13200.00
02958           13000.00
02959           12400.00
02960           12200.00
02961           12200.00
02962           11600.00
02963           11400.00
02964           11000.00
02965           10600.00
02966           10600.00
02967           10200.00
02968           10000.00
02969            9800.00
02970            9200.00
02971            9000.00
02972            8400.00
02973            8200.00
02974            7800.00
02975            7400.00
02976            7000.00
02977            6800.00
02978            6600.00
02979            6000.00
02980            5800.00
02981            5400.00
02982            5000.00
02983            4600.00
02984            4200.00
02985            4000.00
02986            3400.00
02987            3200.00
02988            2800.00
02989            2600.00
02990            2000.00
02991            1800.00
02992            1200.00
02993            1000.00
02994             600.00
02995             400.00
02996            -200.00
02997            -600.00
02998            -600.00
02999           -1200.00
03000           -1400.00
03001           -1800.00
03002           -2000.00
03003           -2600.00
03004           -2800.00
03005           -3000.00
03006           -3800.00
03007           -4400.00
03008           -4600.00
03009           -4600.00
03010           -5000.00
03011           -5400.00
03012           -6000.00
03013           -6200.00
03014           -6600.00
03015           -7000.00
03016           -7000.00
03017           -7800.00
03018           -8200.00
03019           -8400.00
03020           -8600.00
03021           -9000.00
03022           -9400.00
03023           -9600.00
03024          -10000.00
03025          -10200.00
03026          -10600.00
03027          -10800.00
03028          -11400.00
03029          -11600.00
03030          -11800.00
03031          -12200.00
03032          -12400.00
03033          -12600.00
03034          -13200.00
03035          -13400.00
03036          -13600.00
03037          -13800.00
03038          -14000.00
03039          -14200.00
03040          -14800.00
03041          -15000.00
03042          -15000.00
03043          -15600.00
03044          -15600.00
03045          -15800.00
03046          -16200.00
03047          -16400.00
03048          -16600.00
03049          -17000.00
03050          -17000.00
03051          -17000.00
03052          -17200.00
03053          -17400.00
03054          -17800.00
03055          -17800.00
03056          -18000.00
03057          -18200.00
03058          -18200.00
03059          -18600.00
03060          -18600.00
03061          -18800.00
03062          -18800.00
03063          -19000.00
03064          -19000.00
03065          -19000.00
03066          -19000.00
03067          -19400.00
03068          -19400.00
03069          -19600.00
03070          -19600.00
03071          -19600.00
03072          -19800.00
03073          -19800.00
03074          -19800.00
03075          -19800.00
03076          -19600.00
03077          -19800.00
03078          -19800.00
03079          -19800.00
03080          -19800.00
03081          -19800.00
03082          -19800.00
03083          -19800.00
03084          -19800.00
03085          -19800.00
03086          -19800.00
03087          -19800.00
03088          -19600.00
03089          -19600.00
03090          -19400.00
03091          -19400.00
03092          -19200.00
03093          -19000.00
03094          -19000.00
03095          -18800.00
03096          -18800.00
03097          -18800.00
03098          -18600.00
03099          -18200.00
03100          -18200.00
03101          -18000.00
03102          -18000.00
03103          -17800.00
03104          -17800.00
03105          -17400.00
03106          -17200.00
03107          -17000.00
03108          -16600.00
03109          -16600.00
03110          -16400.00
03111          -16200.00
03112          -15800.00
03113          -15600.00
03114          -15600.00
03115          -15000.00
03116          -15000.00
03117          -14800.00
03118          -14600.00
03119          -14200.00
03120          -14000.00
03121          -13800.00
03122          -13400.00
03123          -13200.00
03124          -12600.00
03125          -12600.00
03126          -12400.00
03127          -11800.00
03128          -11800.00
03129          -11400.00
03130          -11000.00
03131          -10800.00
03132          -10200.00
03133          -10200.00
03134           -9800.00
03135           -9400.00
03136           -9200.00
03137           -8800.00
03138           -8600.00
03139           -8200.00
03140           -7800.00
03141           -7600.00
03142           -7000.00
03143           -6800.00
03144           -6400.00
03145           -6200.00
03146           -5800.00
03147           -5400.00
03148           -5200.00
03149           -4600.00
03150           -4400.00
03151           -3800.00
03152           -3600.00
03153           -3400.00
03154           -2800.00
03155           -2600.00
03156           -2000.00
03157           -1800.00
03158           -1400.00
03159           -1000.00
03160            -600.00
03161            -400.00
03162             200.00
03163             400.00
03164             600.00
03165            1200.00
03166            1400.00
03167            1800.00
03168            2000.00
03169            2600.00
03170            2800.00
03171            3400.00
03172            3800.00
03173            4200.00
03174            4600.00
03175            5000.00
03176            5000.00
03177            5400.00
03178            5800.00
03179            6000.00
03180            6600.00
03181            6800.00
03182            7000.00
03183            7600.00
03184            7800.00
03185            8400.00
03186            8600.00
03187            9000.00
03188            9200.00
03189            9600.00
03190           10000.00
03191           10000.00
03192           10600.00
03193           11000.00
03194           11200.00
03195           11600.00
03196           11800.00
03197           12200.00
03198           12400.00
03199           12600.00
03200           13000.00
03201           13200.00
03202           13800.00
03203           13800.00
03204           14200.00
03205           14600.00
03206           14600.00
03207           15000.00
03208           15200.00
03209           15400.00
03210           15600.00
03211           15800.00
03212           16200.00
03213           16200.00
03214           16400.00
03215           16600.00
03216           17000.00
03217           17000.00
03218           17200.00
03219           17400.00
03220           17400.00
03221           17800.00
03222           18000.00
03223           18000.00
03224           18200.00
03225           18600.00
03226           18600.00
03227           18600.00
03228           18800.00
03229           18800.00
03230           19000.00
03231           19000.00
03232           19200.00
03233           19400.00
03234           19400.00
03235           19600.00
03236           19600.00
03237           19600.00
03238           19600.00
03239           19600.00
03240           19800.00
03241           19800.00
03242           19800.00
03243           19800.00
03244           19800.00
03245           19800.00
03246           20000.00
03247           19800.00
03248           19800.00
03249           19800.00
03250           19600.00
03251           19600.00
03252           19600.00
03253           19800.00
03254           19600.00
03255           19600.00
03256           19400.00
03257           19400.00
03258           19400.00
03259           19000.00
03260           19000.00
03261           19000.00
03262           18800.00
03263           18800.00
03264           18600.00
03265           18600.00
03266           18200.00
03267           18000.00
03268           18000.00
03269           17800.00
03270           17800.00
03271           17400.00
03272           17200.00
03273           17200.00
03274           17000.00
03275           16600.00
03276           16400.00
03277           16200.00
03278           16000.00
03279           15800.00
03280           15600.00
03281           15400.00
03282           15000.00
03283           14800.00
03284           14600.00
03285           14200.00
03286           14000.00
03287           13800.00
03288           13400.00
03289           13200.00
03290           13000.00
03291           12600.00
03292           12400.00
03293           12200.00
03294           11800.00
03295           11400.00
03296           11200.00
03297           11000.00
03298           10600.00
03299           10200.00
03300            9800.00
03301            9800.00
03302            9200.00
03303            9000.00
03304            8600.00
03305            8400.00
03306            8000.00
03307            7600.00
03308            7200.00
03309            6800.00
03310            6600.00
03311            6200.00
03312            5800.00
03313            5400.00
03314            5200.00
03315            4600.00
03316            4400.00
03317            4000.00
03318            3600.00
03319            3400.00
03320            3000.00
03321            2600.00
03322            2200.00
03323            1800.00
03324            1400.00
03325            1000.00
03326             800.00
03327             400.00
03328               0.00
03329            -400.00
03330            -600.00
03331           -1200.00
03332           -1400.00
03333           -2000.00
03334           -2000.00
03335           -2600.00
03336           -2800.00
03337           -3000.00
03338           -3800.00
03339           -4400.00
03340           -4600.00
03341           -4600.00
03342           -4800.00
03343           -5400.00
03344           -6000.00
03345           -6000.00
03346           -6600.00
03347           -7000.00
03348           -7000.00
03349           -7600.00
03350           -7800.00
03351           -8200.00
03352           -8600.00
03353           -9000.00
03354           -9200.00
03355           -9600.00
03356           -9800.00
03357          -10200.00
03358          -10200.00
03359          -11000.00
03360          -11400.00
03361          -11600.00
03362          -11800.00
03363          -12200.00
03364          -12400.00
03365          -12600.00
03366          -13200.00
03367          -13400.00
03368          -13400.00
03369          -13800.00
03370          -14000.00
03371          -14200.00
03372          -14800.00
03373          -15000.00
03374          -15200.00
03375          -15400.00
03376          -15600.00
03377          -15800.00
03378          -15800.00
03379          -16200.00
03380          -16400.00
03381          -16600.00
03382          -17000.00
03383          -17200.00
03384          -17200.00
03385          -17400.00
03386          -17800.00
03387          -17800.00
03388          -18000.00
03389          -18000.00
03390          -18200.00
03391          -18600.00
03392          -18600.00
03393          -18800.00
03394          -18800.00
03395          -18800.00
03396          -19000.00
03397          -19200.00
03398          -19000.00
03399          -19200.00
03400          -19400.00
03401          -19400.00
03402          -19600.00
03403          -19600.00
03404          -19800.00
03405          -19800.00
03406          -19800.00
03407          -19800.00
03408          -19800.00
03409          -19800.00
03410          -19800.00
03411          -19800.00
03412          -19800.00
03413          -19800.00
03414          -19800.00
03415          -19800.00
03416          -19800.00
03417          -19800.00
03418          -19600.00
03419          -19600.00
03420          -19600.00
03421          -19400.00
03422          -19600.00
03423          -19200.00
03424          -19400.00
03425          -19000.00
03426          -19000.00
03427          -19000.00
03428          -18800.00
03429          -18800.00
03430          -18600.00
03431          -18400.00
03432          -18200.00
03433          -18000.00
03434          -17800.00
03435          -17800.00
03436          -17600.00
03437          -17400.00
03438          -17200.00
03439          -17200.00
03440          -17000.00
03441          -16600.00
03442          -16400.00
03443          -16200.00
03444          -15800.00
03445          -15600.00
03446          -15600.00
03447          -15200.00
03448          -15000.00
03449          -14800.00
03450          -14400.00
03451          -14200.00
03452          -14000.00
03453          -13800.00
03454          -13400.00
03455          -13200.00
03456          -13000.00
03457          -12600.00
03458          -12400.00
03459          -12200.00
03460          -11800.00
03461          -11400.00
03462          -11000.00
03463          -10800.00
03464          -10600.00
03465          -10200.00
03466          -10000.00
03467           -9400.00
03468           -9200.00
03469           -9000.00
03470           -8600.00
03471           -8200.00
03472           -7800.00
03473           -7600.00
03474           -7200.00
03475           -7000.00
03476           -6600.00
03477           -6200.00
03478           -6000.00
03479           -5400.00
03480           -5200.00
03481           -4800.00
03482           -4400.00
03483           -3800.00
03484           -3600.00
03485           -3400.00
03486           -3000.00
03487           -2600.00
03488           -2200.00
03489           -1800.00
03490           -1400.00
03491           -1200.00
03492            -600.00
03493            -400.00
03494            -200.00
03495             400.00
03496             600.00
03497            1000.00
03498            1200.00
03499            1800.00
03500            2000.00
03501            2600.00
03502            2800.00
03503            3200.00
03504            3600.00
03505            4200.00
03506            4400.00
03507            4800.00
03508            5000.00
03509            5400.00
03510            5800.00
03511            6000.00
03512            6400.00
03513            6800.00
03514            7200.00
03515            7400.00
03516            7800.00
03517            8200.00
03518            8400.00
03519            9000.00
03520            9200.00
03521            9800.00
03522            9800.00
03523           10000.00
03524           10600.00
03525           10800.00
03526           11000.00
03527           11400.00
03528           11800.00
03529           12200.00
03530           12400.00
03531           12800.00
03532           12800.00
03533           13200.00
03534           13400.00
03535           13800.00
03536           14000.00
03537           14200.00
03538           14600.00
03539           14800.00
03540           15000.00
03541           15400.00
03542           15600.00
03543           15800.00
03544           16200.00
03545           16400.00
03546           16400.00
03547           16600.00
03548           16800.00
03549           17200.00
03550           17200.00
03551           17400.00
03552           17800.00
03553           18000.00
03554           18000.00
03555           18000.00
03556           18000.00
03557           18600.00
03558           18600.00
03559           18600.00
03560           18600.00
03561           18800.00
03562           19000.00
03563           19000.00
03564           19200.00
03565           19400.00
03566           19400.00
03567           19400.00
03568           19600.00
03569           19600.00
03570           19600.00
03571           19600.00
03572           19600.00
03573           19800.00
03574           19800.00
03575           19800.00
03576           19800.00
03577           19800.00
03578           19800.00
03579           19800.00
03580           19800.00
03581           19800.00
03582           19600.00
03583           19800.00
03584           19600.00
03585           19600.00
03586           19600.00
03587           19600.00
03588           19400.00
03589           19400.00
03590           19200.00
03591           19000.00
03592           19000.00
03593           19000.00
03594           18800.00
03595           18600.00
03596           18600.00
03597           18400.00
03598           18200.00
03599           18200.00
03600           18000.00
03601           17800.00
03602           17600.00
03603           17400.00
03604           17200.00
03605           17200.00
03606           16800.00
03607           16600.00
03608           16600.00
03609           16200.00
03610           16200.00
03611           15800.00
03612           15600.00
03613           15400.00
03614           15000.00
03615           14800.00
03616           14800.00
03617           14200.00
03618           14200.00
03619           13800.00
03620           13400.00
03621           13200.00
03622           13000.00
03623           12800.00
03624           12400.00
03625           12200.00
03626           11800.00
03627           11600.00
03628           11200.00
03629           11000.00
03630           10600.00
03631           10200.00
03632           10000.00
03633            9800.00
03634            9400.00
03635            9000.00
03636            8600.00
03637            8400.00
03638            8200.00
03639            7600.00
03640            7400.00
03641            7000.00
03642            6800.00
03643            6200.00
03644            5800.00
03645            5400.00
03646            5200.00
03647            4600.00
03648            4400.00
03649            4200.00
03650            3600.00
03651            3400.00
03652            3000.00
03653            2600.00
03654            2200.00
03655            2000.00
03656            1600.00
03657            1000.00
03658             800.00
03659             400.00
03660             200.00
03661            -400.00
03662            -600.00
03663           -1000.00
03664           -1400.00
03665           -1800.00
03666           -2000.00
03667           -2600.00
03668           -2800.00
03669           -3000.00
03670           -3800.00
03671           -4400.00
03672           -4600.00
03673           -4600.00
03674           -4800.00
03675           -5200.00
03676           -5800.00
03677           -6000.00
03678           -6200.00
03679           -7000.00
03680           -7000.00
03681           -7600.00
03682           -7800.00
03683           -8200.00
03684           -8600.00
03685           -8600.00
03686           -9200.00
03687           -9400.00
03688           -9800.00
03689          -10200.00
03690          -10400.00
03691          -10800.00
03692          -11000.00
03693          -11200.00
03694          -11800.00
03695          -11800.00
03696          -12200.00
03697          -12600.00
03698          -13000.00
03699          -13200.00
03700          -13400.00
03701          -13800.00
03702          -14000.00
03703          -14200.00
03704          -14600.00
03705          -14800.00
03706          -15000.00
03707          -15400.00
03708          -15600.00
03709          -15600.00
03710          -15800.00
03711          -16200.00
03712          -16400.00
03713          -16600.00
03714          -16800.00
03715          -17000.00
03716          -17200.00
03717          -17200.00
03718          -17400.00
03719          -17800.00
03720          -17800.00
03721          -18000.00
03722          -18000.00
03723          -18200.00
03724          -18400.00
03725          -18600.00
03726          -18800.00
03727          -19000.00
03728          -19000.00
03729          -19000.00
03730          -19200.00
03731          -19400.00
03732          -19400.00
03733          -19600.00
03734          -19600.00
03735          -19600.00
03736          -19800.00
03737          -19800.00
03738          -19800.00
03739          -19800.00
03740          -19800.00
03741          -19800.00
03742          -19800.00
03743          -20000.00
03744          -19800.00
03745          -19800.00
03746          -19800.00
03747          -19800.00
03748          -19800.00
03749          -19800.00
03750          -19800.00
03751          -19800.00
03752          -19800.00
03753          -19600.00
03754          -19400.00
03755          -19400.00
03756          -19200.00
03757          -19000.00
03758          -19000.00
03759          -18800.00
03760          -18800.00
03761          -18600.00
03762          -18600.00
03763          -18200.00
03764          -18200.00
03765          -18200.00
03766          -18000.00
03767          -17800.00
03768          -17800.00
03769          -17400.00
03770          -17200.00
03771          -17200.00
03772          -16600.00
03773          -16600.00
03774          -16400.00
03775          -16400.00
03776          -16200.00
03777          -15800.00
03778          -15600.00
03779          -15400.00
03780          -15000.00
03781          -15000.00
03782          -14600.00
03783          -14200.00
03784          -14000.00
03785          -13800.00
03786          -13400.00
03787          -13200.00
03788          -13000.00
03789          -12800.00
03790          -12400.00
03791          -12200.00
03792          -11800.00
03793          -11800.00
03794          -11400.00
03795          -11000.00
03796          -10600.00
03797          -10400.00
03798          -10200.00
03799           -9800.00
03800           -9400.00
03801           -9200.00
03802           -8600.00
03803           -8200.00
03804           -8200.00
03805           -7800.00
03806           -7400.00
03807           -7000.00
03808           -6800.00
03809           -6200.00
03810           -6000.00
03811           -5400.00
03812           -5200.00
03813           -5000.00
03814           -4400.00
03815           -4200.00
03816           -3800.00
03817           -3400.00
03818           -3000.00
03819           -2800.00
03820           -2200.00
03821           -2000.00
03822           -1400.00
03823           -1200.00
03824            -800.00
03825            -600.00
03826            -200.00
03827             400.00
03828             400.00
03829            1000.00
03830            1400.00
03831            1800.00
03832            2000.00
03833            2600.00
03834            2600.00
03835            3000.00
03836            3600.00
03837            3800.00
03838            4400.00
03839            4600.00
03840            5000.00
03841            5200.00
03842            5600.00
03843            6000.00
03844            6200.00
03845            6800.00
03846            7000.00
03847            7400.00
03848            7800.00
03849            8200.00
03850            8400.00
03851            8600.00
03852            9000.00
03853            9400.00
03854            9800.00
03855           10200.00
03856           10200.00
03857           10800.00
03858           11000.00
03859           11400.00
03860           11600.00
03861           11800.00
03862           12200.00
03863           12400.00
03864           12600.00
03865           13200.00
03866           13200.00
03867           13800.00
03868           14000.00
03869           14000.00
03870           14600.00
03871           14800.00
03872           15000.00
03873           15200.00
03874           15400.00
03875           15600.00
03876           16000.00
03877           16200.00
03878           16400.00
03879           16400.00
03880           17000.00
03881           17000.00
03882           17000.00
03883           17200.00
03884           17400.00
03885           17600.00
03886           18000.00
03887           18000.00
03888           18200.00
03889           18200.00
03890           18600.00
03891           18600.00
03892           18800.00
03893           19000.00
03894           19000.00
03895           19000.00
03896           19200.00
03897           19400.00
03898           19400.00
03899           19600.00
03900           19600.00
03901           19600.00
03902           19600.00
03903           19800.00
03904           19800.00
03905           19600.00
03906           19600.00
03907           19800.00
03908           19800.00
03909           19800.00
03910           19800.00
03911           19800.00
03912           19800.00
03913           19600.00
03914           19800.00
03915           19600.00
03916           19600.00
03917           19600.00
03918           19600.00
03919           19400.00
03920           19400.00
03921           19400.00
03922           19400.00
03923           19000.00
03924           19000.00
03925           18800.00
03926           18800.00
03927           18600.00
03928           18600.00
03929           18400.00
03930           18200.00
03931           18000.00
03932           18000.00
03933           18000.00
03934           17800.00
03935           17400.00
03936           17200.00
03937           17000.00
03938           16800.00
03939           16600.00
03940           16400.00
03941           16400.00
03942           16200.00
03943           15800.00
03944           15600.00
03945           15400.00
03946           15400.00
03947           15000.00
03948           14600.00
03949           14400.00
03950           14200.00
03951           13800.00
03952           13800.00
03953           13400.00
03954           13200.00
03955           12600.00
03956           12600.00
03957           12200.00
03958           12000.00
03959           11600.00
03960           11400.00
03961           10800.00
03962           10600.00
03963           10600.00
03964           10000.00
03965            9800.00
03966            9400.00
03967            9000.00
03968            8800.00
03969            8400.00
03970            8000.00
03971            7800.00
03972            7400.00
03973            7200.00
03974            6800.00
03975            6200.00
03976            6000.00
03977            5800.00
03978            5400.00
03979            5000.00
03980            4400.00
03981            4200.00
03982            3800.00
03983            3400.00
03984            3000.00
03985            2600.00
03986            2600.00
03987            2000.00
03988            1800.00
03989            1200.00
03990            1000.00
03991             400.00
03992             200.00
03993            -200.00
03994            -600.00
03995           -1000.00
03996           -1400.00
03997           -1600.00
03998           -2000.00
03999           -2200.00
04000           -2600.00
04001           -3000.00
04002           -3600.00
04003           -4200.00
04004           -4600.00
04005           -4600.00
04006           -4600.00
04007           -5000.00
04008           -5800.00
04009           -6000.00
04010           -6200.00
04011           -6800.00
04012           -7000.00
04013           -7400.00
04014           -7800.00
04015           -8200.00
04016           -8400.00
04017           -8600.00
04018           -9000.00
04019           -9400.00
04020           -9800.00
04021          -10000.00
04022          -10200.00
04023          -10600.00
04024          -11000.00
04025          -11400.00
04026          -11600.00
04027          -11800.00
04028          -12200.00
04029          -12600.00
04030          -12800.00
04031          -13000.00
04032          -13200.00
04033          -13800.00
04034          -14000.00
04035          -14200.00
04036          -14400.00
04037          -14800.00
04038          -15000.00
04039          -15400.00
04040          -15400.00
04041          -15600.00
04042          -15800.00
04043          -16200.00
04044          -16400.00
04045          -16600.00
04046          -16800.00
04047          -17000.00
04048          -17200.00
04049          -17400.00
04050          -17400.00
04051          -17800.00
04052          -18000.00
04053          -18000.00
04054          -18000.00
04055          -18200.00
04056          -18600.00
04057          -18800.00
04058          -18800.00
04059          -18800.00
04060          -19000.00
04061          -19000.00
04062          -19000.00
04063          -19400.00
04064          -19400.00
04065          -19400.00
04066          -19600.00
04067          -19600.00
04068          -19800.00
04069          -19600.00
04070          -19800.00
04071          -19800.00
04072          -19800.00
04073          -19800.00
04074          -19800.00
04075          -19800.00
04076          -19800.00
04077          -19800.00
04078          -19800.00
04079          -19800.00
04080          -19800.00
04081          -19800.00
04082          -19600.00
04083          -19600.00
04084          -19600.00
04085          -19400.00
04086          -19400.00
04087          -19400.00
04088          -19400.00
04089          -19000.00
04090          -19000.00
04091          -19000.00
04092          -18800.00
04093          -18800.00
04094          -18600.00
04095          -18600.00
04096          -18000.00
04097          -18200.00
04098          -18000.00
04099          -18000.00
04100          -17400.00
04101          -17400.00
04102          -17200.00
04103          -17200.00
04104          -17000.00
04105          -16600.00
04106          -16600.00
04107          -16400.00
04108          -16200.00
04109          -15800.00
04110          -15600.00
04111          -15400.00
04112          -15000.00
04113          -15000.00
04114          -14800.00
04115          -14400.00
04116          -14000.00
04117          -13800.00
04118          -13800.00
04119          -13400.00
04120          -13000.00
04121          -12800.00
04122          -12600.00
04123          -12400.00
04124          -11800.00
04125          -11800.00
04126          -11400.00
04127          -11000.00
04128          -10800.00
04129          -10600.00
04130          -10000.00
04131          -10000.00
04132           -9400.00
04133           -9200.00
04134           -8600.00
04135           -8600.00
04136           -8200.00
04137           -7800.00
04138           -7400.00
04139           -7000.00
04140           -6800.00
04141           -6400.00
04142           -6000.00
04143           -5800.00
04144           -5200.00
04145           -5000.00
04146           -4600.00
04147           -4400.00
04148           -3800.00
04149           -3400.00
04150           -3200.00
04151           -2800.00
04152           -2200.00
04153           -2000.00
04154           -1800.00
04155           -1200.00
04156           -1000.00
04157            -600.00
04158            -200.00
04159             200.00
04160             400.00
04161            1000.00
04162            1200.00
04163            1800.00
04164            2000.00
04165            2200.00
04166            2600.00
04167            3000.00
04168            3400.00
04169            3800.00
04170            4200.00
04171            4600.00
04172            5000.00
04173            5200.00
04174            5800.00
04175            5800.00
04176            6200.00
04177            6600.00
04178            6800.00
04179            7400.00
04180            7600.00
04181            8200.00
04182            8200.00
04183            8600.00
04184            9000.00
04185            9400.00
04186            9800.00
04187            9800.00
04188           10200.00
04189           10600.00
04190           10800.00
04191           11400.00
04192           11600.00
04193           11800.00
04194           12200.00
04195           12400.00
04196           12600.00
04197           13000.00
04198           13200.00
04199           13800.00
04200           13800.00
04201           14200.00
04202           14400.00
04203           14800.00
04204           14800.00
04205           15200.00
04206           15400.00
04207           15600.00
04208           15800.00
04209           16200.00
04210           16400.00
04211           16400.00
04212           16600.00
04213           17000.00
04214           17200.00
04215           17400.00
04216           17400.00
04217           17800.00
04218           18000.00
04219           18000.00
04220           18200.00
04221           18200.00
04222           18600.00
04223           18600.00
04224           18600.00
04225           18800.00
04226           19000.00
04227           19200.00
04228           19400.00
04229           19400.00
04230           19400.00
04231           19400.00
04232           19600.00
04233           19600.00
04234           19800.00
04235           19800.00
04236           19800.00
04237           19800.00
04238           19800.00
04239           19800.00
04240           19800.00
04241           19800.00
04242           19800.00
04243           19800.00
04244           19800.00
04245           19800.00
04246           19800.00
04247           19800.00
04248           19600.00
04249           19600.00
04250           19600.00
04251           19600.00
04252           19400.00
04253           19400.00
04254           19200.00
04255           19200.00
04256           18800.00
04257           19000.00
04258           18800.00
04259           18800.00
04260           18600.00
04261           18600.00
04262           18200.00
04263           18200.00
04264           18000.00
04265           18000.00
04266           17800.00
04267           17400.00
04268           17400.00
04269           17000.00
04270           17000.00
04271           16600.00
04272           16600.00
04273           16200.00
04274           16200.00
04275           15800.00
04276           15600.00
04277           15600.00
04278           15400.00
04279           14800.00
04280           14800.00
04281           14600.00
04282           14200.00
04283           13800.00
04284           13800.00
04285           13400.00
04286           13200.00
04287           13000.00
04288           12600.00
04289           12200.00
04290           12000.00
04291           11800.00
04292           11400.00
04293           11000.00
04294           10600.00
04295           10600.00
04296           10200.00
04297           10000.00
04298            9400.00
04299            9200.00
04300            9000.00
04301            8400.00
04302            8400.00
04303            7800.00
04304            7600.00
04305            7000.00
04306            6800.00
04307            6200.00
04308            6000.00
04309            5800.00
04310            5400.00
04311            5000.00
04312            4600.00
04313            4200.00
04314            3800.00
04315            3600.00
04316            3000.00
04317            2800.00
04318            2600.00
04319            2000.00
04320            1800.00
04321            1200.00
04322            1000.00
04323             400.00
04324             200.00
04325            -400.00
04326            -600.00
04327            -800.00
04328           -1200.00
04329           -1800.00
04330           -2000.00
04331           -2200.00
04332           -2600.00
04333           -2800.00
04334           -3400.00
04335           -3800.00
04336           -4400.00
04337           -4800.00
04338           -4600.00
04339           -5000.00
04340           -5400.00
04341           -6000.00
04342           -6200.00
04343           -6600.00
04344           -6800.00
04345           -7400.00
04346           -7600.00
04347           -8000.00
04348           -8200.00
04349           -8600.00
04350           -9000.00
04351           -9400.00
04352           -9400.00
04353           -9800.00
04354          -10200.00
04355          -10400.00
04356          -10800.00
04357          -11000.00
04358          -11400.00
04359          -11800.00
04360          -12200.00
04361          -12400.00
04362          -12800.00
04363          -13000.00
04364          -13400.00
04365          -13600.00
04366          -14000.00
04367          -14000.00
04368          -14200.00
04369          -14600.00
04370          -15000.00
04371          -15000.00
04372          -15400.00
04373          -15600.00
04374          -15800.00
04375          -16200.00
04376          -16200.00
04377          -16400.00
04378          -16800.00
04379          -17000.00
04380          -17200.00
04381          -17200.00
04382          -17600.00
04383          -17600.00
04384          -18000.00
04385          -18000.00
04386          -18200.00
04387          -18200.00
04388          -18600.00
04389          -18600.00
04390          -18800.00
04391          -18800.00
04392          -18800.00
04393          -19000.00
04394          -19200.00
04395          -19400.00
04396          -19400.00
04397          -19400.00
04398          -19600.00
04399          -19800.00
04400          -19800.00
04401          -19800.00
04402          -19800.00
04403          -19800.00
04404          -19800.00
04405          -19800.00
04406          -19800.00
04407          -19800.00
04408          -19800.00
04409          -19800.00
04410          -19800.00
04411          -19600.00
04412          -19800.00
04413          -19600.00
04414          -19600.00
04415          -19800.00
04416          -19600.00
04417          -19600.00
04418          -19400.00
04419          -19400.00
04420          -19000.00
04421          -19000.00
04422          -19000.00
04423          -18800.00
04424          -18800.00
04425          -18800.00
04426          -18600.00
04427          -18400.00
04428          -18400.00
04429          -18200.00
04430          -18000.00
04431          -18000.00
04432          -17800.00
04433          -17400.00
04434          -17400.00
04435          -17200.00
04436          -17000.00
04437          -16600.00
04438          -16600.00
04439          -16400.00
04440          -16200.00
04441          -15800.00
04442          -15600.00
04443          -15400.00
04444          -15000.00
04445          -15000.00
04446          -14800.00
04447          -14600.00
04448          -14200.00
04449          -14000.00
04450          -13800.00
04451          -13400.00
04452          -13400.00
04453          -12800.00
04454          -12600.00
04455          -12400.00
04456          -12200.00
04457          -11800.00
04458          -11600.00
04459          -11000.00
04460          -11000.00
04461          -10600.00
04462          -10200.00
04463          -10000.00
04464           -9400.00
04465           -9200.00
04466           -8600.00
04467           -8600.00
04468           -8400.00
04469           -7800.00
04470           -7600.00
04471           -7000.00
04472           -6800.00
04473           -6200.00
04474           -6000.00
04475           -5800.00
04476           -5400.00
04477           -5000.00
04478           -4600.00
04479           -4400.00
04480           -4000.00
04481           -3800.00
04482           -3400.00
04483           -2800.00
04484           -2200.00
04485           -2000.00
04486           -1800.00
04487           -1200.00
04488           -1000.00
04489            -600.00
04490            -200.00
04491             200.00
04492             400.00
04493            1000.00
04494            1200.00
04495            1400.00
04496            1800.00
04497            2000.00
04498            2600.00
04499            2800.00
04500            3400.00
04501            3600.00
04502            4200.00
04503            4600.00
04504            5000.00
04505            5200.00
04506            5400.00
04507            5800.00
04508            6200.00
04509            6400.00
04510            6800.00
04511            7000.00
04512            7400.00
04513            7800.00
04514            8200.00
04515            8400.00
04516            9000.00
04517            9200.00
04518            9600.00
04519           10000.00
04520           10200.00
04521           10600.00
04522           10800.00
04523           11000.00
04524           11400.00
04525           11600.00
04526           12000.00
04527           12400.00
04528           12600.00
04529           13000.00
04530           13200.00
04531           13800.00
04532           13800.00
04533           14000.00
04534           14400.00
04535           14600.00
04536           14800.00
04537           15000.00
04538           15400.00
04539           15400.00
04540           15800.00
04541           16200.00
04542           16400.00
04543           16400.00
04544           16600.00
04545           17000.00
04546           17000.00
04547           17200.00
04548           17400.00
04549           17400.00
04550           17800.00
04551           18000.00
04552           18000.00
04553           18200.00
04554           18600.00
04555           18600.00
04556           18600.00
04557           18800.00
04558           18800.00
04559           19000.00
04560           19000.00
04561           19400.00
04562           19400.00
04563           19400.00
04564           19400.00
04565           19600.00
04566           19600.00
04567           19600.00
04568           19600.00
04569           19800.00
04570           19600.00
04571           19800.00
04572           19800.00
04573           19800.00
04574           19800.00
04575           19800.00
04576           19800.00
04577           19600.00
04578           19600.00
04579           19600.00
04580           19600.00
04581           19600.00
04582           19600.00
04583           19400.00
04584           19400.00
04585           19400.00
04586           19000.00
04587           19200.00
04588           19000.00
04589           18800.00
04590           18800.00
04591           18800.00
04592           18600.00
04593           18600.00
04594           18200.00
04595           18200.00
04596           18000.00
04597           18000.00
04598           17800.00
04599           17400.00
04600           17400.00
04601           17200.00
04602           17000.00
04603           16800.00
04604           16600.00
04605           16400.00
04606           16200.00
04607           15800.00
04608           15800.00
04609           15400.00
04610           15400.00
04611           15000.00
04612           14800.00
04613           14600.00
04614           14400.00
04615           14000.00
04616           13800.00
04617           13400.00
04618           13200.00
04619           13000.00
04620           12600.00
04621           12400.00
04622           12200.00
04623           11800.00
04624           11600.00
04625           11400.00
04626           10800.00
04627           10600.00
04628           10200.00
04629           10000.00
04630            9800.00
04631            9200.00
04632            9000.00
04633            8600.00
04634            8400.00
04635            8000.00
04636            7600.00
04637            7000.00
04638            6800.00
04639            6600.00
04640            6000.00
04641            5800.00
04642            5400.00
04643            5200.00
04644            4600.00
04645            4200.00
04646            3800.00
04647            3600.00
04648            3400.00
04649            2800.00
04650            2600.00
04651            2000.00
04652            1800.00
04653            1200.00
04654            1000.00
04655             600.00
04656             400.00
04657            -200.00
04658            -600.00
04659            -600.00
04660           -1200.00
04661           -1400.00
04662           -1800.00
04663           -2200.00
04664           -2400.00
04665           -2800.00
04666           -3200.00
04667           -3800.00
04668           -4400.00
04669           -4600.00
04670           -4600.00
04671           -4600.00
04672           -5200.00
04673           -5800.00
04674           -6000.00
04675           -6600.00
04676           -7000.00
04677           -7000.00
04678           -7600.00
04679           -8000.00
04680           -8200.00
04681           -8600.00
04682           -8600.00
04683           -9200.00
04684           -9400.00
04685           -9800.00
04686          -10200.00
04687          -10200.00
04688          -10800.00
04689          -11000.00
04690          -11400.00
04691          -11800.00
04692          -12000.00
04693          -12400.00
04694          -12600.00
04695          -13000.00
04696          -13200.00
04697          -13400.00
04698          -13800.00
04699          -14000.00
04700          -14200.00
04701          -14600.00
04702          -15000.00
04703          -15000.00
04704          -15400.00
04705          -15600.00
04706          -15800.00
04707          -15800.00
04708          -16400.00
04709          -16600.00
04710          -17000.00
04711          -17000.00
04712          -17200.00
04713          -17200.00
04714          -17400.00
04715          -17600.00
04716          -18000.00
04717          -18000.00
04718          -18200.00
04719          -18200.00
04720          -18400.00
04721          -18600.00
04722          -18800.00
04723          -18800.00
04724          -19000.00
04725          -19000.00
04726          -19400.00
04727          -19000.00
04728          -19400.00
04729          -19600.00
04730          -19600.00
04731          -19600.00
04732          -19800.00
04733          -19600.00
04734          -19600.00
04735          -19600.00
04736          -19800.00
04737          -19600.00
04738          -19800.00
04739          -19800.00
04740          -19800.00
04741          -19800.00
04742          -19800.00
04743          -19800.00
04744          -19800.00
04745          -19800.00
04746          -19600.00
04747          -19600.00
04748          -19600.00
04749          -19400.00
04750          -19400.00
04751          -19400.00
04752          -19400.00
04753          -19200.00
04754          -19000.00
04755          -19000.00
04756          -19000.00
04757          -18800.00
04758          -18600.00
04759          -18600.00
04760          -18200.00
04761          -18200.00
04762          -18000.00
04763          -17800.00
04764          -17800.00
04765          -17400.00
04766          -17400.00
04767          -17200.00
04768          -17000.00
04769          -16600.00
04770          -16600.00
04771          -16600.00
04772          -16200.00
04773          -16000.00
04774          -15600.00
04775          -15600.00
04776          -15400.00
04777          -15000.00
04778          -14800.00
04779          -14800.00
04780          -14400.00
04781          -14000.00
04782          -14000.00
04783          -13400.00
04784          -13200.00
04785          -13000.00
04786          -12600.00
04787          -12400.00
04788          -12200.00
04789          -11800.00
04790          -11600.00
04791          -11000.00
04792          -10800.00
04793          -10600.00
04794          -10200.00
04795          -10000.00
04796           -9400.00
04797           -9200.00
04798           -9000.00
04799           -8600.00
04800           -8400.00
04801           -7800.00
04802           -7600.00
04803           -7400.00
04804           -6800.00
04805           -6600.00
04806           -6000.00
04807           -5800.00
04808           -5400.00
04809           -5200.00
04810           -4600.00
04811           -4200.00
04812           -4200.00
04813           -3600.00
04814           -3400.00
04815           -2800.00
04816           -2600.00
04817           -2200.00
04818           -1800.00
04819           -1400.00
04820           -1200.00
04821            -600.00
04822            -400.00
04823             200.00
04824             400.00
04825             800.00
04826            1200.00
04827            1400.00
04828            1800.00
04829            2000.00
04830            2600.00
04831            2800.00
04832            3000.00
04833            3600.00
04834            4200.00
04835            4400.00
04836            4600.00
04837            5000.00
04838            5400.00
04839            5600.00
04840            6000.00
04841            6200.00
04842            6600.00
04843            7000.00
04844            7400.00
04845            7800.00
04846            8000.00
04847            8400.00
04848            8600.00
04849            9000.00
04850            9400.00
04851            9800.00
04852           10000.00
04853           10400.00
04854           10800.00
04855           11000.00
04856           11400.00
04857           11600.00
04858           12200.00
04859           12200.00
04860           12600.00
04861           13000.00
04862           13000.00
04863           13600.00
04864           13800.00
04865           14000.00
04866           14200.00
04867           14600.00
04868           14800.00
04869           15000.00
04870           15400.00
04871           15600.00
04872           15800.00
04873           16000.00
04874           16200.00
04875           16400.00
04876           16600.00
04877           17000.00
04878           17200.00
04879           17200.00
04880           17400.00
04881           17600.00
04882           17800.00
04883           18000.00
04884           18000.00
04885           18200.00
04886           18400.00
04887           18600.00
04888           18600.00
04889           18800.00
04890           19000.00
04891           19000.00
04892           19000.00
04893           19400.00
04894           19400.00
04895           19400.00
04896           19600.00
04897           19600.00
04898           19600.00
04899           19600.00
04900           19600.00
04901           19600.00
04902           19800.00
04903           19800.00
04904           19800.00
04905           19800.00
04906           19800.00
04907           19800.00
04908           19800.00
04909           19800.00
04910           19600.00
04911           19800.00
04912           19600.00
04913           19600.00
04914           19600.00
04915           19400.00
04916           19400.00
04917           19400.00
04918           19200.00
04919           19200.00
04920           19000.00
04921           19000.00
04922           18800.00
04923           18600.00
04924           18600.00
04925           18600.00
04926           18200.00
04927           18200.00
04928           18000.00
04929           18000.00
04930           17800.00
04931           17400.00
04932           17400.00
04933           17200.00
04934           17000.00
04935           17000.00
04936           16600.00
04937           16600.00
04938           16400.00
04939           16200.00
04940           15800.00
04941           15600.00
04942           15400.00
04943           15000.00
04944           14800.00
04945           14800.00
04946           14600.00
04947           14000.00
04948           13800.00
04949           13600.00
04950           13200.00
04951           13000.00
04952           12800.00
04953           12400.00
04954           12200.00
04955           11800.00
04956           11600.00
04957           11400.00
04958           11000.00
04959           10600.00
04960           10400.00
04961           10000.00
04962            9800.00
04963            9200.00
04964            9000.00
04965            8600.00
04966            8400.00
04967            8000.00
04968            7600.00
04969            7200.00
04970            6800.00
04971            6600.00
04972            6200.00
04973            5800.00
04974            5400.00
04975            5200.00
04976            4600.00
04977            4400.00
04978            3800.00
04979            3600.00
04980            3400.00
04981            3000.00
04982            2600.00
04983            2200.00
04984            1800.00
04985            1400.00
04986            1000.00
04987             600.00
04988             400.00
04989            -200.00
04990            -400.00
04991            -600.00
04992           -1200.00
04993           -1200.00
04994           -1800.00
04995           -2000.00
04996           -2200.00
04997           -2800.00
04998           -3000.00
04999           -3600.00
05000           -4200.00
