Unit:(mV)
                     CH1
Frequency    301.575 kHz
00001            5200.00
00002            4600.00
00003            4200.00
00004            3600.00
00005            2800.00
00006            2200.00
00007            1800.00
00008            1200.00
00009             600.00
00010             200.00
00011            -600.00
00012           -1000.00
00013           -1400.00
00014           -2000.00
00015           -2600.00
00016           -3000.00
00017           -3400.00
00018           -3800.00
00019           -4400.00
00020           -5400.00
00021           -6200.00
00022           -6800.00
00023           -7000.00
00024           -7400.00
00025           -7600.00
00026           -8400.00
00027           -9000.00
00028           -9400.00
00029          -10000.00
00030          -10400.00
00031          -11000.00
00032          -11600.00
00033          -12200.00
00034          -12400.00
00035          -13000.00
00036          -13400.00
00037          -14000.00
00038          -14600.00
00039          -15000.00
00040          -15600.00
00041          -16000.00
00042          -16600.00
00043          -17000.00
00044          -17400.00
00045          -17800.00
00046          -18200.00
00047          -18800.00
00048          -19000.00
00049          -19600.00
00050          -20000.00
00051          -20400.00
00052          -20600.00
00053          -21200.00
00054          -21800.00
00055          -22000.00
00056          -22600.00
00057          -22800.00
00058          -23200.00
00059          -23600.00
00060          -23800.00
00061          -24200.00
00062          -24600.00
00063          -24600.00
00064          -25000.00
00065          -25000.00
00066          -25000.00
00067          -25000.00
00068          -25000.00
00069          -25000.00
00070          -25000.00
00071          -25000.00
00072          -25000.00
00073          -25000.00
00074          -25000.00
00075          -25000.00
00076          -25000.00
00077          -25000.00
00078          -25000.00
00079          -25000.00
00080          -25000.00
00081          -25000.00
00082          -25000.00
00083          -25000.00
00084          -25000.00
00085          -25000.00
00086          -25000.00
00087          -25000.00
00088          -25000.00
00089          -25000.00
00090          -25000.00
00091          -25000.00
00092          -25000.00
00093          -25000.00
00094          -25000.00
00095          -25000.00
00096          -25000.00
00097          -25000.00
00098          -25000.00
00099          -25000.00
00100          -25000.00
00101          -25000.00
00102          -25000.00
00103          -25000.00
00104          -25000.00
00105          -25000.00
00106          -25000.00
00107          -25000.00
00108          -25000.00
00109          -25000.00
00110          -25000.00
00111          -25000.00
00112          -25000.00
00113          -25000.00
00114          -25000.00
00115          -25000.00
00116          -25000.00
00117          -25000.00
00118          -25000.00
00119          -25000.00
00120          -25000.00
00121          -25000.00
00122          -25000.00
00123          -24600.00
00124          -24600.00
00125          -24200.00
00126          -23800.00
00127          -23600.00
00128          -23200.00
00129          -23000.00
00130          -22600.00
00131          -22200.00
00132          -21800.00
00133          -21400.00
00134          -21000.00
00135          -20600.00
00136          -20400.00
00137          -19800.00
00138          -19600.00
00139          -19000.00
00140          -18600.00
00141          -18200.00
00142          -17800.00
00143          -17200.00
00144          -16600.00
00145          -16400.00
00146          -15800.00
00147          -15400.00
00148          -14800.00
00149          -14400.00
00150          -14000.00
00151          -13400.00
00152          -12800.00
00153          -12400.00
00154          -11800.00
00155          -11400.00
00156          -10800.00
00157          -10200.00
00158           -9800.00
00159           -9200.00
00160           -8600.00
00161           -8200.00
00162           -7600.00
00163           -7000.00
00164           -6600.00
00165           -6000.00
00166           -5400.00
00167           -4800.00
00168           -4400.00
00169           -3800.00
00170           -3400.00
00171           -2600.00
00172           -2200.00
00173           -1800.00
00174           -1000.00
00175            -400.00
00176             200.00
00177             400.00
00178            1200.00
00179            1800.00
00180            2200.00
00181            2600.00
00182            3000.00
00183            3600.00
00184            4200.00
00185            4600.00
00186            5400.00
00187            6000.00
00188            6600.00
00189            7000.00
00190            7400.00
00191            7800.00
00192            8600.00
00193            9000.00
00194            9400.00
00195           10000.00
00196           10600.00
00197           11000.00
00198           11600.00
00199           12200.00
00200           12600.00
00201           13000.00
00202           13800.00
00203           14200.00
00204           14600.00
00205           15200.00
00206           15600.00
00207           16200.00
00208           16400.00
00209           17000.00
00210           17400.00
00211           18000.00
00212           18200.00
00213           18800.00
00214           19400.00
00215           19800.00
00216           20200.00
00217           20400.00
00218           21000.00
00219           21400.00
00220           21800.00
00221           22000.00
00222           22600.00
00223           23000.00
00224           23200.00
00225           23600.00
00226           23800.00
00227           24400.00
00228           24600.00
00229           25000.00
00230           25000.00
00231           25000.00
00232           25000.00
00233           25000.00
00234           25000.00
00235           25000.00
00236           25000.00
00237           25000.00
00238           25000.00
00239           25000.00
00240           25000.00
00241           25000.00
00242           25000.00
00243           25000.00
00244           25000.00
00245           25000.00
00246           25000.00
00247           25000.00
00248           25000.00
00249           25000.00
00250           25000.00
00251           25000.00
00252           25000.00
00253           25000.00
00254           25000.00
00255           25000.00
00256           25000.00
00257           25000.00
00258           25000.00
00259           25000.00
00260           25000.00
00261           25000.00
00262           25000.00
00263           25000.00
00264           25000.00
00265           25000.00
00266           25000.00
00267           25000.00
00268           25000.00
00269           25000.00
00270           25000.00
00271           25000.00
00272           25000.00
00273           25000.00
00274           25000.00
00275           25000.00
00276           25000.00
00277           25000.00
00278           25000.00
00279           25000.00
00280           25000.00
00281           25000.00
00282           25000.00
00283           25000.00
00284           25000.00
00285           25000.00
00286           25000.00
00287           25000.00
00288           25000.00
00289           24800.00
00290           24600.00
00291           24200.00
00292           23800.00
00293           23400.00
00294           23200.00
00295           23000.00
00296           22600.00
00297           22200.00
00298           21800.00
00299           21400.00
00300           21200.00
00301           20600.00
00302           20200.00
00303           19600.00
00304           19400.00
00305           19000.00
00306           18600.00
00307           18000.00
00308           17800.00
00309           17200.00
00310           17000.00
00311           16400.00
00312           15800.00
00313           15400.00
00314           14800.00
00315           14600.00
00316           13800.00
00317           13200.00
00318           13000.00
00319           12400.00
00320           11800.00
00321           11400.00
00322           10600.00
00323           10200.00
00324            9800.00
00325            9200.00
00326            8600.00
00327            8200.00
00328            7400.00
00329            7000.00
00330            6600.00
00331            5800.00
00332            5400.00
00333            5000.00
00334            4200.00
00335            3600.00
00336            3400.00
00337            2600.00
00338            2200.00
00339            1400.00
00340            1000.00
00341             400.00
00342            -200.00
00343            -600.00
00344           -1200.00
00345           -1600.00
00346           -2200.00
00347           -2800.00
00348           -3000.00
00349           -3600.00
00350           -4000.00
00351           -5000.00
00352           -5600.00
00353           -6400.00
00354           -6800.00
00355           -7000.00
00356           -7400.00
00357           -7800.00
00358           -8600.00
00359           -9200.00
00360           -9600.00
00361          -10200.00
00362          -10600.00
00363          -11400.00
00364          -11600.00
00365          -12200.00
00366          -12600.00
00367          -13200.00
00368          -14000.00
00369          -14200.00
00370          -14800.00
00371          -15000.00
00372          -15600.00
00373          -16200.00
00374          -16600.00
00375          -17200.00
00376          -17600.00
00377          -18000.00
00378          -18600.00
00379          -19000.00
00380          -19400.00
00381          -19800.00
00382          -20400.00
00383          -20600.00
00384          -21200.00
00385          -21400.00
00386          -21800.00
00387          -22200.00
00388          -22600.00
00389          -23000.00
00390          -23400.00
00391          -23600.00
00392          -24000.00
00393          -24400.00
00394          -24600.00
00395          -25000.00
00396          -25000.00
00397          -25000.00
00398          -25000.00
00399          -25000.00
00400          -25000.00
00401          -25000.00
00402          -25000.00
00403          -25000.00
00404          -25000.00
00405          -25000.00
00406          -25000.00
00407          -25000.00
00408          -25000.00
00409          -25000.00
00410          -25000.00
00411          -25000.00
00412          -25000.00
00413          -25000.00
00414          -25000.00
00415          -25000.00
00416          -25000.00
00417          -25000.00
00418          -25000.00
00419          -25000.00
00420          -25000.00
00421          -25000.00
00422          -25000.00
00423          -25000.00
00424          -25000.00
00425          -25000.00
00426          -25000.00
00427          -25000.00
00428          -25000.00
00429          -25000.00
00430          -25000.00
00431          -25000.00
00432          -25000.00
00433          -25000.00
00434          -25000.00
00435          -25000.00
00436          -25000.00
00437          -25000.00
00438          -25000.00
00439          -25000.00
00440          -25000.00
00441          -25000.00
00442          -25000.00
00443          -25000.00
00444          -25000.00
00445          -25000.00
00446          -25000.00
00447          -25000.00
00448          -25000.00
00449          -25000.00
00450          -25000.00
00451          -25000.00
00452          -25000.00
00453          -25000.00
00454          -25000.00
00455          -24600.00
00456          -24600.00
00457          -24200.00
00458          -23800.00
00459          -23600.00
00460          -23000.00
00461          -22800.00
00462          -22400.00
00463          -22000.00
00464          -21600.00
00465          -21400.00
00466          -20600.00
00467          -20400.00
00468          -20200.00
00469          -19800.00
00470          -19400.00
00471          -18800.00
00472          -18600.00
00473          -18000.00
00474          -17400.00
00475          -17200.00
00476          -16600.00
00477          -16200.00
00478          -15600.00
00479          -15000.00
00480          -14600.00
00481          -14200.00
00482          -13800.00
00483          -13200.00
00484          -12600.00
00485          -12400.00
00486          -11600.00
00487          -11000.00
00488          -10800.00
00489          -10000.00
00490           -9400.00
00491           -9000.00
00492           -8600.00
00493           -8000.00
00494           -7600.00
00495           -6800.00
00496           -6200.00
00497           -5800.00
00498           -5200.00
00499           -4600.00
00500           -4200.00
00501           -3600.00
00502           -3000.00
00503           -2600.00
00504           -2000.00
00505           -1400.00
00506            -800.00
00507            -400.00
00508             400.00
00509            1000.00
00510            1200.00
00511            2000.00
00512            2200.00
00513            2600.00
00514            3400.00
00515            3800.00
00516            4200.00
00517            5000.00
00518            5800.00
00519            6200.00
00520            6800.00
00521            7400.00
00522            7600.00
00523            8200.00
00524            8600.00
00525            9200.00
00526            9800.00
00527           10200.00
00528           10800.00
00529           11400.00
00530           11800.00
00531           12200.00
00532           13000.00
00533           13400.00
00534           13800.00
00535           14400.00
00536           14800.00
00537           15400.00
00538           15800.00
00539           16400.00
00540           17000.00
00541           17400.00
00542           17800.00
00543           18200.00
00544           18600.00
00545           19000.00
00546           19600.00
00547           20000.00
00548           20400.00
00549           21000.00
00550           21200.00
00551           21600.00
00552           22000.00
00553           22600.00
00554           22800.00
00555           23000.00
00556           23400.00
00557           23600.00
00558           24200.00
00559           24400.00
00560           24600.00
00561           25000.00
00562           25000.00
00563           25000.00
00564           25000.00
00565           25000.00
00566           25000.00
00567           25000.00
00568           25000.00
00569           25000.00
00570           25000.00
00571           25000.00
00572           25000.00
00573           25000.00
00574           25000.00
00575           25000.00
00576           25000.00
00577           25000.00
00578           25000.00
00579           25000.00
00580           25000.00
00581           25000.00
00582           25000.00
00583           25000.00
00584           25000.00
00585           25000.00
00586           25000.00
00587           25000.00
00588           25000.00
00589           25000.00
00590           25000.00
00591           25000.00
00592           25000.00
00593           25000.00
00594           25000.00
00595           25000.00
00596           25000.00
00597           25000.00
00598           25000.00
00599           25000.00
00600           25000.00
00601           25000.00
00602           25000.00
00603           25000.00
00604           25000.00
00605           25000.00
00606           25000.00
00607           25000.00
00608           25000.00
00609           25000.00
00610           25000.00
00611           25000.00
00612           25000.00
00613           25000.00
00614           25000.00
00615           25000.00
00616           25000.00
00617           25000.00
00618           25000.00
00619           25000.00
00620           25000.00
00621           24600.00
00622           24400.00
00623           24200.00
00624           23800.00
00625           23400.00
00626           23000.00
00627           22800.00
00628           22200.00
00629           22000.00
00630           21400.00
00631           21200.00
00632           21000.00
00633           20400.00
00634           20200.00
00635           19600.00
00636           19400.00
00637           18800.00
00638           18400.00
00639           18000.00
00640           17400.00
00641           17000.00
00642           16400.00
00643           16200.00
00644           15400.00
00645           15000.00
00646           14600.00
00647           14200.00
00648           13800.00
00649           13200.00
00650           12600.00
00651           12200.00
00652           11600.00
00653           11000.00
00654           10600.00
00655           10000.00
00656            9400.00
00657            9000.00
00658            8400.00
00659            7800.00
00660            7400.00
00661            6800.00
00662            6200.00
00663            5800.00
00664            5200.00
00665            4600.00
00666            4200.00
00667            3600.00
00668            3000.00
00669            2600.00
00670            2000.00
00671            1600.00
00672            1000.00
00673             200.00
00674            -400.00
00675            -800.00
00676           -1200.00
00677           -2000.00
00678           -2200.00
00679           -2800.00
00680           -3400.00
00681           -3800.00
00682           -4400.00
00683           -5000.00
00684           -6000.00
00685           -6600.00
00686           -6800.00
00687           -7000.00
00688           -7400.00
00689           -8200.00
00690           -9000.00
00691           -9200.00
00692          -10000.00
00693          -10200.00
00694          -10800.00
00695          -11400.00
00696          -11800.00
00697          -12400.00
00698          -13000.00
00699          -13400.00
00700          -13800.00
00701          -14600.00
00702          -15000.00
00703          -15400.00
00704          -15800.00
00705          -16400.00
00706          -17000.00
00707          -17400.00
00708          -17800.00
00709          -18200.00
00710          -18800.00
00711          -19200.00
00712          -19600.00
00713          -19800.00
00714          -20400.00
00715          -20600.00
00716          -21200.00
00717          -21600.00
00718          -22000.00
00719          -22200.00
00720          -22800.00
00721          -23000.00
00722          -23400.00
00723          -23800.00
00724          -24200.00
00725          -24400.00
00726          -24600.00
00727          -25000.00
00728          -25000.00
00729          -25000.00
00730          -25000.00
00731          -25000.00
00732          -25000.00
00733          -25000.00
00734          -25000.00
00735          -25000.00
00736          -25000.00
00737          -25000.00
00738          -25000.00
00739          -25000.00
00740          -25000.00
00741          -25000.00
00742          -25000.00
00743          -25000.00
00744          -25000.00
00745          -25000.00
00746          -25000.00
00747          -25000.00
00748          -25000.00
00749          -25000.00
00750          -25000.00
00751          -25000.00
00752          -25000.00
00753          -25000.00
00754          -25000.00
00755          -25000.00
00756          -25000.00
00757          -25000.00
00758          -25000.00
00759          -25000.00
00760          -25000.00
00761          -25000.00
00762          -25000.00
00763          -25000.00
00764          -25000.00
00765          -25000.00
00766          -25000.00
00767          -25000.00
00768          -25000.00
00769          -25000.00
00770          -25000.00
00771          -25000.00
00772          -25000.00
00773          -25000.00
00774          -25000.00
00775          -25000.00
00776          -25000.00
00777          -25000.00
00778          -25000.00
00779          -25000.00
00780          -25000.00
00781          -25000.00
00782          -25000.00
00783          -25000.00
00784          -25000.00
00785          -25000.00
00786          -24800.00
00787          -24600.00
00788          -24400.00
00789          -23800.00
00790          -23600.00
00791          -23400.00
00792          -23000.00
00793          -22800.00
00794          -22200.00
00795          -22000.00
00796          -21400.00
00797          -21200.00
00798          -20600.00
00799          -20200.00
00800          -19800.00
00801          -19400.00
00802          -19000.00
00803          -18800.00
00804          -18200.00
00805          -17800.00
00806          -17200.00
00807          -17000.00
00808          -16600.00
00809          -15800.00
00810          -15400.00
00811          -15000.00
00812          -14600.00
00813          -14000.00
00814          -13400.00
00815          -13000.00
00816          -12400.00
00817          -11800.00
00818          -11400.00
00819          -10800.00
00820          -10400.00
00821          -10000.00
00822           -9200.00
00823           -8800.00
00824           -8400.00
00825           -7600.00
00826           -7000.00
00827           -6400.00
00828           -6200.00
00829           -5400.00
00830           -5200.00
00831           -4400.00
00832           -3800.00
00833           -3600.00
00834           -2800.00
00835           -2400.00
00836           -1800.00
00837           -1200.00
00838           -1000.00
00839            -200.00
00840             400.00
00841            1000.00
00842            1400.00
00843            2000.00
00844            2600.00
00845            3000.00
00846            3600.00
00847            4000.00
00848            4600.00
00849            5200.00
00850            5800.00
00851            6600.00
00852            6800.00
00853            7400.00
00854            7800.00
00855            8400.00
00856            9000.00
00857            9400.00
00858           10000.00
00859           10400.00
00860           11000.00
00861           11600.00
00862           12000.00
00863           12600.00
00864           13000.00
00865           13800.00
00866           14000.00
00867           14800.00
00868           15200.00
00869           15600.00
00870           16000.00
00871           16400.00
00872           17000.00
00873           17200.00
00874           18000.00
00875           18600.00
00876           18800.00
00877           19400.00
00878           19600.00
00879           20200.00
00880           20400.00
00881           21000.00
00882           21200.00
00883           21800.00
00884           22000.00
00885           22600.00
00886           22800.00
00887           23200.00
00888           23600.00
00889           23800.00
00890           24200.00
00891           24400.00
00892           24800.00
00893           25000.00
00894           25000.00
00895           25000.00
00896           25000.00
00897           25000.00
00898           25000.00
00899           25000.00
00900           25000.00
00901           25000.00
00902           25000.00
00903           25000.00
00904           25000.00
00905           25000.00
00906           25000.00
00907           25000.00
00908           25000.00
00909           25000.00
00910           25000.00
00911           25000.00
00912           25000.00
00913           25000.00
00914           25000.00
00915           25000.00
00916           25000.00
00917           25000.00
00918           25000.00
00919           25000.00
00920           25000.00
00921           25000.00
00922           25000.00
00923           25000.00
00924           25000.00
00925           25000.00
00926           25000.00
00927           25000.00
00928           25000.00
00929           25000.00
00930           25000.00
00931           25000.00
00932           25000.00
00933           25000.00
00934           25000.00
00935           25000.00
00936           25000.00
00937           25000.00
00938           25000.00
00939           25000.00
00940           25000.00
00941           25000.00
00942           25000.00
00943           25000.00
00944           25000.00
00945           25000.00
00946           25000.00
00947           25000.00
00948           25000.00
00949           25000.00
00950           25000.00
00951           25000.00
00952           25000.00
00953           24600.00
00954           24200.00
00955           23800.00
00956           23600.00
00957           23400.00
00958           22800.00
00959           22600.00
00960           22200.00
00961           21800.00
00962           21400.00
00963           21200.00
00964           20800.00
00965           20400.00
00966           19800.00
00967           19400.00
00968           19000.00
00969           18600.00
00970           18200.00
00971           17600.00
00972           17200.00
00973           17000.00
00974           16400.00
00975           15800.00
00976           15400.00
00977           14800.00
00978           14400.00
00979           14000.00
00980           13400.00
00981           13000.00
00982           12200.00
00983           11800.00
00984           11400.00
00985           10800.00
00986           10400.00
00987            9800.00
00988            9400.00
00989            8600.00
00990            8200.00
00991            7600.00
00992            7000.00
00993            6600.00
00994            6000.00
00995            5400.00
00996            5200.00
00997            4400.00
00998            3800.00
00999            3400.00
01000            2800.00
01001            2200.00
01002            1800.00
01003            1000.00
01004             600.00
01005             200.00
01006            -400.00
01007           -1000.00
01008           -1400.00
01009           -2000.00
01010           -2400.00
01011           -3000.00
01012           -3400.00
01013           -4000.00
01014           -4600.00
01015           -5400.00
01016           -6200.00
01017           -6600.00
01018           -7000.00
01019           -7200.00
01020           -7800.00
01021           -8400.00
01022           -9000.00
01023           -9400.00
01024          -10200.00
01025          -10600.00
01026          -11000.00
01027          -11600.00
01028          -12200.00
01029          -12600.00
01030          -13200.00
01031          -13800.00
01032          -14200.00
01033          -14800.00
01034          -15000.00
01035          -15600.00
01036          -16200.00
01037          -16600.00
01038          -17200.00
01039          -17400.00
01040          -18000.00
01041          -18600.00
01042          -18800.00
01043          -19400.00
01044          -19800.00
01045          -20200.00
01046          -20400.00
01047          -21200.00
01048          -21400.00
01049          -21800.00
01050          -22200.00
01051          -22600.00
01052          -23000.00
01053          -23000.00
01054          -23600.00
01055          -23800.00
01056          -24400.00
01057          -24600.00
01058          -24800.00
01059          -25000.00
01060          -25000.00
01061          -25000.00
01062          -25000.00
01063          -25000.00
01064          -25000.00
01065          -25000.00
01066          -25000.00
01067          -25000.00
01068          -25000.00
01069          -25000.00
01070          -25000.00
01071          -25000.00
01072          -25000.00
01073          -25000.00
01074          -25000.00
01075          -25000.00
01076          -25000.00
01077          -25000.00
01078          -25000.00
01079          -25000.00
01080          -25000.00
01081          -25000.00
01082          -25000.00
01083          -25000.00
01084          -25000.00
01085          -25000.00
01086          -25000.00
01087          -25000.00
01088          -25000.00
01089          -25000.00
01090          -25000.00
01091          -25000.00
01092          -25000.00
01093          -25000.00
01094          -25000.00
01095          -25000.00
01096          -25000.00
01097          -25000.00
01098          -25000.00
01099          -25000.00
01100          -25000.00
01101          -25000.00
01102          -25000.00
01103          -25000.00
01104          -25000.00
01105          -25000.00
01106          -25000.00
01107          -25000.00
01108          -25000.00
01109          -25000.00
01110          -25000.00
01111          -25000.00
01112          -25000.00
01113          -25000.00
01114          -25000.00
01115          -25000.00
01116          -25000.00
01117          -25000.00
01118          -24600.00
01119          -24600.00
01120          -24400.00
01121          -23800.00
01122          -23600.00
01123          -23200.00
01124          -23000.00
01125          -22600.00
01126          -22000.00
01127          -21800.00
01128          -21400.00
01129          -21000.00
01130          -20600.00
01131          -20200.00
01132          -19800.00
01133          -19400.00
01134          -18800.00
01135          -18400.00
01136          -18000.00
01137          -17400.00
01138          -17200.00
01139          -16600.00
01140          -16200.00
01141          -15600.00
01142          -15000.00
01143          -14800.00
01144          -14400.00
01145          -13800.00
01146          -13400.00
01147          -12600.00
01148          -12400.00
01149          -11800.00
01150          -11200.00
01151          -10800.00
01152          -10200.00
01153           -9400.00
01154           -9200.00
01155           -8600.00
01156           -8000.00
01157           -7600.00
01158           -6800.00
01159           -6200.00
01160           -6000.00
01161           -5400.00
01162           -4600.00
01163           -4200.00
01164           -3800.00
01165           -3000.00
01166           -2600.00
01167           -2200.00
01168           -1600.00
01169           -1000.00
01170            -600.00
01171             200.00
01172             600.00
01173            1200.00
01174            1800.00
01175            2200.00
01176            2600.00
01177            3200.00
01178            3600.00
01179            4200.00
01180            5000.00
01181            5800.00
01182            6200.00
01183            6800.00
01184            7200.00
01185            7600.00
01186            8200.00
01187            8600.00
01188            9200.00
01189            9400.00
01190           10200.00
01191           10800.00
01192           11400.00
01193           11800.00
01194           12200.00
01195           13000.00
01196           13200.00
01197           13800.00
01198           14400.00
01199           14800.00
01200           15400.00
01201           15800.00
01202           16400.00
01203           16800.00
01204           17200.00
01205           17800.00
01206           18200.00
01207           18600.00
01208           19000.00
01209           19400.00
01210           19800.00
01211           20400.00
01212           20600.00
01213           21200.00
01214           21400.00
01215           22000.00
01216           22200.00
01217           22600.00
01218           23000.00
01219           23400.00
01220           23600.00
01221           24000.00
01222           24400.00
01223           24600.00
01224           25000.00
01225           25000.00
01226           25000.00
01227           25000.00
01228           25000.00
01229           25000.00
01230           25000.00
01231           25000.00
01232           25000.00
01233           25000.00
01234           25000.00
01235           25000.00
01236           25000.00
01237           25000.00
01238           25000.00
01239           25000.00
01240           25000.00
01241           25000.00
01242           25000.00
01243           25000.00
01244           25000.00
01245           25000.00
01246           25000.00
01247           25000.00
01248           25000.00
01249           25000.00
01250           25000.00
01251           25000.00
01252           25000.00
01253           25000.00
01254           25000.00
01255           25000.00
01256           25000.00
01257           25000.00
01258           25000.00
01259           25000.00
01260           25000.00
01261           25000.00
01262           25000.00
01263           25000.00
01264           25000.00
01265           25000.00
01266           25000.00
01267           25000.00
01268           25000.00
01269           25000.00
01270           25000.00
01271           25000.00
01272           25000.00
01273           25000.00
01274           25000.00
01275           25000.00
01276           25000.00
01277           25000.00
01278           25000.00
01279           25000.00
01280           25000.00
01281           25000.00
01282           25000.00
01283           25000.00
01284           24800.00
01285           24400.00
01286           24200.00
01287           23800.00
01288           23600.00
01289           23200.00
01290           22800.00
01291           22600.00
01292           22000.00
01293           21600.00
01294           21200.00
01295           21000.00
01296           20400.00
01297           20200.00
01298           19800.00
01299           19400.00
01300           18800.00
01301           18400.00
01302           18000.00
01303           17400.00
01304           17000.00
01305           16600.00
01306           16200.00
01307           15600.00
01308           15400.00
01309           14800.00
01310           14200.00
01311           13600.00
01312           13200.00
01313           12600.00
01314           12200.00
01315           11800.00
01316           11200.00
01317           10600.00
01318           10200.00
01319            9600.00
01320            9200.00
01321            8400.00
01322            8200.00
01323            7600.00
01324            7000.00
01325            6400.00
01326            5800.00
01327            5400.00
01328            4800.00
01329            4200.00
01330            3800.00
01331            3200.00
01332            2600.00
01333            2200.00
01334            1400.00
01335            1000.00
01336             400.00
01337            -200.00
01338            -600.00
01339           -1200.00
01340           -1800.00
01341           -2200.00
01342           -2800.00
01343           -3000.00
01344           -3800.00
01345           -4200.00
01346           -5000.00
01347           -5800.00
01348           -6400.00
01349           -6800.00
01350           -7000.00
01351           -7400.00
01352           -8200.00
01353           -8600.00
01354           -9200.00
01355           -9800.00
01356          -10200.00
01357          -10800.00
01358          -11600.00
01359          -11800.00
01360          -12400.00
01361          -13000.00
01362          -13400.00
01363          -14000.00
01364          -14600.00
01365          -14800.00
01366          -15400.00
01367          -15800.00
01368          -16400.00
01369          -16600.00
01370          -17200.00
01371          -17800.00
01372          -18200.00
01373          -18800.00
01374          -19000.00
01375          -19600.00
01376          -19800.00
01377          -20400.00
01378          -20800.00
01379          -21200.00
01380          -21400.00
01381          -22000.00
01382          -22400.00
01383          -22800.00
01384          -23000.00
01385          -23400.00
01386          -23800.00
01387          -23800.00
01388          -24400.00
01389          -24600.00
01390          -25000.00
01391          -25000.00
01392          -25000.00
01393          -25000.00
01394          -25000.00
01395          -25000.00
01396          -25000.00
01397          -25000.00
01398          -25000.00
01399          -25000.00
01400          -25000.00
01401          -25000.00
01402          -25000.00
01403          -25000.00
01404          -25000.00
01405          -25000.00
01406          -25000.00
01407          -25000.00
01408          -25000.00
01409          -25000.00
01410          -25000.00
01411          -25000.00
01412          -25000.00
01413          -25000.00
01414          -25000.00
01415          -25000.00
01416          -25000.00
01417          -25000.00
01418          -25000.00
01419          -25000.00
01420          -25000.00
01421          -25000.00
01422          -25000.00
01423          -25000.00
01424          -25000.00
01425          -25000.00
01426          -25000.00
01427          -25000.00
01428          -25000.00
01429          -25000.00
01430          -25000.00
01431          -25000.00
01432          -25000.00
01433          -25000.00
01434          -25000.00
01435          -25000.00
01436          -25000.00
01437          -25000.00
01438          -25000.00
01439          -25000.00
01440          -25000.00
01441          -25000.00
01442          -25000.00
01443          -25000.00
01444          -25000.00
01445          -25000.00
01446          -25000.00
01447          -25000.00
01448          -25000.00
01449          -25000.00
01450          -24600.00
01451          -24400.00
01452          -23800.00
01453          -23800.00
01454          -23200.00
01455          -23000.00
01456          -22800.00
01457          -22200.00
01458          -22000.00
01459          -21400.00
01460          -21200.00
01461          -20800.00
01462          -20200.00
01463          -19800.00
01464          -19400.00
01465          -19000.00
01466          -18800.00
01467          -18200.00
01468          -17600.00
01469          -17400.00
01470          -17000.00
01471          -16400.00
01472          -16000.00
01473          -15600.00
01474          -15000.00
01475          -14600.00
01476          -14000.00
01477          -13400.00
01478          -13000.00
01479          -12600.00
01480          -12200.00
01481          -11600.00
01482          -11000.00
01483          -10400.00
01484          -10000.00
01485           -9200.00
01486           -9000.00
01487           -8400.00
01488           -7600.00
01489           -7200.00
01490           -6800.00
01491           -6200.00
01492           -5800.00
01493           -5200.00
01494           -4600.00
01495           -4200.00
01496           -3600.00
01497           -3000.00
01498           -2600.00
01499           -2000.00
01500           -1200.00
01501            -600.00
01502            -400.00
01503             400.00
01504            1000.00
01505            1400.00
01506            1800.00
01507            2600.00
01508            2800.00
01509            3600.00
01510            3800.00
01511            4400.00
01512            5200.00
01513            5800.00
01514            6600.00
01515            6800.00
01516            7400.00
01517            7600.00
01518            8200.00
01519            9000.00
01520            9200.00
01521           10000.00
01522           10600.00
01523           10800.00
01524           11600.00
01525           12000.00
01526           12400.00
01527           13200.00
01528           13600.00
01529           14000.00
01530           14600.00
01531           15000.00
01532           15600.00
01533           16200.00
01534           16400.00
01535           17000.00
01536           17400.00
01537           18000.00
01538           18200.00
01539           18800.00
01540           19000.00
01541           19600.00
01542           20200.00
01543           20600.00
01544           20800.00
01545           21200.00
01546           21800.00
01547           22000.00
01548           22600.00
01549           22800.00
01550           23000.00
01551           23400.00
01552           23600.00
01553           24200.00
01554           24400.00
01555           24600.00
01556           25000.00
01557           25000.00
01558           25000.00
01559           25000.00
01560           25000.00
01561           25000.00
01562           25000.00
01563           25000.00
01564           25000.00
01565           25000.00
01566           25000.00
01567           25000.00
01568           25000.00
01569           25000.00
01570           25000.00
01571           25000.00
01572           25000.00
01573           25000.00
01574           25000.00
01575           25000.00
01576           25000.00
01577           25000.00
01578           25000.00
01579           25000.00
01580           25000.00
01581           25000.00
01582           25000.00
01583           25000.00
01584           25000.00
01585           25000.00
01586           25000.00
01587           25000.00
01588           25000.00
01589           25000.00
01590           25000.00
01591           25000.00
01592           25000.00
01593           25000.00
01594           25000.00
01595           25000.00
01596           25000.00
01597           25000.00
01598           25000.00
01599           25000.00
01600           25000.00
01601           25000.00
01602           25000.00
01603           25000.00
01604           25000.00
01605           25000.00
01606           25000.00
01607           25000.00
01608           25000.00
01609           25000.00
01610           25000.00
01611           25000.00
01612           25000.00
01613           25000.00
01614           25000.00
01615           25000.00
01616           24600.00
01617           24400.00
01618           23800.00
01619           23800.00
01620           23400.00
01621           23000.00
01622           22600.00
01623           22200.00
01624           22000.00
01625           21400.00
01626           21200.00
01627           20600.00
01628           20200.00
01629           19800.00
01630           19600.00
01631           19000.00
01632           18600.00
01633           18200.00
01634           17800.00
01635           17200.00
01636           17000.00
01637           16400.00
01638           15800.00
01639           15400.00
01640           15000.00
01641           14600.00
01642           14000.00
01643           13400.00
01644           13000.00
01645           12600.00
01646           12200.00
01647           11600.00
01648           11000.00
01649           10600.00
01650           10000.00
01651            9400.00
01652            9000.00
01653            8400.00
01654            7800.00
01655            7400.00
01656            6800.00
01657            6200.00
01658            5800.00
01659            5200.00
01660            4600.00
01661            4200.00
01662            3400.00
01663            2800.00
01664            2600.00
01665            2000.00
01666            1200.00
01667             600.00
01668             200.00
01669            -400.00
01670           -1000.00
01671           -1400.00
01672           -2000.00
01673           -2200.00
01674           -2800.00
01675           -3400.00
01676           -3800.00
01677           -4400.00
01678           -5400.00
01679           -6000.00
01680           -6600.00
01681           -6800.00
01682           -7200.00
01683           -7600.00
01684           -8200.00
01685           -9000.00
01686           -9400.00
01687          -10000.00
01688          -10400.00
01689          -11000.00
01690          -11600.00
01691          -12000.00
01692          -12600.00
01693          -13000.00
01694          -13600.00
01695          -14200.00
01696          -14600.00
01697          -15000.00
01698          -15600.00
01699          -16000.00
01700          -16600.00
01701          -17000.00
01702          -17400.00
01703          -17800.00
01704          -18600.00
01705          -18800.00
01706          -19000.00
01707          -19800.00
01708          -20200.00
01709          -20400.00
01710          -21000.00
01711          -21200.00
01712          -21800.00
01713          -22000.00
01714          -22400.00
01715          -22800.00
01716          -23400.00
01717          -23600.00
01718          -23800.00
01719          -24200.00
01720          -24400.00
01721          -24600.00
01722          -25000.00
01723          -25000.00
01724          -25000.00
01725          -25000.00
01726          -25000.00
01727          -25000.00
01728          -25000.00
01729          -25000.00
01730          -25000.00
01731          -25000.00
01732          -25000.00
01733          -25000.00
01734          -25000.00
01735          -25000.00
01736          -25000.00
01737          -25000.00
01738          -25000.00
01739          -25000.00
01740          -25000.00
01741          -25000.00
01742          -25000.00
01743          -25000.00
01744          -25000.00
01745          -25000.00
01746          -25000.00
01747          -25000.00
01748          -25000.00
01749          -25000.00
01750          -25000.00
01751          -25000.00
01752          -25000.00
01753          -25000.00
01754          -25000.00
01755          -25000.00
01756          -25000.00
01757          -25000.00
01758          -25000.00
01759          -25000.00
01760          -25000.00
01761          -25000.00
01762          -25000.00
01763          -25000.00
01764          -25000.00
01765          -25000.00
01766          -25000.00
01767          -25000.00
01768          -25000.00
01769          -25000.00
01770          -25000.00
01771          -25000.00
01772          -25000.00
01773          -25000.00
01774          -25000.00
01775          -25000.00
01776          -25000.00
01777          -25000.00
01778          -25000.00
01779          -25000.00
01780          -25000.00
01781          -24600.00
01782          -24600.00
01783          -24200.00
01784          -23800.00
01785          -23600.00
01786          -23000.00
01787          -22800.00
01788          -22400.00
01789          -22000.00
01790          -21800.00
01791          -21200.00
01792          -21000.00
01793          -20600.00
01794          -20200.00
01795          -19800.00
01796          -19400.00
01797          -19000.00
01798          -18600.00
01799          -18000.00
01800          -17800.00
01801          -17200.00
01802          -16600.00
01803          -16400.00
01804          -15800.00
01805          -15400.00
01806          -15000.00
01807          -14400.00
01808          -13800.00
01809          -13400.00
01810          -13000.00
01811          -12400.00
01812          -11800.00
01813          -11400.00
01814          -10800.00
01815          -10200.00
01816           -9800.00
01817           -9200.00
01818           -8800.00
01819           -8400.00
01820           -7600.00
01821           -7000.00
01822           -6600.00
01823           -6000.00
01824           -5400.00
01825           -5000.00
01826           -4400.00
01827           -3800.00
01828           -3400.00
01829           -2800.00
01830           -2200.00
01831           -1800.00
01832           -1200.00
01833            -600.00
01834            -200.00
01835             600.00
01836            1200.00
01837            1400.00
01838            2000.00
01839            2600.00
01840            3000.00
01841            3600.00
01842            4200.00
01843            4600.00
01844            5400.00
01845            6000.00
01846            6600.00
01847            7000.00
01848            7400.00
01849            8000.00
01850            8400.00
01851            9000.00
01852            9600.00
01853           10000.00
01854           10600.00
01855           11200.00
01856           11800.00
01857           12200.00
01858           12600.00
01859           13200.00
01860           13800.00
01861           14200.00
01862           14800.00
01863           15400.00
01864           15600.00
01865           16200.00
01866           16600.00
01867           17000.00
01868           17600.00
01869           18200.00
01870           18600.00
01871           18800.00
01872           19400.00
01873           19800.00
01874           20200.00
01875           20600.00
01876           21200.00
01877           21400.00
01878           21800.00
01879           22000.00
01880           22400.00
01881           22800.00
01882           23400.00
01883           23400.00
01884           23800.00
01885           24200.00
01886           24400.00
01887           24800.00
01888           25000.00
01889           25000.00
01890           25000.00
01891           25000.00
01892           25000.00
01893           25000.00
01894           25000.00
01895           25000.00
01896           25000.00
01897           25000.00
01898           25000.00
01899           25000.00
01900           25000.00
01901           25000.00
01902           25000.00
01903           25000.00
01904           25000.00
01905           25000.00
01906           25000.00
01907           25000.00
01908           25000.00
01909           25000.00
01910           25000.00
01911           25000.00
01912           25000.00
01913           25000.00
01914           25000.00
01915           25000.00
01916           25000.00
01917           25000.00
01918           25000.00
01919           25000.00
01920           25000.00
01921           25000.00
01922           25000.00
01923           25000.00
01924           25000.00
01925           25000.00
01926           25000.00
01927           25000.00
01928           25000.00
01929           25000.00
01930           25000.00
01931           25000.00
01932           25000.00
01933           25000.00
01934           25000.00
01935           25000.00
01936           25000.00
01937           25000.00
01938           25000.00
01939           25000.00
01940           25000.00
01941           25000.00
01942           25000.00
01943           25000.00
01944           25000.00
01945           25000.00
01946           25000.00
01947           24800.00
01948           24600.00
01949           24200.00
01950           23800.00
01951           23400.00
01952           23200.00
01953           22800.00
01954           22600.00
01955           22000.00
01956           21800.00
01957           21400.00
01958           21000.00
01959           20600.00
01960           20200.00
01961           19600.00
01962           19400.00
01963           18800.00
01964           18600.00
01965           18000.00
01966           17400.00
01967           17200.00
01968           16600.00
01969           16400.00
01970           15600.00
01971           15400.00
01972           14800.00
01973           14200.00
01974           14000.00
01975           13200.00
01976           13000.00
01977           12400.00
01978           11800.00
01979           11400.00
01980           10600.00
01981           10200.00
01982            9800.00
01983            9200.00
01984            8800.00
01985            8200.00
01986            7600.00
01987            7000.00
01988            6600.00
01989            6000.00
01990            5400.00
01991            5000.00
01992            4200.00
01993            3800.00
01994            3400.00
01995            2600.00
01996            2200.00
01997            1600.00
01998            1200.00
01999             400.00
02000            -200.00
02001            -600.00
02002           -1200.00
02003           -1800.00
02004           -2200.00
02005           -2600.00
02006           -3000.00
02007           -3600.00
02008           -4200.00
02009           -5000.00
02010           -5800.00
02011           -6400.00
02012           -6800.00
02013           -7000.00
02014           -7400.00
02015           -7800.00
02016           -8600.00
02017           -9200.00
02018           -9800.00
02019          -10200.00
02020          -10800.00
02021          -11400.00
02022          -11800.00
02023          -12400.00
02024          -13000.00
02025          -13400.00
02026          -14000.00
02027          -14200.00
02028          -15000.00
02029          -15400.00
02030          -15800.00
02031          -16400.00
02032          -16800.00
02033          -17200.00
02034          -17400.00
02035          -18200.00
02036          -18600.00
02037          -19000.00
02038          -19400.00
02039          -19800.00
02040          -20200.00
02041          -20400.00
02042          -21200.00
02043          -21400.00
02044          -21800.00
02045          -22200.00
02046          -22600.00
02047          -23000.00
02048          -23200.00
02049          -23600.00
02050          -24200.00
02051          -24200.00
02052          -24600.00
02053          -24800.00
02054          -25000.00
02055          -25000.00
02056          -25000.00
02057          -25000.00
02058          -25000.00
02059          -25000.00
02060          -25000.00
02061          -25000.00
02062          -25000.00
02063          -25000.00
02064          -25000.00
02065          -25000.00
02066          -25000.00
02067          -25000.00
02068          -25000.00
02069          -25000.00
02070          -25000.00
02071          -25000.00
02072          -25000.00
02073          -25000.00
02074          -25000.00
02075          -25000.00
02076          -25000.00
02077          -25000.00
02078          -25000.00
02079          -25000.00
02080          -25000.00
02081          -25000.00
02082          -25000.00
02083          -25000.00
02084          -25000.00
02085          -25000.00
02086          -25000.00
02087          -25000.00
02088          -25000.00
02089          -25000.00
02090          -25000.00
02091          -25000.00
02092          -25000.00
02093          -25000.00
02094          -25000.00
02095          -25000.00
02096          -25000.00
02097          -25000.00
02098          -25000.00
02099          -25000.00
02100          -25000.00
02101          -25000.00
02102          -25000.00
02103          -25000.00
02104          -25000.00
02105          -25000.00
02106          -25000.00
02107          -25000.00
02108          -25000.00
02109          -25000.00
02110          -25000.00
02111          -25000.00
02112          -25000.00
02113          -24600.00
02114          -24400.00
02115          -24200.00
02116          -23800.00
02117          -23400.00
02118          -23000.00
02119          -22600.00
02120          -22200.00
02121          -22000.00
02122          -21400.00
02123          -21200.00
02124          -21000.00
02125          -20400.00
02126          -20000.00
02127          -19600.00
02128          -19000.00
02129          -18800.00
02130          -18200.00
02131          -18000.00
02132          -17400.00
02133          -17200.00
02134          -16600.00
02135          -16000.00
02136          -15600.00
02137          -15400.00
02138          -14800.00
02139          -14000.00
02140          -13800.00
02141          -13200.00
02142          -12600.00
02143          -12200.00
02144          -11800.00
02145          -11200.00
02146          -10800.00
02147          -10200.00
02148           -9400.00
02149           -9000.00
02150           -8600.00
02151           -8000.00
02152           -7600.00
02153           -6800.00
02154           -6400.00
02155           -6000.00
02156           -5200.00
02157           -4600.00
02158           -4400.00
02159           -3600.00
02160           -3000.00
02161           -2600.00
02162           -2000.00
02163           -1400.00
02164           -1000.00
02165            -400.00
02166             200.00
02167             600.00
02168            1200.00
02169            1800.00
02170            2400.00
02171            2800.00
02172            3400.00
02173            3800.00
02174            4400.00
02175            5200.00
02176            5800.00
02177            6200.00
02178            6800.00
02179            7400.00
02180            7800.00
02181            8400.00
02182            8800.00
02183            9200.00
02184            9800.00
02185           10400.00
02186           10800.00
02187           11400.00
02188           12000.00
02189           12400.00
02190           13000.00
02191           13400.00
02192           14000.00
02193           14600.00
02194           14800.00
02195           15400.00
02196           15800.00
02197           16400.00
02198           17000.00
02199           17200.00
02200           17800.00
02201           18200.00
02202           18600.00
02203           19000.00
02204           19600.00
02205           20000.00
02206           20200.00
02207           20800.00
02208           21200.00
02209           21600.00
02210           21800.00
02211           22200.00
02212           22600.00
02213           23000.00
02214           23400.00
02215           23600.00
02216           24000.00
02217           24400.00
02218           24600.00
02219           25000.00
02220           25000.00
02221           25000.00
02222           25000.00
02223           25000.00
02224           25000.00
02225           25000.00
02226           25000.00
02227           25000.00
02228           25000.00
02229           25000.00
02230           25000.00
02231           25000.00
02232           25000.00
02233           25000.00
02234           25000.00
02235           25000.00
02236           25000.00
02237           25000.00
02238           25000.00
02239           25000.00
02240           25000.00
02241           25000.00
02242           25000.00
02243           25000.00
02244           25000.00
02245           25000.00
02246           25000.00
02247           25000.00
02248           25000.00
02249           25000.00
02250           25000.00
02251           25000.00
02252           25000.00
02253           25000.00
02254           25000.00
02255           25000.00
02256           25000.00
02257           25000.00
02258           25000.00
02259           25000.00
02260           25000.00
02261           25000.00
02262           25000.00
02263           25000.00
02264           25000.00
02265           25000.00
02266           25000.00
02267           25000.00
02268           25000.00
02269           25000.00
02270           25000.00
02271           25000.00
02272           25000.00
02273           25000.00
02274           25000.00
02275           25000.00
02276           25000.00
02277           25000.00
02278           25000.00
02279           24600.00
02280           24200.00
02281           24000.00
02282           23600.00
02283           23400.00
02284           23000.00
02285           22600.00
02286           22200.00
02287           21800.00
02288           21800.00
02289           21200.00
02290           21000.00
02291           20400.00
02292           19800.00
02293           19600.00
02294           19400.00
02295           18600.00
02296           18200.00
02297           18000.00
02298           17400.00
02299           17000.00
02300           16400.00
02301           16200.00
02302           15600.00
02303           15000.00
02304           14800.00
02305           14400.00
02306           13800.00
02307           13200.00
02308           12600.00
02309           12200.00
02310           11600.00
02311           11200.00
02312           10600.00
02313           10000.00
02314            9800.00
02315            9000.00
02316            8400.00
02317            7800.00
02318            7400.00
02319            6800.00
02320            6200.00
02321            6000.00
02322            5400.00
02323            4800.00
02324            4200.00
02325            3600.00
02326            2800.00
02327            2600.00
02328            2000.00
02329            1400.00
02330             800.00
02331             400.00
02332            -400.00
02333            -600.00
02334           -1200.00
02335           -2000.00
02336           -2200.00
02337           -2800.00
02338           -3400.00
02339           -3800.00
02340           -4400.00
02341           -5400.00
02342           -6000.00
02343           -6600.00
02344           -7000.00
02345           -7400.00
02346           -7600.00
02347           -8400.00
02348           -8800.00
02349           -9400.00
02350          -10200.00
02351          -10400.00
02352          -11000.00
02353          -11600.00
02354          -11800.00
02355          -12600.00
02356          -13000.00
02357          -13400.00
02358          -14000.00
02359          -14600.00
02360          -15000.00
02361          -15600.00
02362          -16200.00
02363          -16400.00
02364          -17000.00
02365          -17200.00
02366          -17800.00
02367          -18200.00
02368          -18800.00
02369          -19000.00
02370          -19800.00
02371          -19800.00
02372          -20400.00
02373          -20800.00
02374          -21200.00
02375          -21400.00
02376          -22000.00
02377          -22200.00
02378          -22800.00
02379          -23000.00
02380          -23400.00
02381          -23800.00
02382          -24000.00
02383          -24400.00
02384          -24600.00
02385          -25000.00
02386          -25000.00
02387          -25000.00
02388          -25000.00
02389          -25000.00
02390          -25000.00
02391          -25000.00
02392          -25000.00
02393          -25000.00
02394          -25000.00
02395          -25000.00
02396          -25000.00
02397          -25000.00
02398          -25000.00
02399          -25000.00
02400          -25000.00
02401          -25000.00
02402          -25000.00
02403          -25000.00
02404          -25000.00
02405          -25000.00
02406          -25000.00
02407          -25000.00
02408          -25000.00
02409          -25000.00
02410          -25000.00
02411          -25000.00
02412          -25000.00
02413          -25000.00
02414          -25000.00
02415          -25000.00
02416          -25000.00
02417          -25000.00
02418          -25000.00
02419          -25000.00
02420          -25000.00
02421          -25000.00
02422          -25000.00
02423          -25000.00
02424          -25000.00
02425          -25000.00
02426          -25000.00
02427          -25000.00
02428          -25000.00
02429          -25000.00
02430          -25000.00
02431          -25000.00
02432          -25000.00
02433          -25000.00
02434          -25000.00
02435          -25000.00
02436          -25000.00
02437          -25000.00
02438          -25000.00
02439          -25000.00
02440          -25000.00
02441          -25000.00
02442          -25000.00
02443          -25000.00
02444          -24600.00
02445          -24600.00
02446          -24200.00
02447          -23800.00
02448          -23600.00
02449          -23000.00
02450          -23000.00
02451          -22600.00
02452          -22000.00
02453          -22000.00
02454          -21400.00
02455          -21200.00
02456          -20600.00
02457          -20200.00
02458          -19800.00
02459          -19400.00
02460          -19000.00
02461          -18600.00
02462          -18200.00
02463          -17800.00
02464          -17400.00
02465          -17000.00
02466          -16400.00
02467          -15800.00
02468          -15600.00
02469          -15000.00
02470          -14600.00
02471          -14000.00
02472          -13600.00
02473          -13000.00
02474          -12400.00
02475          -12200.00
02476          -11400.00
02477          -10800.00
02478          -10400.00
02479           -9800.00
02480           -9400.00
02481           -8800.00
02482           -8400.00
02483           -7600.00
02484           -7400.00
02485           -6800.00
02486           -6200.00
02487           -5600.00
02488           -5000.00
02489           -4600.00
02490           -3800.00
02491           -3400.00
02492           -2800.00
02493           -2200.00
02494           -2000.00
02495           -1200.00
02496            -600.00
02497            -200.00
02498             400.00
02499            1000.00
02500            1600.00
02501            2000.00
02502            2600.00
02503            3000.00
02504            3400.00
02505            3800.00
02506            4600.00
02507            5400.00
02508            5800.00
02509            6600.00
02510            7000.00
02511            7600.00
02512            7800.00
02513            8400.00
02514            9000.00
02515            9400.00
02516           10000.00
02517           10600.00
02518           11000.00
02519           11600.00
02520           12200.00
02521           12600.00
02522           13200.00
02523           13400.00
02524           14200.00
02525           14600.00
02526           15400.00
02527           15600.00
02528           16200.00
02529           16400.00
02530           17000.00
02531           17400.00
02532           18000.00
02533           18200.00
02534           18600.00
02535           19200.00
02536           19600.00
02537           20200.00
02538           20400.00
02539           21000.00
02540           21200.00
02541           21800.00
02542           22000.00
02543           22600.00
02544           22800.00
02545           23000.00
02546           23400.00
02547           23800.00
02548           24200.00
02549           24400.00
02550           24600.00
02551           25000.00
02552           25000.00
02553           25000.00
02554           25000.00
02555           25000.00
02556           25000.00
02557           25000.00
02558           25000.00
02559           25000.00
02560           25000.00
02561           25000.00
02562           25000.00
02563           25000.00
02564           25000.00
02565           25000.00
02566           25000.00
02567           25000.00
02568           25000.00
02569           25000.00
02570           25000.00
02571           25000.00
02572           25000.00
02573           25000.00
02574           25000.00
02575           25000.00
02576           25000.00
02577           25000.00
02578           25000.00
02579           25000.00
02580           25000.00
02581           25000.00
02582           25000.00
02583           25000.00
02584           25000.00
02585           25000.00
02586           25000.00
02587           25000.00
02588           25000.00
02589           25000.00
02590           25000.00
02591           25000.00
02592           25000.00
02593           25000.00
02594           25000.00
02595           25000.00
02596           25000.00
02597           25000.00
02598           25000.00
02599           25000.00
02600           25000.00
02601           25000.00
02602           25000.00
02603           25000.00
02604           25000.00
02605           25000.00
02606           25000.00
02607           25000.00
02608           25000.00
02609           25000.00
02610           24600.00
02611           24400.00
02612           24200.00
02613           24200.00
02614           23600.00
02615           23200.00
02616           23000.00
02617           22400.00
02618           22000.00
02619           21800.00
02620           21400.00
02621           21200.00
02622           20600.00
02623           20200.00
02624           19800.00
02625           19600.00
02626           19000.00
02627           18600.00
02628           18200.00
02629           17800.00
02630           17200.00
02631           16800.00
02632           16400.00
02633           15800.00
02634           15400.00
02635           15000.00
02636           14600.00
02637           13800.00
02638           13400.00
02639           13000.00
02640           12400.00
02641           11800.00
02642           11600.00
02643           10800.00
02644           10600.00
02645           10000.00
02646            9200.00
02647            9000.00
02648            8400.00
02649            7600.00
02650            7400.00
02651            6800.00
02652            6000.00
02653            5600.00
02654            5200.00
02655            4400.00
02656            3800.00
02657            3400.00
02658            2800.00
02659            2200.00
02660            1800.00
02661            1200.00
02662             400.00
02663             200.00
02664            -600.00
02665           -1000.00
02666           -1800.00
02667           -2200.00
02668           -2800.00
02669           -3000.00
02670           -3600.00
02671           -4000.00
02672           -4600.00
02673           -5400.00
02674           -6200.00
02675           -6800.00
02676           -7000.00
02677           -7400.00
02678           -8200.00
02679           -8600.00
02680           -9200.00
02681           -9400.00
02682          -10200.00
02683          -10600.00
02684          -11000.00
02685          -11800.00
02686          -12200.00
02687          -13000.00
02688          -13200.00
02689          -13800.00
02690          -14200.00
02691          -14800.00
02692          -15000.00
02693          -15600.00
02694          -16200.00
02695          -16400.00
02696          -17000.00
02697          -17600.00
02698          -18000.00
02699          -18200.00
02700          -18800.00
02701          -19200.00
02702          -19800.00
02703          -20200.00
02704          -20600.00
02705          -21000.00
02706          -21400.00
02707          -21800.00
02708          -22000.00
02709          -22600.00
02710          -22800.00
02711          -23000.00
02712          -23600.00
02713          -23800.00
02714          -24200.00
02715          -24600.00
02716          -24600.00
02717          -25000.00
02718          -25000.00
02719          -25000.00
02720          -25000.00
02721          -25000.00
02722          -25000.00
02723          -25000.00
02724          -25000.00
02725          -25000.00
02726          -25000.00
02727          -25000.00
02728          -25000.00
02729          -25000.00
02730          -25000.00
02731          -25000.00
02732          -25000.00
02733          -25000.00
02734          -25000.00
02735          -25000.00
02736          -25000.00
02737          -25000.00
02738          -25000.00
02739          -25000.00
02740          -25000.00
02741          -25000.00
02742          -25000.00
02743          -25000.00
02744          -25000.00
02745          -25000.00
02746          -25000.00
02747          -25000.00
02748          -25000.00
02749          -25000.00
02750          -25000.00
02751          -25000.00
02752          -25000.00
02753          -25000.00
02754          -25000.00
02755          -25000.00
02756          -25000.00
02757          -25000.00
02758          -25000.00
02759          -25000.00
02760          -25000.00
02761          -25000.00
02762          -25000.00
02763          -25000.00
02764          -25000.00
02765          -25000.00
02766          -25000.00
02767          -25000.00
02768          -25000.00
02769          -25000.00
02770          -25000.00
02771          -25000.00
02772          -25000.00
02773          -25000.00
02774          -25000.00
02775          -25000.00
02776          -24600.00
02777          -24400.00
02778          -24000.00
02779          -23800.00
02780          -23400.00
02781          -23000.00
02782          -22800.00
02783          -22600.00
02784          -22000.00
02785          -21600.00
02786          -21200.00
02787          -21000.00
02788          -20400.00
02789          -20200.00
02790          -19800.00
02791          -19400.00
02792          -18800.00
02793          -18200.00
02794          -18200.00
02795          -17600.00
02796          -17200.00
02797          -16600.00
02798          -16400.00
02799          -15600.00
02800          -15200.00
02801          -14800.00
02802          -14200.00
02803          -14000.00
02804          -13400.00
02805          -12800.00
02806          -12400.00
02807          -11800.00
02808          -11200.00
02809          -10800.00
02810          -10200.00
02811           -9800.00
02812           -9200.00
02813           -8600.00
02814           -8200.00
02815           -7600.00
02816           -7000.00
02817           -6600.00
02818           -6000.00
02819           -5400.00
02820           -5000.00
02821           -4400.00
02822           -3800.00
02823           -3200.00
02824           -2600.00
02825           -2000.00
02826           -1400.00
02827           -1000.00
02828            -400.00
02829             200.00
02830             800.00
02831            1200.00
02832            1800.00
02833            2400.00
02834            2800.00
02835            3400.00
02836            3600.00
02837            4200.00
02838            5000.00
02839            5600.00
02840            6200.00
02841            6800.00
02842            7000.00
02843            7800.00
02844            8000.00
02845            8600.00
02846            9000.00
02847            9800.00
02848           10200.00
02849           10800.00
02850           11400.00
02851           11600.00
02852           12200.00
02853           12800.00
02854           13400.00
02855           14000.00
02856           14200.00
02857           14800.00
02858           15200.00
02859           15600.00
02860           16200.00
02861           16800.00
02862           17000.00
02863           17400.00
02864           18000.00
02865           18600.00
02866           19000.00
02867           19400.00
02868           19600.00
02869           20200.00
02870           20600.00
02871           21000.00
02872           21400.00
02873           21800.00
02874           22400.00
02875           22600.00
02876           22800.00
02877           23400.00
02878           23600.00
02879           23800.00
02880           24200.00
02881           24600.00
02882           24600.00
02883           25000.00
02884           25000.00
02885           25000.00
02886           25000.00
02887           25000.00
02888           25000.00
02889           25000.00
02890           25000.00
02891           25000.00
02892           25000.00
02893           25000.00
02894           25000.00
02895           25000.00
02896           25000.00
02897           25000.00
02898           25000.00
02899           25000.00
02900           25000.00
02901           25000.00
02902           25000.00
02903           25000.00
02904           25000.00
02905           25000.00
02906           25000.00
02907           25000.00
02908           25000.00
02909           25000.00
02910           25000.00
02911           25000.00
02912           25000.00
02913           25000.00
02914           25000.00
02915           25000.00
02916           25000.00
02917           25000.00
02918           25000.00
02919           25000.00
02920           25000.00
02921           25000.00
02922           25000.00
02923           25000.00
02924           25000.00
02925           25000.00
02926           25000.00
02927           25000.00
02928           25000.00
02929           25000.00
02930           25000.00
02931           25000.00
02932           25000.00
02933           25000.00
02934           25000.00
02935           25000.00
02936           25000.00
02937           25000.00
02938           25000.00
02939           25000.00
02940           25000.00
02941           25000.00
02942           24600.00
02943           24400.00
02944           24200.00
02945           23800.00
02946           23400.00
02947           23000.00
02948           22800.00
02949           22600.00
02950           22000.00
02951           21800.00
02952           21400.00
02953           21000.00
02954           20600.00
02955           20200.00
02956           19600.00
02957           19400.00
02958           18800.00
02959           18400.00
02960           18000.00
02961           17400.00
02962           17000.00
02963           16600.00
02964           16400.00
02965           15800.00
02966           15200.00
02967           14800.00
02968           14400.00
02969           13800.00
02970           13400.00
02971           13000.00
02972           12200.00
02973           11800.00
02974           11400.00
02975           10600.00
02976           10000.00
02977            9600.00
02978            9000.00
02979            8600.00
02980            8200.00
02981            7600.00
02982            6800.00
02983            6400.00
02984            5800.00
02985            5400.00
02986            4600.00
02987            4200.00
02988            3600.00
02989            3000.00
02990            2600.00
02991            2000.00
02992            1400.00
02993            1000.00
02994             200.00
02995            -200.00
02996            -600.00
02997           -1200.00
02998           -1800.00
02999           -2200.00
03000           -2800.00
03001           -3400.00
03002           -3800.00
03003           -4400.00
03004           -5000.00
03005           -6000.00
03006           -6600.00
03007           -6800.00
03008           -7200.00
03009           -7600.00
03010           -8200.00
03011           -8800.00
03012           -9200.00
03013          -10000.00
03014          -10200.00
03015          -10800.00
03016          -11400.00
03017          -11800.00
03018          -12400.00
03019          -12800.00
03020          -13400.00
03021          -14000.00
03022          -14200.00
03023          -14800.00
03024          -15400.00
03025          -15800.00
03026          -16200.00
03027          -16600.00
03028          -17200.00
03029          -17800.00
03030          -18000.00
03031          -18600.00
03032          -19000.00
03033          -19400.00
03034          -19800.00
03035          -20200.00
03036          -20600.00
03037          -21200.00
03038          -21400.00
03039          -22000.00
03040          -22400.00
03041          -22600.00
03042          -23000.00
03043          -23400.00
03044          -23600.00
03045          -23800.00
03046          -24200.00
03047          -24600.00
03048          -25000.00
03049          -25000.00
03050          -25000.00
03051          -25000.00
03052          -25000.00
03053          -25000.00
03054          -25000.00
03055          -25000.00
03056          -25000.00
03057          -25000.00
03058          -25000.00
03059          -25000.00
03060          -25000.00
03061          -25000.00
03062          -25000.00
03063          -25000.00
03064          -25000.00
03065          -25000.00
03066          -25000.00
03067          -25000.00
03068          -25000.00
03069          -25000.00
03070          -25000.00
03071          -25000.00
03072          -25000.00
03073          -25000.00
03074          -25000.00
03075          -25000.00
03076          -25000.00
03077          -25000.00
03078          -25000.00
03079          -25000.00
03080          -25000.00
03081          -25000.00
03082          -25000.00
03083          -25000.00
03084          -25000.00
03085          -25000.00
03086          -25000.00
03087          -25000.00
03088          -25000.00
03089          -25000.00
03090          -25000.00
03091          -25000.00
03092          -25000.00
03093          -25000.00
03094          -25000.00
03095          -25000.00
03096          -25000.00
03097          -25000.00
03098          -25000.00
03099          -25000.00
03100          -25000.00
03101          -25000.00
03102          -25000.00
03103          -25000.00
03104          -25000.00
03105          -25000.00
03106          -25000.00
03107          -25000.00
03108          -24600.00
03109          -24200.00
03110          -23800.00
03111          -23600.00
03112          -23400.00
03113          -23000.00
03114          -22600.00
03115          -22400.00
03116          -21800.00
03117          -21600.00
03118          -21200.00
03119          -20600.00
03120          -20400.00
03121          -19800.00
03122          -19800.00
03123          -19000.00
03124          -18800.00
03125          -18200.00
03126          -17800.00
03127          -17400.00
03128          -17000.00
03129          -16400.00
03130          -16200.00
03131          -15600.00
03132          -15000.00
03133          -14600.00
03134          -14000.00
03135          -13800.00
03136          -13200.00
03137          -12600.00
03138          -12000.00
03139          -11600.00
03140          -11000.00
03141          -10600.00
03142          -10000.00
03143           -9400.00
03144           -9000.00
03145           -8400.00
03146           -7800.00
03147           -7400.00
03148           -6800.00
03149           -6000.00
03150           -5800.00
03151           -5200.00
03152           -4600.00
03153           -4200.00
03154           -3400.00
03155           -2800.00
03156           -2400.00
03157           -1800.00
03158           -1200.00
03159            -600.00
03160            -200.00
03161             400.00
03162            1000.00
03163            1400.00
03164            2000.00
03165            2600.00
03166            2800.00
03167            3600.00
03168            3800.00
03169            4600.00
03170            5200.00
03171            5800.00
03172            6600.00
03173            6800.00
03174            7400.00
03175            7800.00
03176            8400.00
03177            9000.00
03178            9400.00
03179           10000.00
03180           10600.00
03181           11000.00
03182           11600.00
03183           11800.00
03184           12600.00
03185           13000.00
03186           13400.00
03187           14000.00
03188           14600.00
03189           15000.00
03190           15400.00
03191           15800.00
03192           16400.00
03193           17000.00
03194           17400.00
03195           17800.00
03196           18200.00
03197           18600.00
03198           19000.00
03199           19600.00
03200           20200.00
03201           20400.00
03202           21000.00
03203           21200.00
03204           21600.00
03205           22000.00
03206           22200.00
03207           22800.00
03208           23000.00
03209           23400.00
03210           23800.00
03211           24200.00
03212           24400.00
03213           24800.00
03214           25000.00
03215           25000.00
03216           25000.00
03217           25000.00
03218           25000.00
03219           25000.00
03220           25000.00
03221           25000.00
03222           25000.00
03223           25000.00
03224           25000.00
03225           25000.00
03226           25000.00
03227           25000.00
03228           25000.00
03229           25000.00
03230           25000.00
03231           25000.00
03232           25000.00
03233           25000.00
03234           25000.00
03235           25000.00
03236           25000.00
03237           25000.00
03238           25000.00
03239           25000.00
03240           25000.00
03241           25000.00
03242           25000.00
03243           25000.00
03244           25000.00
03245           25000.00
03246           25000.00
03247           25000.00
03248           25000.00
03249           25000.00
03250           25000.00
03251           25000.00
03252           25000.00
03253           25000.00
03254           25000.00
03255           25000.00
03256           25000.00
03257           25000.00
03258           25000.00
03259           25000.00
03260           25000.00
03261           25000.00
03262           25000.00
03263           25000.00
03264           25000.00
03265           25000.00
03266           25000.00
03267           25000.00
03268           25000.00
03269           25000.00
03270           25000.00
03271           25000.00
03272           25000.00
03273           25000.00
03274           24400.00
03275           24400.00
03276           24000.00
03277           23600.00
03278           23400.00
03279           23000.00
03280           22600.00
03281           22200.00
03282           21800.00
03283           21800.00
03284           21200.00
03285           20800.00
03286           20400.00
03287           19800.00
03288           19600.00
03289           19000.00
03290           18600.00
03291           18200.00
03292           17800.00
03293           17400.00
03294           17000.00
03295           16400.00
03296           16000.00
03297           15600.00
03298           15200.00
03299           14600.00
03300           14000.00
03301           13400.00
03302           13200.00
03303           12400.00
03304           12200.00
03305           11600.00
03306           11000.00
03307           10400.00
03308           10000.00
03309            9400.00
03310            9000.00
03311            8400.00
03312            7800.00
03313            7400.00
03314            6800.00
03315            6200.00
03316            5600.00
03317            5000.00
03318            4400.00
03319            4200.00
03320            3400.00
03321            3000.00
03322            2200.00
03323            1800.00
03324            1200.00
03325             600.00
03326             200.00
03327            -600.00
03328           -1000.00
03329           -1400.00
03330           -2000.00
03331           -2600.00
03332           -3000.00
03333           -3600.00
03334           -3800.00
03335           -4400.00
03336           -5400.00
03337           -6200.00
03338           -6600.00
03339           -7000.00
03340           -7400.00
03341           -7600.00
03342           -8400.00
03343           -9000.00
03344           -9400.00
03345          -10000.00
03346          -10200.00
03347          -11000.00
03348          -11600.00
03349          -12000.00
03350          -12800.00
03351          -13000.00
03352          -13600.00
03353          -14000.00
03354          -14600.00
03355          -15000.00
03356          -15400.00
03357          -16000.00
03358          -16600.00
03359          -17000.00
03360          -17400.00
03361          -17800.00
03362          -18200.00
03363          -18800.00
03364          -19000.00
03365          -19600.00
03366          -20000.00
03367          -20400.00
03368          -20800.00
03369          -21200.00
03370          -21600.00
03371          -22000.00
03372          -22400.00
03373          -22800.00
03374          -23000.00
03375          -23400.00
03376          -23800.00
03377          -24200.00
03378          -24600.00
03379          -24600.00
03380          -25000.00
03381          -25000.00
03382          -25000.00
03383          -25000.00
03384          -25000.00
03385          -25000.00
03386          -25000.00
03387          -25000.00
03388          -25000.00
03389          -25000.00
03390          -25000.00
03391          -25000.00
03392          -25000.00
03393          -25000.00
03394          -25000.00
03395          -25000.00
03396          -25000.00
03397          -25000.00
03398          -25000.00
03399          -25000.00
03400          -25000.00
03401          -25000.00
03402          -25000.00
03403          -25000.00
03404          -25000.00
03405          -25000.00
03406          -25000.00
03407          -25000.00
03408          -25000.00
03409          -25000.00
03410          -25000.00
03411          -25000.00
03412          -25000.00
03413          -25000.00
03414          -25000.00
03415          -25000.00
03416          -25000.00
03417          -25000.00
03418          -25000.00
03419          -25000.00
03420          -25000.00
03421          -25000.00
03422          -25000.00
03423          -25000.00
03424          -25000.00
03425          -25000.00
03426          -25000.00
03427          -25000.00
03428          -25000.00
03429          -25000.00
03430          -25000.00
03431          -25000.00
03432          -25000.00
03433          -25000.00
03434          -25000.00
03435          -25000.00
03436          -25000.00
03437          -25000.00
03438          -25000.00
03439          -24600.00
03440          -24400.00
03441          -24200.00
03442          -23600.00
03443          -23600.00
03444          -23200.00
03445          -22800.00
03446          -22600.00
03447          -22200.00
03448          -21800.00
03449          -21400.00
03450          -21000.00
03451          -20600.00
03452          -20200.00
03453          -19800.00
03454          -19400.00
03455          -19000.00
03456          -18600.00
03457          -18200.00
03458          -17800.00
03459          -17200.00
03460          -16600.00
03461          -16200.00
03462          -15800.00
03463          -15400.00
03464          -15000.00
03465          -14400.00
03466          -13800.00
03467          -13400.00
03468          -13000.00
03469          -12400.00
03470          -11800.00
03471          -11400.00
03472          -10800.00
03473          -10600.00
03474           -9800.00
03475           -9200.00
03476           -8600.00
03477           -8200.00
03478           -7600.00
03479           -7000.00
03480           -6400.00
03481           -6000.00
03482           -5400.00
03483           -5000.00
03484           -4400.00
03485           -3800.00
03486           -3200.00
03487           -2800.00
03488           -2200.00
03489           -1400.00
03490           -1000.00
03491            -600.00
03492               0.00
03493             400.00
03494            1200.00
03495            1800.00
03496            2200.00
03497            2600.00
03498            3000.00
03499            3600.00
03500            4200.00
03501            5000.00
03502            5400.00
03503            6000.00
03504            6800.00
03505            7000.00
03506            7600.00
03507            8200.00
03508            8400.00
03509            9000.00
03510            9400.00
03511           10000.00
03512           10600.00
03513           11000.00
03514           11600.00
03515           12200.00
03516           12600.00
03517           13200.00
03518           13800.00
03519           14000.00
03520           14800.00
03521           15000.00
03522           15800.00
03523           16200.00
03524           16600.00
03525           17000.00
03526           17400.00
03527           18000.00
03528           18400.00
03529           18800.00
03530           19400.00
03531           19600.00
03532           20200.00
03533           20600.00
03534           21000.00
03535           21400.00
03536           21800.00
03537           22200.00
03538           22600.00
03539           22800.00
03540           23400.00
03541           23600.00
03542           24200.00
03543           24200.00
03544           24600.00
03545           24600.00
03546           25000.00
03547           25000.00
03548           25000.00
03549           25000.00
03550           25000.00
03551           25000.00
03552           25000.00
03553           25000.00
03554           25000.00
03555           25000.00
03556           25000.00
03557           25000.00
03558           25000.00
03559           25000.00
03560           25000.00
03561           25000.00
03562           25000.00
03563           25000.00
03564           25000.00
03565           25000.00
03566           25000.00
03567           25000.00
03568           25000.00
03569           25000.00
03570           25000.00
03571           25000.00
03572           25000.00
03573           25000.00
03574           25000.00
03575           25000.00
03576           25000.00
03577           25000.00
03578           25000.00
03579           25000.00
03580           25000.00
03581           25000.00
03582           25000.00
03583           25000.00
03584           25000.00
03585           25000.00
03586           25000.00
03587           25000.00
03588           25000.00
03589           25000.00
03590           25000.00
03591           25000.00
03592           25000.00
03593           25000.00
03594           25000.00
03595           25000.00
03596           25000.00
03597           25000.00
03598           25000.00
03599           25000.00
03600           25000.00
03601           25000.00
03602           25000.00
03603           25000.00
03604           25000.00
03605           24800.00
03606           24600.00
03607           24200.00
03608           23800.00
03609           23600.00
03610           23000.00
03611           22800.00
03612           22400.00
03613           22200.00
03614           21800.00
03615           21400.00
03616           21000.00
03617           20600.00
03618           20400.00
03619           19800.00
03620           19400.00
03621           19000.00
03622           18600.00
03623           18000.00
03624           17800.00
03625           17200.00
03626           16800.00
03627           16400.00
03628           15800.00
03629           15400.00
03630           14800.00
03631           14600.00
03632           14000.00
03633           13200.00
03634           13000.00
03635           12400.00
03636           12000.00
03637           11400.00
03638           10800.00
03639           10200.00
03640            9800.00
03641            9200.00
03642            8400.00
03643            8200.00
03644            7600.00
03645            7000.00
03646            6600.00
03647            6000.00
03648            5400.00
03649            5000.00
03650            4200.00
03651            3600.00
03652            3400.00
03653            2600.00
03654            2000.00
03655            1600.00
03656            1200.00
03657             400.00
03658            -200.00
03659            -600.00
03660           -1200.00
03661           -1600.00
03662           -2200.00
03663           -2800.00
03664           -3400.00
03665           -3600.00
03666           -4200.00
03667           -5000.00
03668           -5800.00
03669           -6600.00
03670           -6600.00
03671           -7000.00
03672           -7400.00
03673           -7800.00
03674           -8600.00
03675           -9200.00
03676           -9800.00
03677          -10000.00
03678          -10600.00
03679          -11400.00
03680          -11600.00
03681          -12400.00
03682          -12600.00
03683          -13200.00
03684          -13800.00
03685          -14200.00
03686          -14800.00
03687          -15400.00
03688          -15600.00
03689          -16200.00
03690          -16600.00
03691          -17200.00
03692          -17600.00
03693          -18000.00
03694          -18600.00
03695          -18800.00
03696          -19400.00
03697          -19800.00
03698          -20200.00
03699          -20400.00
03700          -21000.00
03701          -21400.00
03702          -21800.00
03703          -22000.00
03704          -22600.00
03705          -23000.00
03706          -23400.00
03707          -23600.00
03708          -24000.00
03709          -24400.00
03710          -24600.00
03711          -25000.00
03712          -25000.00
03713          -25000.00
03714          -25000.00
03715          -25000.00
03716          -25000.00
03717          -25000.00
03718          -25000.00
03719          -25000.00
03720          -25000.00
03721          -25000.00
03722          -25000.00
03723          -25000.00
03724          -25000.00
03725          -25000.00
03726          -25000.00
03727          -25000.00
03728          -25000.00
03729          -25000.00
03730          -25000.00
03731          -25000.00
03732          -25000.00
03733          -25000.00
03734          -25000.00
03735          -25000.00
03736          -25000.00
03737          -25000.00
03738          -25000.00
03739          -25000.00
03740          -25000.00
03741          -25000.00
03742          -25000.00
03743          -25000.00
03744          -25000.00
03745          -25000.00
03746          -25000.00
03747          -25000.00
03748          -25000.00
03749          -25000.00
03750          -25000.00
03751          -25000.00
03752          -25000.00
03753          -25000.00
03754          -25000.00
03755          -25000.00
03756          -25000.00
03757          -25000.00
03758          -25000.00
03759          -25000.00
03760          -25000.00
03761          -25000.00
03762          -25000.00
03763          -25000.00
03764          -25000.00
03765          -25000.00
03766          -25000.00
03767          -25000.00
03768          -25000.00
03769          -25000.00
03770          -25000.00
03771          -24600.00
03772          -24400.00
03773          -24000.00
03774          -23800.00
03775          -23400.00
03776          -23000.00
03777          -22800.00
03778          -22200.00
03779          -22000.00
03780          -21600.00
03781          -21400.00
03782          -21000.00
03783          -20400.00
03784          -20200.00
03785          -19600.00
03786          -19400.00
03787          -18800.00
03788          -18600.00
03789          -18200.00
03790          -17400.00
03791          -17000.00
03792          -16600.00
03793          -16200.00
03794          -15600.00
03795          -15000.00
03796          -14800.00
03797          -14000.00
03798          -13800.00
03799          -13200.00
03800          -12600.00
03801          -12200.00
03802          -11600.00
03803          -11000.00
03804          -10600.00
03805          -10200.00
03806           -9400.00
03807           -9200.00
03808           -8400.00
03809           -7800.00
03810           -7400.00
03811           -6800.00
03812           -6200.00
03813           -5800.00
03814           -5200.00
03815           -4600.00
03816           -4200.00
03817           -3600.00
03818           -3000.00
03819           -2600.00
03820           -2000.00
03821           -1400.00
03822           -1000.00
03823            -400.00
03824             200.00
03825            1000.00
03826            1200.00
03827            1800.00
03828            2600.00
03829            2800.00
03830            3200.00
03831            3800.00
03832            4400.00
03833            5200.00
03834            5800.00
03835            6400.00
03836            6800.00
03837            7400.00
03838            7800.00
03839            8400.00
03840            8600.00
03841            9000.00
03842            9800.00
03843           10200.00
03844           10600.00
03845           11400.00
03846           12000.00
03847           12200.00
03848           13000.00
03849           13400.00
03850           14000.00
03851           14600.00
03852           15000.00
03853           15400.00
03854           15800.00
03855           16400.00
03856           16600.00
03857           17200.00
03858           17800.00
03859           18000.00
03860           18600.00
03861           19000.00
03862           19400.00
03863           19800.00
03864           20400.00
03865           20600.00
03866           21200.00
03867           21800.00
03868           22000.00
03869           22400.00
03870           22600.00
03871           23000.00
03872           23400.00
03873           23600.00
03874           24200.00
03875           24400.00
03876           24600.00
03877           25000.00
03878           25000.00
03879           25000.00
03880           25000.00
03881           25000.00
03882           25000.00
03883           25000.00
03884           25000.00
03885           25000.00
03886           25000.00
03887           25000.00
03888           25000.00
03889           25000.00
03890           25000.00
03891           25000.00
03892           25000.00
03893           25000.00
03894           25000.00
03895           25000.00
03896           25000.00
03897           25000.00
03898           25000.00
03899           25000.00
03900           25000.00
03901           25000.00
03902           25000.00
03903           25000.00
03904           25000.00
03905           25000.00
03906           25000.00
03907           25000.00
03908           25000.00
03909           25000.00
03910           25000.00
03911           25000.00
03912           25000.00
03913           25000.00
03914           25000.00
03915           25000.00
03916           25000.00
03917           25000.00
03918           25000.00
03919           25000.00
03920           25000.00
03921           25000.00
03922           25000.00
03923           25000.00
03924           25000.00
03925           25000.00
03926           25000.00
03927           25000.00
03928           25000.00
03929           25000.00
03930           25000.00
03931           25000.00
03932           25000.00
03933           25000.00
03934           25000.00
03935           25000.00
03936           25000.00
03937           24800.00
03938           24400.00
03939           24200.00
03940           23600.00
03941           23400.00
03942           23000.00
03943           22800.00
03944           22600.00
03945           21800.00
03946           21800.00
03947           21200.00
03948           21000.00
03949           20600.00
03950           20200.00
03951           19800.00
03952           19200.00
03953           18800.00
03954           18200.00
03955           18000.00
03956           17400.00
03957           17000.00
03958           16600.00
03959           16200.00
03960           15600.00
03961           15000.00
03962           14600.00
03963           14200.00
03964           13800.00
03965           13000.00
03966           12600.00
03967           12200.00
03968           11600.00
03969           11000.00
03970           10600.00
03971           10000.00
03972            9800.00
03973            8800.00
03974            8400.00
03975            7800.00
03976            7400.00
03977            6800.00
03978            6200.00
03979            5800.00
03980            5200.00
03981            4600.00
03982            4200.00
03983            3600.00
03984            3000.00
03985            2600.00
03986            1800.00
03987            1200.00
03988             800.00
03989             400.00
03990            -200.00
03991           -1000.00
03992           -1200.00
03993           -1800.00
03994           -2600.00
03995           -2800.00
03996           -3400.00
03997           -3800.00
03998           -4400.00
03999           -5200.00
04000           -6000.00
04001           -6600.00
04002           -6800.00
04003           -7000.00
04004           -7600.00
04005           -8200.00
04006           -9000.00
04007           -9200.00
04008           -9800.00
04009          -10200.00
04010          -10800.00
04011          -11600.00
04012          -11800.00
04013          -12400.00
04014          -13000.00
04015          -13400.00
04016          -14000.00
04017          -14400.00
04018          -14800.00
04019          -15600.00
04020          -15800.00
04021          -16400.00
04022          -16800.00
04023          -17400.00
04024          -17800.00
04025          -18200.00
04026          -18800.00
04027          -19000.00
04028          -19600.00
04029          -20200.00
04030          -20400.00
04031          -20600.00
04032          -21200.00
04033          -21600.00
04034          -22000.00
04035          -22400.00
04036          -22800.00
04037          -23000.00
04038          -23400.00
04039          -23800.00
04040          -24000.00
04041          -24600.00
04042          -24600.00
04043          -25000.00
04044          -25000.00
04045          -25000.00
04046          -25000.00
04047          -25000.00
04048          -25000.00
04049          -25000.00
04050          -25000.00
04051          -25000.00
04052          -25000.00
04053          -25000.00
04054          -25000.00
04055          -25000.00
04056          -25000.00
04057          -25000.00
04058          -25000.00
04059          -25000.00
04060          -25000.00
04061          -25000.00
04062          -25000.00
04063          -25000.00
04064          -25000.00
04065          -25000.00
04066          -25000.00
04067          -25000.00
04068          -25000.00
04069          -25000.00
04070          -25000.00
04071          -25000.00
04072          -25000.00
04073          -25000.00
04074          -25000.00
04075          -25000.00
04076          -25000.00
04077          -25000.00
04078          -25000.00
04079          -25000.00
04080          -25000.00
04081          -25000.00
04082          -25000.00
04083          -25000.00
04084          -25000.00
04085          -25000.00
04086          -25000.00
04087          -25000.00
04088          -25000.00
04089          -25000.00
04090          -25000.00
04091          -25000.00
04092          -25000.00
04093          -25000.00
04094          -25000.00
04095          -25000.00
04096          -25000.00
04097          -25000.00
04098          -25000.00
04099          -25000.00
04100          -25000.00
04101          -25000.00
04102          -25000.00
04103          -24600.00
04104          -24200.00
04105          -23800.00
04106          -23600.00
04107          -23400.00
04108          -23000.00
04109          -22600.00
04110          -22200.00
04111          -22000.00
04112          -21400.00
04113          -21200.00
04114          -20600.00
04115          -20400.00
04116          -19800.00
04117          -19400.00
04118          -19200.00
04119          -18800.00
04120          -18200.00
04121          -17800.00
04122          -17400.00
04123          -17000.00
04124          -16400.00
04125          -16000.00
04126          -15400.00
04127          -15000.00
04128          -14600.00
04129          -14000.00
04130          -13400.00
04131          -13000.00
04132          -12400.00
04133          -12000.00
04134          -11400.00
04135          -11000.00
04136          -10200.00
04137          -10000.00
04138           -9200.00
04139           -9000.00
04140           -8400.00
04141           -7800.00
04142           -7000.00
04143           -6600.00
04144           -6000.00
04145           -5800.00
04146           -5000.00
04147           -4400.00
04148           -3800.00
04149           -3400.00
04150           -2800.00
04151           -2200.00
04152           -1800.00
04153           -1200.00
04154            -600.00
04155            -200.00
04156             400.00
04157            1000.00
04158            1600.00
04159            2000.00
04160            2600.00
04161            2800.00
04162            3600.00
04163            3800.00
04164            4600.00
04165            5200.00
04166            5800.00
04167            6600.00
04168            6800.00
04169            7400.00
04170            7800.00
04171            8400.00
04172            9000.00
04173            9200.00
04174           10000.00
04175           10600.00
04176           11000.00
04177           11600.00
04178           12200.00
04179           12400.00
04180           13200.00
04181           13600.00
04182           14000.00
04183           14600.00
04184           15000.00
04185           15600.00
04186           16000.00
04187           16400.00
04188           17000.00
04189           17400.00
04190           18000.00
04191           18600.00
04192           18800.00
04193           19400.00
04194           19600.00
04195           20200.00
04196           20400.00
04197           21000.00
04198           21400.00
04199           21800.00
04200           22000.00
04201           22400.00
04202           23000.00
04203           23000.00
04204           23400.00
04205           23800.00
04206           24200.00
04207           24400.00
04208           24800.00
04209           25000.00
04210           25000.00
04211           25000.00
04212           25000.00
04213           25000.00
04214           25000.00
04215           25000.00
04216           25000.00
04217           25000.00
04218           25000.00
04219           25000.00
04220           25000.00
04221           25000.00
04222           25000.00
04223           25000.00
04224           25000.00
04225           25000.00
04226           25000.00
04227           25000.00
04228           25000.00
04229           25000.00
04230           25000.00
04231           25000.00
04232           25000.00
04233           25000.00
04234           25000.00
04235           25000.00
04236           25000.00
04237           25000.00
04238           25000.00
04239           25000.00
04240           25000.00
04241           25000.00
04242           25000.00
04243           25000.00
04244           25000.00
04245           25000.00
04246           25000.00
04247           25000.00
04248           25000.00
04249           25000.00
04250           25000.00
04251           25000.00
04252           25000.00
04253           25000.00
04254           25000.00
04255           25000.00
04256           25000.00
04257           25000.00
04258           25000.00
04259           25000.00
04260           25000.00
04261           25000.00
04262           25000.00
04263           25000.00
04264           25000.00
04265           25000.00
04266           25000.00
04267           25000.00
04268           25000.00
04269           24600.00
04270           24200.00
04271           24000.00
04272           23600.00
04273           23400.00
04274           22800.00
04275           22800.00
04276           22200.00
04277           21800.00
04278           21400.00
04279           21200.00
04280           20600.00
04281           20400.00
04282           19800.00
04283           19600.00
04284           19000.00
04285           18600.00
04286           18200.00
04287           17800.00
04288           17200.00
04289           17000.00
04290           16400.00
04291           16000.00
04292           15400.00
04293           14800.00
04294           14600.00
04295           14000.00
04296           13200.00
04297           13000.00
04298           12200.00
04299           12000.00
04300           11400.00
04301           10800.00
04302           10200.00
04303            9800.00
04304            9200.00
04305            8600.00
04306            8200.00
04307            7600.00
04308            7200.00
04309            6600.00
04310            6000.00
04311            5600.00
04312            5000.00
04313            4400.00
04314            4000.00
04315            3400.00
04316            2800.00
04317            2200.00
04318            1600.00
04319            1200.00
04320             600.00
04321             200.00
04322            -600.00
04323           -1000.00
04324           -1400.00
04325           -2000.00
04326           -2600.00
04327           -3000.00
04328           -3600.00
04329           -4000.00
04330           -4600.00
04331           -5400.00
04332           -6200.00
04333           -6600.00
04334           -7000.00
04335           -7400.00
04336           -7800.00
04337           -8400.00
04338           -9000.00
04339           -9400.00
04340          -10200.00
04341          -10600.00
04342          -11400.00
04343          -11600.00
04344          -12200.00
04345          -12600.00
04346          -13200.00
04347          -13800.00
04348          -14000.00
04349          -14800.00
04350          -15000.00
04351          -15600.00
04352          -16200.00
04353          -16600.00
04354          -17000.00
04355          -17400.00
04356          -18000.00
04357          -18400.00
04358          -19000.00
04359          -19200.00
04360          -19800.00
04361          -20200.00
04362          -20600.00
04363          -21200.00
04364          -21400.00
04365          -21800.00
04366          -22200.00
04367          -22600.00
04368          -23000.00
04369          -23400.00
04370          -23600.00
04371          -23800.00
04372          -24200.00
04373          -24600.00
04374          -25000.00
04375          -25000.00
04376          -25000.00
04377          -25000.00
04378          -25000.00
04379          -25000.00
04380          -25000.00
04381          -25000.00
04382          -25000.00
04383          -25000.00
04384          -25000.00
04385          -25000.00
04386          -25000.00
04387          -25000.00
04388          -25000.00
04389          -25000.00
04390          -25000.00
04391          -25000.00
04392          -25000.00
04393          -25000.00
04394          -25000.00
04395          -25000.00
04396          -25000.00
04397          -25000.00
04398          -25000.00
04399          -25000.00
04400          -25000.00
04401          -25000.00
04402          -25000.00
04403          -25000.00
04404          -25000.00
04405          -25000.00
04406          -25000.00
04407          -25000.00
04408          -25000.00
04409          -25000.00
04410          -25000.00
04411          -25000.00
04412          -25000.00
04413          -25000.00
04414          -25000.00
04415          -25000.00
04416          -25000.00
04417          -25000.00
04418          -25000.00
04419          -25000.00
04420          -25000.00
04421          -25000.00
04422          -25000.00
04423          -25000.00
04424          -25000.00
04425          -25000.00
04426          -25000.00
04427          -25000.00
04428          -25000.00
04429          -25000.00
04430          -25000.00
04431          -25000.00
04432          -25000.00
04433          -25000.00
04434          -24600.00
04435          -24400.00
04436          -24200.00
04437          -23800.00
04438          -23600.00
04439          -23200.00
04440          -22800.00
04441          -22600.00
04442          -22000.00
04443          -21800.00
04444          -21200.00
04445          -21000.00
04446          -20600.00
04447          -20200.00
04448          -19800.00
04449          -19200.00
04450          -19000.00
04451          -18600.00
04452          -18000.00
04453          -17600.00
04454          -17200.00
04455          -16600.00
04456          -16200.00
04457          -15800.00
04458          -15200.00
04459          -14800.00
04460          -14200.00
04461          -13800.00
04462          -13400.00
04463          -12600.00
04464          -12400.00
04465          -11800.00
04466          -11000.00
04467          -10800.00
04468          -10200.00
04469           -9800.00
04470           -9000.00
04471           -8600.00
04472           -8200.00
04473           -7600.00
04474           -7000.00
04475           -6600.00
04476           -6000.00
04477           -5400.00
04478           -4600.00
04479           -4400.00
04480           -3800.00
04481           -3000.00
04482           -2600.00
04483           -2000.00
04484           -1400.00
04485           -1000.00
04486            -400.00
04487             200.00
04488             800.00
04489            1200.00
04490            1800.00
04491            2200.00
04492            2800.00
04493            3400.00
04494            3800.00
04495            4200.00
04496            5000.00
04497            5600.00
04498            6200.00
04499            6600.00
04500            7200.00
04501            7600.00
04502            8200.00
04503            8600.00
04504            9000.00
04505            9600.00
04506           10200.00
04507           10600.00
04508           11400.00
04509           11600.00
04510           12200.00
04511           13000.00
04512           13400.00
04513           13800.00
04514           14400.00
04515           14800.00
04516           15400.00
04517           15800.00
04518           16200.00
04519           16800.00
04520           17200.00
04521           17800.00
04522           18200.00
04523           18600.00
04524           19000.00
04525           19400.00
04526           20000.00
04527           20400.00
04528           20600.00
04529           21200.00
04530           21400.00
04531           22000.00
04532           22200.00
04533           22800.00
04534           23000.00
04535           23400.00
04536           23600.00
04537           24200.00
04538           24400.00
04539           24600.00
04540           25000.00
04541           25000.00
04542           25000.00
04543           25000.00
04544           25000.00
04545           25000.00
04546           25000.00
04547           25000.00
04548           25000.00
04549           25000.00
04550           25000.00
04551           25000.00
04552           25000.00
04553           25000.00
04554           25000.00
04555           25000.00
04556           25000.00
04557           25000.00
04558           25000.00
04559           25000.00
04560           25000.00
04561           25000.00
04562           25000.00
04563           25000.00
04564           25000.00
04565           25000.00
04566           25000.00
04567           25000.00
04568           25000.00
04569           25000.00
04570           25000.00
04571           25000.00
04572           25000.00
04573           25000.00
04574           25000.00
04575           25000.00
04576           25000.00
04577           25000.00
04578           25000.00
04579           25000.00
04580           25000.00
04581           25000.00
04582           25000.00
04583           25000.00
04584           25000.00
04585           25000.00
04586           25000.00
04587           25000.00
04588           25000.00
04589           25000.00
04590           25000.00
04591           25000.00
04592           25000.00
04593           25000.00
04594           25000.00
04595           25000.00
04596           25000.00
04597           25000.00
04598           25000.00
04599           25000.00
04600           25000.00
04601           24400.00
04602           24200.00
04603           23800.00
04604           23600.00
04605           23000.00
04606           22800.00
04607           22600.00
04608           22200.00
04609           21800.00
04610           21400.00
04611           21000.00
04612           20600.00
04613           20200.00
04614           19800.00
04615           19400.00
04616           18800.00
04617           18600.00
04618           18000.00
04619           17400.00
04620           17200.00
04621           16600.00
04622           16200.00
04623           15600.00
04624           15000.00
04625           14600.00
04626           14200.00
04627           13800.00
04628           13200.00
04629           12600.00
04630           12200.00
04631           11600.00
04632           11000.00
04633           10600.00
04634           10000.00
04635            9600.00
04636            9000.00
04637            8600.00
04638            8200.00
04639            7600.00
04640            7000.00
04641            6400.00
04642            5800.00
04643            5400.00
04644            4800.00
04645            4200.00
04646            3600.00
04647            3200.00
04648            2800.00
04649            2000.00
04650            1400.00
04651            1000.00
04652             400.00
04653            -200.00
04654            -600.00
04655           -1200.00
04656           -1800.00
04657           -2200.00
04658           -2800.00
04659           -3200.00
04660           -3600.00
04661           -4200.00
04662           -5000.00
04663           -6000.00
04664           -6400.00
04665           -6800.00
04666           -7200.00
04667           -7600.00
04668           -8200.00
04669           -8600.00
04670           -9200.00
04671          -10000.00
04672          -10200.00
04673          -10800.00
04674          -11400.00
04675          -11800.00
04676          -12400.00
04677          -13000.00
04678          -13400.00
04679          -14000.00
04680          -14600.00
04681          -15000.00
04682          -15400.00
04683          -15800.00
04684          -16600.00
04685          -17000.00
04686          -17400.00
04687          -17800.00
04688          -18200.00
04689          -18600.00
04690          -19000.00
04691          -19600.00
04692          -19800.00
04693          -20400.00
04694          -20600.00
04695          -21200.00
04696          -21600.00
04697          -22000.00
04698          -22200.00
04699          -22800.00
04700          -23000.00
04701          -23400.00
04702          -23800.00
04703          -24200.00
04704          -24400.00
04705          -24600.00
04706          -25000.00
04707          -25000.00
04708          -25000.00
04709          -25000.00
04710          -25000.00
04711          -25000.00
04712          -25000.00
04713          -25000.00
04714          -25000.00
04715          -25000.00
04716          -25000.00
04717          -25000.00
04718          -25000.00
04719          -25000.00
04720          -25000.00
04721          -25000.00
04722          -25000.00
04723          -25000.00
04724          -25000.00
04725          -25000.00
04726          -25000.00
04727          -25000.00
04728          -25000.00
04729          -25000.00
04730          -25000.00
04731          -25000.00
04732          -25000.00
04733          -25000.00
04734          -25000.00
04735          -25000.00
04736          -25000.00
04737          -25000.00
04738          -25000.00
04739          -25000.00
04740          -25000.00
04741          -25000.00
04742          -25000.00
04743          -25000.00
04744          -25000.00
04745          -25000.00
04746          -25000.00
04747          -25000.00
04748          -25000.00
04749          -25000.00
04750          -25000.00
04751          -25000.00
04752          -25000.00
04753          -25000.00
04754          -25000.00
04755          -25000.00
04756          -25000.00
04757          -25000.00
04758          -25000.00
04759          -25000.00
04760          -25000.00
04761          -25000.00
04762          -25000.00
04763          -25000.00
04764          -25000.00
04765          -25000.00
04766          -24600.00
04767          -24400.00
04768          -24000.00
04769          -23800.00
04770          -23400.00
04771          -23000.00
04772          -22600.00
04773          -22200.00
04774          -22000.00
04775          -21400.00
04776          -21200.00
04777          -21000.00
04778          -20400.00
04779          -19800.00
04780          -19600.00
04781          -19000.00
04782          -18800.00
04783          -18200.00
04784          -17800.00
04785          -17400.00
04786          -17000.00
04787          -16600.00
04788          -15800.00
04789          -15600.00
04790          -15000.00
04791          -14600.00
04792          -14000.00
04793          -13400.00
04794          -13000.00
04795          -12600.00
04796          -12200.00
04797          -11600.00
04798          -11000.00
04799          -10600.00
04800          -10000.00
04801           -9400.00
04802           -9000.00
04803           -8400.00
04804           -7800.00
04805           -7400.00
04806           -7000.00
04807           -6200.00
04808           -5800.00
04809           -5200.00
04810           -4600.00
04811           -4200.00
04812           -3600.00
04813           -2800.00
04814           -2200.00
04815           -2000.00
04816           -1400.00
04817            -600.00
04818            -400.00
04819             400.00
04820            1000.00
04821            1200.00
04822            2000.00
04823            2400.00
04824            2800.00
04825            3400.00
04826            3800.00
04827            4400.00
04828            5200.00
04829            5800.00
04830            6600.00
04831            6800.00
04832            7400.00
04833            7600.00
04834            8400.00
04835            9000.00
04836            9200.00
04837           10000.00
04838           10400.00
04839           11000.00
04840           11400.00
04841           12000.00
04842           12600.00
04843           13000.00
04844           13400.00
04845           14000.00
04846           14600.00
04847           15000.00
04848           15400.00
04849           15800.00
04850           16400.00
04851           17000.00
04852           17200.00
04853           17800.00
04854           18200.00
04855           18600.00
04856           19000.00
04857           19600.00
04858           20200.00
04859           20400.00
04860           21000.00
04861           21200.00
04862           21800.00
04863           22000.00
04864           22600.00
04865           22800.00
04866           23000.00
04867           23400.00
04868           23600.00
04869           24200.00
04870           24400.00
04871           24800.00
04872           25000.00
04873           25000.00
04874           25000.00
04875           25000.00
04876           25000.00
04877           25000.00
04878           25000.00
04879           25000.00
04880           25000.00
04881           25000.00
04882           25000.00
04883           25000.00
04884           25000.00
04885           25000.00
04886           25000.00
04887           25000.00
04888           25000.00
04889           25000.00
04890           25000.00
04891           25000.00
04892           25000.00
04893           25000.00
04894           25000.00
04895           25000.00
04896           25000.00
04897           25000.00
04898           25000.00
04899           25000.00
04900           25000.00
04901           25000.00
04902           25000.00
04903           25000.00
04904           25000.00
04905           25000.00
04906           25000.00
04907           25000.00
04908           25000.00
04909           25000.00
04910           25000.00
04911           25000.00
04912           25000.00
04913           25000.00
04914           25000.00
04915           25000.00
04916           25000.00
04917           25000.00
04918           25000.00
04919           25000.00
04920           25000.00
04921           25000.00
04922           25000.00
04923           25000.00
04924           25000.00
04925           25000.00
04926           25000.00
04927           25000.00
04928           25000.00
04929           25000.00
04930           25000.00
04931           25000.00
04932           24600.00
04933           24400.00
04934           24200.00
04935           23600.00
04936           23400.00
04937           23000.00
04938           22600.00
04939           22200.00
04940           22000.00
04941           21600.00
04942           21200.00
04943           20800.00
04944           20400.00
04945           20000.00
04946           19600.00
04947           19000.00
04948           18600.00
04949           18200.00
04950           17800.00
04951           17400.00
04952           17000.00
04953           16400.00
04954           16000.00
04955           15400.00
04956           15000.00
04957           14600.00
04958           14000.00
04959           13400.00
04960           13000.00
04961           12400.00
04962           12200.00
04963           11600.00
04964           11000.00
04965           10600.00
04966           10000.00
04967            9400.00
04968            9000.00
04969            8400.00
04970            7800.00
04971            7400.00
04972            6800.00
04973            6200.00
04974            5800.00
04975            5200.00
04976            4400.00
04977            4000.00
04978            3400.00
04979            2800.00
04980            2400.00
04981            2000.00
04982            1200.00
04983             600.00
04984             200.00
04985            -400.00
04986            -800.00
04987           -1200.00
04988           -2000.00
04989           -2600.00
04990           -2800.00
04991           -3400.00
04992           -3800.00
04993           -4400.00
04994           -5400.00
04995           -6000.00
04996           -6600.00
04997           -7000.00
04998           -7200.00
04999           -7600.00
05000           -8400.00
