Unit:(mV)
                     CH1
Frequency    300.971 kHz
00001            1200.00
00002            1000.00
00003             800.00
00004             400.00
00005             200.00
00006            -200.00
00007            -400.00
00008            -400.00
00009            -600.00
00010           -1000.00
00011           -1200.00
00012           -1400.00
00013           -1800.00
00014           -2000.00
00015           -2200.00
00016           -2800.00
00017           -3200.00
00018           -3400.00
00019           -3200.00
00020           -3600.00
00021           -3800.00
00022           -4200.00
00023           -4400.00
00024           -4600.00
00025           -5000.00
00026           -5200.00
00027           -5400.00
00028           -5800.00
00029           -6000.00
00030           -6000.00
00031           -6200.00
00032           -6600.00
00033           -7000.00
00034           -7000.00
00035           -7000.00
00036           -7600.00
00037           -7600.00
00038           -7800.00
00039           -8200.00
00040           -8400.00
00041           -8600.00
00042           -9000.00
00043           -9000.00
00044           -9200.00
00045           -9400.00
00046           -9400.00
00047           -9800.00
00048          -10000.00
00049          -10200.00
00050          -10400.00
00051          -10600.00
00052          -10800.00
00053          -10800.00
00054          -11000.00
00055          -11200.00
00056          -11400.00
00057          -11600.00
00058          -11600.00
00059          -11800.00
00060          -12000.00
00061          -11800.00
00062          -12400.00
00063          -12400.00
00064          -12400.00
00065          -12400.00
00066          -12600.00
00067          -13000.00
00068          -13000.00
00069          -13000.00
00070          -13000.00
00071          -13200.00
00072          -13400.00
00073          -13400.00
00074          -13400.00
00075          -13400.00
00076          -13800.00
00077          -13800.00
00078          -13800.00
00079          -14000.00
00080          -14000.00
00081          -14000.00
00082          -14000.00
00083          -14000.00
00084          -14000.00
00085          -14000.00
00086          -14000.00
00087          -14000.00
00088          -14000.00
00089          -14200.00
00090          -14000.00
00091          -14000.00
00092          -14000.00
00093          -14000.00
00094          -14000.00
00095          -14000.00
00096          -14000.00
00097          -14000.00
00098          -13800.00
00099          -13800.00
00100          -13800.00
00101          -13800.00
00102          -13600.00
00103          -13400.00
00104          -13400.00
00105          -13400.00
00106          -13400.00
00107          -13200.00
00108          -13200.00
00109          -13000.00
00110          -12800.00
00111          -12800.00
00112          -12600.00
00113          -12600.00
00114          -12400.00
00115          -12400.00
00116          -12400.00
00117          -12200.00
00118          -11800.00
00119          -11800.00
00120          -11600.00
00121          -11400.00
00122          -11000.00
00123          -11000.00
00124          -11000.00
00125          -10800.00
00126          -10600.00
00127          -10400.00
00128          -10200.00
00129          -10200.00
00130          -10000.00
00131           -9800.00
00132           -9400.00
00133           -9200.00
00134           -9200.00
00135           -9000.00
00136           -8600.00
00137           -8400.00
00138           -8400.00
00139           -8200.00
00140           -7800.00
00141           -7600.00
00142           -7400.00
00143           -7200.00
00144           -7000.00
00145           -6800.00
00146           -6600.00
00147           -6200.00
00148           -6000.00
00149           -5800.00
00150           -5400.00
00151           -5400.00
00152           -5000.00
00153           -5000.00
00154           -4600.00
00155           -4400.00
00156           -4200.00
00157           -3800.00
00158           -3600.00
00159           -3400.00
00160           -3000.00
00161           -2800.00
00162           -2600.00
00163           -2200.00
00164           -2000.00
00165           -1800.00
00166           -1600.00
00167           -1200.00
00168           -1000.00
00169            -600.00
00170            -600.00
00171            -200.00
00172            -200.00
00173             400.00
00174             400.00
00175             800.00
00176            1200.00
00177            1200.00
00178            1400.00
00179            1800.00
00180            2000.00
00181            2400.00
00182            2600.00
00183            2800.00
00184            3200.00
00185            3400.00
00186            3600.00
00187            3800.00
00188            4200.00
00189            4200.00
00190            4600.00
00191            5000.00
00192            5200.00
00193            5400.00
00194            5800.00
00195            5800.00
00196            6000.00
00197            6400.00
00198            6600.00
00199            6800.00
00200            7000.00
00201            7400.00
00202            7400.00
00203            7800.00
00204            8000.00
00205            8400.00
00206            8400.00
00207            8600.00
00208            9000.00
00209            9000.00
00210            9200.00
00211            9400.00
00212            9800.00
00213            9800.00
00214           10000.00
00215           10000.00
00216           10200.00
00217           10600.00
00218           10800.00
00219           10800.00
00220           11000.00
00221           11200.00
00222           11400.00
00223           11400.00
00224           11600.00
00225           11600.00
00226           12000.00
00227           12200.00
00228           12200.00
00229           12400.00
00230           12400.00
00231           12600.00
00232           13000.00
00233           13000.00
00234           13000.00
00235           13000.00
00236           13200.00
00237           13200.00
00238           13200.00
00239           13400.00
00240           13400.00
00241           13600.00
00242           13800.00
00243           13800.00
00244           13800.00
00245           13800.00
00246           14000.00
00247           14000.00
00248           14000.00
00249           13800.00
00250           14000.00
00251           14000.00
00252           14200.00
00253           14000.00
00254           14000.00
00255           14000.00
00256           14000.00
00257           14000.00
00258           14200.00
00259           14000.00
00260           14000.00
00261           14000.00
00262           14000.00
00263           13800.00
00264           14000.00
00265           13800.00
00266           14000.00
00267           13800.00
00268           13800.00
00269           13400.00
00270           13400.00
00271           13400.00
00272           13400.00
00273           13400.00
00274           13200.00
00275           13000.00
00276           13000.00
00277           13000.00
00278           13000.00
00279           12400.00
00280           12400.00
00281           12200.00
00282           12200.00
00283           12200.00
00284           11800.00
00285           11800.00
00286           11600.00
00287           11400.00
00288           11400.00
00289           11000.00
00290           10800.00
00291           10800.00
00292           10600.00
00293           10600.00
00294           10400.00
00295           10000.00
00296           10000.00
00297            9800.00
00298            9800.00
00299            9400.00
00300            9200.00
00301            9000.00
00302            8800.00
00303            8600.00
00304            8400.00
00305            8200.00
00306            7800.00
00307            7800.00
00308            7600.00
00309            7400.00
00310            7000.00
00311            6800.00
00312            6800.00
00313            6600.00
00314            6000.00
00315            6000.00
00316            5800.00
00317            5400.00
00318            5200.00
00319            5000.00
00320            4600.00
00321            4400.00
00322            4200.00
00323            3800.00
00324            3600.00
00325            3400.00
00326            3200.00
00327            3000.00
00328            2600.00
00329            2400.00
00330            2000.00
00331            2000.00
00332            1800.00
00333            1200.00
00334            1000.00
00335             800.00
00336             400.00
00337             400.00
00338             200.00
00339            -200.00
00340            -400.00
00341            -600.00
00342           -1000.00
00343           -1200.00
00344           -1600.00
00345           -1800.00
00346           -2000.00
00347           -2200.00
00348           -2600.00
00349           -3000.00
00350           -3400.00
00351           -3400.00
00352           -3200.00
00353           -3800.00
00354           -4200.00
00355           -4200.00
00356           -4600.00
00357           -4800.00
00358           -5000.00
00359           -5400.00
00360           -6000.00
00361           -5800.00
00362           -6000.00
00363           -6200.00
00364           -6600.00
00365           -6800.00
00366           -7000.00
00367           -7000.00
00368           -7400.00
00369           -7600.00
00370           -7800.00
00371           -8200.00
00372           -8400.00
00373           -8600.00
00374           -8800.00
00375           -8800.00
00376           -9200.00
00377           -9400.00
00378           -9400.00
00379           -9800.00
00380          -10000.00
00381          -10000.00
00382          -10200.00
00383          -10200.00
00384          -10800.00
00385          -10800.00
00386          -11000.00
00387          -11000.00
00388          -11400.00
00389          -11400.00
00390          -11600.00
00391          -11600.00
00392          -11800.00
00393          -12000.00
00394          -12400.00
00395          -12400.00
00396          -12400.00
00397          -12600.00
00398          -12600.00
00399          -12600.00
00400          -13000.00
00401          -13000.00
00402          -13000.00
00403          -13200.00
00404          -13200.00
00405          -13400.00
00406          -13400.00
00407          -13400.00
00408          -13800.00
00409          -13800.00
00410          -13800.00
00411          -13800.00
00412          -14000.00
00413          -14000.00
00414          -13800.00
00415          -14000.00
00416          -14000.00
00417          -14000.00
00418          -14000.00
00419          -14000.00
00420          -14000.00
00421          -14000.00
00422          -14200.00
00423          -14000.00
00424          -14000.00
00425          -14000.00
00426          -14000.00
00427          -14000.00
00428          -14000.00
00429          -14000.00
00430          -14000.00
00431          -14000.00
00432          -13800.00
00433          -13800.00
00434          -13800.00
00435          -13800.00
00436          -13400.00
00437          -13400.00
00438          -13400.00
00439          -13200.00
00440          -13200.00
00441          -13000.00
00442          -13000.00
00443          -13000.00
00444          -13000.00
00445          -12600.00
00446          -12400.00
00447          -12200.00
00448          -12200.00
00449          -12000.00
00450          -12000.00
00451          -11600.00
00452          -11600.00
00453          -11600.00
00454          -11200.00
00455          -11000.00
00456          -11000.00
00457          -10800.00
00458          -10600.00
00459          -10600.00
00460          -10200.00
00461          -10000.00
00462          -10000.00
00463           -9800.00
00464           -9400.00
00465           -9200.00
00466           -9200.00
00467           -9000.00
00468           -8800.00
00469           -8600.00
00470           -8400.00
00471           -8400.00
00472           -8200.00
00473           -7800.00
00474           -7600.00
00475           -7400.00
00476           -7000.00
00477           -6800.00
00478           -6800.00
00479           -6200.00
00480           -6200.00
00481           -6000.00
00482           -5600.00
00483           -5400.00
00484           -5200.00
00485           -5000.00
00486           -4600.00
00487           -4400.00
00488           -4200.00
00489           -3800.00
00490           -3600.00
00491           -3400.00
00492           -3000.00
00493           -2800.00
00494           -2800.00
00495           -2600.00
00496           -2200.00
00497           -2000.00
00498           -1600.00
00499           -1400.00
00500           -1000.00
00501            -800.00
00502            -400.00
00503            -200.00
00504               0.00
00505             200.00
00506             400.00
00507             600.00
00508            1000.00
00509            1200.00
00510            1600.00
00511            1800.00
00512            2000.00
00513            2000.00
00514            2600.00
00515            3000.00
00516            3400.00
00517            3400.00
00518            3600.00
00519            3600.00
00520            4200.00
00521            4200.00
00522            4600.00
00523            5000.00
00524            5000.00
00525            5400.00
00526            5600.00
00527            5800.00
00528            6000.00
00529            6200.00
00530            6600.00
00531            6800.00
00532            6800.00
00533            7000.00
00534            7600.00
00535            7600.00
00536            8000.00
00537            8200.00
00538            8200.00
00539            8400.00
00540            8600.00
00541            9000.00
00542            9200.00
00543            9200.00
00544            9400.00
00545            9800.00
00546            9800.00
00547           10000.00
00548           10400.00
00549           10600.00
00550           10600.00
00551           10800.00
00552           11000.00
00553           11000.00
00554           11400.00
00555           11400.00
00556           11600.00
00557           11800.00
00558           11800.00
00559           12200.00
00560           12200.00
00561           12200.00
00562           12400.00
00563           12600.00
00564           12800.00
00565           13000.00
00566           13000.00
00567           13000.00
00568           13200.00
00569           13200.00
00570           13200.00
00571           13400.00
00572           13600.00
00573           13400.00
00574           13800.00
00575           13800.00
00576           13800.00
00577           13800.00
00578           14000.00
00579           14000.00
00580           14000.00
00581           14000.00
00582           14000.00
00583           14000.00
00584           14000.00
00585           14000.00
00586           14200.00
00587           14000.00
00588           14000.00
00589           14200.00
00590           14000.00
00591           14000.00
00592           14000.00
00593           14000.00
00594           14000.00
00595           13800.00
00596           14000.00
00597           13800.00
00598           13800.00
00599           13800.00
00600           13400.00
00601           13800.00
00602           13400.00
00603           13400.00
00604           13200.00
00605           13200.00
00606           13200.00
00607           13000.00
00608           13000.00
00609           13000.00
00610           12600.00
00611           12600.00
00612           12400.00
00613           12200.00
00614           12200.00
00615           12200.00
00616           11800.00
00617           11800.00
00618           11600.00
00619           11600.00
00620           11400.00
00621           11400.00
00622           11000.00
00623           10800.00
00624           10600.00
00625           10600.00
00626           10200.00
00627           10200.00
00628           10000.00
00629            9800.00
00630            9800.00
00631            9400.00
00632            9200.00
00633            9200.00
00634            9000.00
00635            8600.00
00636            8400.00
00637            8200.00
00638            7800.00
00639            7800.00
00640            7600.00
00641            7400.00
00642            7000.00
00643            7000.00
00644            6800.00
00645            6600.00
00646            6200.00
00647            6000.00
00648            5800.00
00649            5600.00
00650            5200.00
00651            5000.00
00652            5000.00
00653            4600.00
00654            4200.00
00655            3800.00
00656            3600.00
00657            3600.00
00658            3200.00
00659            3000.00
00660            2800.00
00661            2600.00
00662            2200.00
00663            1800.00
00664            1800.00
00665            1400.00
00666            1000.00
00667            1000.00
00668             400.00
00669             400.00
00670               0.00
00671            -400.00
00672            -400.00
00673            -600.00
00674           -1000.00
00675           -1200.00
00676           -1400.00
00677           -1800.00
00678           -2000.00
00679           -2200.00
00680           -2600.00
00681           -3000.00
00682           -3400.00
00683           -3400.00
00684           -3200.00
00685           -3800.00
00686           -4200.00
00687           -4200.00
00688           -4400.00
00689           -5000.00
00690           -5000.00
00691           -5200.00
00692           -5800.00
00693           -5800.00
00694           -6000.00
00695           -6200.00
00696           -6600.00
00697           -6800.00
00698           -7000.00
00699           -7000.00
00700           -7400.00
00701           -7600.00
00702           -7800.00
00703           -8200.00
00704           -8400.00
00705           -8400.00
00706           -8600.00
00707           -8800.00
00708           -9200.00
00709           -9200.00
00710           -9400.00
00711           -9800.00
00712           -9800.00
00713          -10200.00
00714          -10200.00
00715          -10200.00
00716          -10600.00
00717          -10800.00
00718          -11000.00
00719          -11000.00
00720          -11400.00
00721          -11400.00
00722          -11600.00
00723          -11800.00
00724          -12000.00
00725          -12200.00
00726          -12200.00
00727          -12400.00
00728          -12400.00
00729          -12600.00
00730          -12600.00
00731          -12600.00
00732          -13000.00
00733          -13000.00
00734          -13200.00
00735          -13200.00
00736          -13400.00
00737          -13400.00
00738          -13400.00
00739          -13800.00
00740          -13800.00
00741          -13800.00
00742          -13800.00
00743          -14000.00
00744          -14000.00
00745          -14000.00
00746          -14000.00
00747          -14000.00
00748          -14000.00
00749          -14000.00
00750          -14000.00
00751          -14000.00
00752          -14200.00
00753          -14200.00
00754          -14000.00
00755          -14000.00
00756          -14000.00
00757          -14000.00
00758          -14000.00
00759          -14000.00
00760          -14000.00
00761          -14000.00
00762          -13800.00
00763          -13800.00
00764          -13800.00
00765          -13800.00
00766          -13800.00
00767          -13600.00
00768          -13400.00
00769          -13400.00
00770          -13400.00
00771          -13400.00
00772          -13200.00
00773          -13200.00
00774          -13000.00
00775          -13000.00
00776          -12600.00
00777          -12600.00
00778          -12400.00
00779          -12400.00
00780          -12400.00
00781          -12200.00
00782          -11800.00
00783          -11800.00
00784          -11600.00
00785          -11400.00
00786          -11400.00
00787          -11000.00
00788          -11000.00
00789          -10800.00
00790          -10800.00
00791          -10600.00
00792          -10200.00
00793          -10200.00
00794          -10000.00
00795           -9800.00
00796           -9600.00
00797           -9400.00
00798           -9200.00
00799           -9200.00
00800           -9000.00
00801           -8600.00
00802           -8400.00
00803           -8400.00
00804           -8200.00
00805           -7800.00
00806           -7600.00
00807           -7400.00
00808           -7200.00
00809           -7000.00
00810           -6800.00
00811           -6600.00
00812           -6200.00
00813           -6000.00
00814           -5800.00
00815           -5400.00
00816           -5200.00
00817           -5200.00
00818           -5000.00
00819           -4600.00
00820           -4400.00
00821           -4200.00
00822           -3800.00
00823           -3600.00
00824           -3200.00
00825           -3000.00
00826           -2800.00
00827           -2400.00
00828           -2200.00
00829           -2000.00
00830           -1600.00
00831           -1400.00
00832           -1200.00
00833           -1000.00
00834            -600.00
00835            -400.00
00836            -200.00
00837             200.00
00838             400.00
00839             600.00
00840             800.00
00841            1200.00
00842            1400.00
00843            1800.00
00844            1800.00
00845            2000.00
00846            2600.00
00847            2800.00
00848            3000.00
00849            3400.00
00850            3600.00
00851            3600.00
00852            4200.00
00853            4200.00
00854            4400.00
00855            4600.00
00856            4800.00
00857            5200.00
00858            5600.00
00859            5800.00
00860            6000.00
00861            6000.00
00862            6400.00
00863            6800.00
00864            6800.00
00865            7000.00
00866            7400.00
00867            7600.00
00868            7800.00
00869            8000.00
00870            8200.00
00871            8400.00
00872            8600.00
00873            9000.00
00874            9000.00
00875            9200.00
00876            9400.00
00877            9800.00
00878            9800.00
00879           10000.00
00880           10200.00
00881           10600.00
00882           10600.00
00883           10800.00
00884           10800.00
00885           11000.00
00886           11400.00
00887           11400.00
00888           11600.00
00889           11800.00
00890           11800.00
00891           12000.00
00892           12200.00
00893           12400.00
00894           12400.00
00895           12600.00
00896           12600.00
00897           12800.00
00898           13000.00
00899           13000.00
00900           13200.00
00901           13200.00
00902           13200.00
00903           13400.00
00904           13400.00
00905           13400.00
00906           13400.00
00907           13800.00
00908           13800.00
00909           13800.00
00910           14000.00
00911           14000.00
00912           13800.00
00913           14000.00
00914           14000.00
00915           14000.00
00916           14200.00
00917           14200.00
00918           14000.00
00919           14000.00
00920           14000.00
00921           14000.00
00922           14000.00
00923           14000.00
00924           14000.00
00925           14000.00
00926           14000.00
00927           14000.00
00928           13800.00
00929           13800.00
00930           13800.00
00931           13600.00
00932           13800.00
00933           13400.00
00934           13400.00
00935           13200.00
00936           13200.00
00937           13200.00
00938           13200.00
00939           13000.00
00940           13000.00
00941           13000.00
00942           12600.00
00943           12600.00
00944           12400.00
00945           12400.00
00946           12200.00
00947           12200.00
00948           12200.00
00949           11800.00
00950           11800.00
00951           11600.00
00952           11400.00
00953           11400.00
00954           11000.00
00955           10800.00
00956           10800.00
00957           10600.00
00958           10400.00
00959           10200.00
00960           10000.00
00961            9800.00
00962            9800.00
00963            9400.00
00964            9400.00
00965            9000.00
00966            9000.00
00967            8800.00
00968            8400.00
00969            8400.00
00970            8200.00
00971            7800.00
00972            7600.00
00973            7400.00
00974            7400.00
00975            7000.00
00976            6800.00
00977            6600.00
00978            6200.00
00979            6000.00
00980            5800.00
00981            5800.00
00982            5400.00
00983            5000.00
00984            5000.00
00985            4600.00
00986            4200.00
00987            4000.00
00988            3800.00
00989            3600.00
00990            3400.00
00991            3000.00
00992            2600.00
00993            2600.00
00994            2000.00
00995            2000.00
00996            1800.00
00997            1400.00
00998            1200.00
00999            1000.00
01000             400.00
01001             400.00
01002             200.00
01003            -200.00
01004            -400.00
01005            -800.00
01006           -1000.00
01007           -1200.00
01008           -1400.00
01009           -1600.00
01010           -2000.00
01011           -2000.00
01012           -2200.00
01013           -2800.00
01014           -3400.00
01015           -3400.00
01016           -3000.00
01017           -3600.00
01018           -4200.00
01019           -4200.00
01020           -4400.00
01021           -4800.00
01022           -4600.00
01023           -5200.00
01024           -5600.00
01025           -5800.00
01026           -6000.00
01027           -6200.00
01028           -6400.00
01029           -6600.00
01030           -7000.00
01031           -7000.00
01032           -7400.00
01033           -7600.00
01034           -7800.00
01035           -8200.00
01036           -8200.00
01037           -8400.00
01038           -8600.00
01039           -9000.00
01040           -9000.00
01041           -9200.00
01042           -9400.00
01043           -9600.00
01044           -9800.00
01045          -10000.00
01046          -10200.00
01047          -10200.00
01048          -10600.00
01049          -10800.00
01050          -10800.00
01051          -11200.00
01052          -11000.00
01053          -11400.00
01054          -11600.00
01055          -11600.00
01056          -11800.00
01057          -11800.00
01058          -12200.00
01059          -12400.00
01060          -12400.00
01061          -12400.00
01062          -12600.00
01063          -12600.00
01064          -13000.00
01065          -13000.00
01066          -13200.00
01067          -13400.00
01068          -13200.00
01069          -13400.00
01070          -13400.00
01071          -13400.00
01072          -13800.00
01073          -13800.00
01074          -13800.00
01075          -13800.00
01076          -14000.00
01077          -14000.00
01078          -14000.00
01079          -14000.00
01080          -14000.00
01081          -14000.00
01082          -14000.00
01083          -14000.00
01084          -14000.00
01085          -14000.00
01086          -14000.00
01087          -14000.00
01088          -14000.00
01089          -14000.00
01090          -14000.00
01091          -13800.00
01092          -14000.00
01093          -13800.00
01094          -14000.00
01095          -13800.00
01096          -13800.00
01097          -13800.00
01098          -13400.00
01099          -13400.00
01100          -13400.00
01101          -13400.00
01102          -13400.00
01103          -13200.00
01104          -13200.00
01105          -13000.00
01106          -13000.00
01107          -13000.00
01108          -12600.00
01109          -12600.00
01110          -12400.00
01111          -12400.00
01112          -12400.00
01113          -12400.00
01114          -11800.00
01115          -11800.00
01116          -11600.00
01117          -11600.00
01118          -11400.00
01119          -11400.00
01120          -11000.00
01121          -10800.00
01122          -10800.00
01123          -10600.00
01124          -10400.00
01125          -10200.00
01126          -10000.00
01127           -9800.00
01128           -9800.00
01129           -9400.00
01130           -9400.00
01131           -9200.00
01132           -9200.00
01133           -8600.00
01134           -8400.00
01135           -8400.00
01136           -8200.00
01137           -7800.00
01138           -7600.00
01139           -7600.00
01140           -7200.00
01141           -7000.00
01142           -6800.00
01143           -6600.00
01144           -6200.00
01145           -6200.00
01146           -6000.00
01147           -5400.00
01148           -5400.00
01149           -5000.00
01150           -4800.00
01151           -4400.00
01152           -4200.00
01153           -4200.00
01154           -3800.00
01155           -3400.00
01156           -3400.00
01157           -3000.00
01158           -2800.00
01159           -2600.00
01160           -2200.00
01161           -2000.00
01162           -1800.00
01163           -1400.00
01164           -1200.00
01165           -1000.00
01166            -600.00
01167            -400.00
01168            -200.00
01169             200.00
01170             400.00
01171             600.00
01172            1000.00
01173            1200.00
01174            1200.00
01175            1800.00
01176            1800.00
01177            2000.00
01178            2400.00
01179            2600.00
01180            3000.00
01181            3200.00
01182            3400.00
01183            3600.00
01184            3800.00
01185            4000.00
01186            4400.00
01187            4600.00
01188            5000.00
01189            5200.00
01190            5400.00
01191            5400.00
01192            5800.00
01193            6000.00
01194            6200.00
01195            6600.00
01196            6800.00
01197            6800.00
01198            7400.00
01199            7400.00
01200            7800.00
01201            7800.00
01202            8200.00
01203            8400.00
01204            8600.00
01205            9000.00
01206            9000.00
01207            9200.00
01208            9400.00
01209            9800.00
01210            9800.00
01211           10000.00
01212           10000.00
01213           10600.00
01214           10600.00
01215           10800.00
01216           10800.00
01217           11000.00
01218           11400.00
01219           11400.00
01220           11600.00
01221           11600.00
01222           11800.00
01223           11800.00
01224           12200.00
01225           12200.00
01226           12400.00
01227           12400.00
01228           12600.00
01229           12600.00
01230           13000.00
01231           13000.00
01232           13200.00
01233           13200.00
01234           13200.00
01235           13400.00
01236           13400.00
01237           13400.00
01238           13600.00
01239           13800.00
01240           13800.00
01241           14000.00
01242           13800.00
01243           14000.00
01244           14000.00
01245           14000.00
01246           14000.00
01247           14200.00
01248           14200.00
01249           14000.00
01250           14000.00
01251           14000.00
01252           14000.00
01253           14000.00
01254           14000.00
01255           14000.00
01256           13800.00
01257           13800.00
01258           13800.00
01259           13800.00
01260           13800.00
01261           13800.00
01262           13800.00
01263           13800.00
01264           13400.00
01265           13800.00
01266           13400.00
01267           13200.00
01268           13400.00
01269           13200.00
01270           13200.00
01271           13200.00
01272           13000.00
01273           13000.00
01274           13000.00
01275           12600.00
01276           12400.00
01277           12400.00
01278           12400.00
01279           12200.00
01280           12200.00
01281           11800.00
01282           11800.00
01283           11600.00
01284           11600.00
01285           11400.00
01286           11200.00
01287           11000.00
01288           10800.00
01289           10600.00
01290           10400.00
01291           10200.00
01292           10200.00
01293           10000.00
01294            9800.00
01295            9800.00
01296            9400.00
01297            9200.00
01298            9000.00
01299            8800.00
01300            8400.00
01301            8400.00
01302            8200.00
01303            7800.00
01304            7600.00
01305            7400.00
01306            7200.00
01307            7000.00
01308            6800.00
01309            6600.00
01310            6200.00
01311            6000.00
01312            5800.00
01313            5800.00
01314            5400.00
01315            5200.00
01316            5000.00
01317            4600.00
01318            4200.00
01319            4200.00
01320            3800.00
01321            3600.00
01322            3400.00
01323            3000.00
01324            2600.00
01325            2600.00
01326            2200.00
01327            2000.00
01328            1800.00
01329            1400.00
01330            1200.00
01331            1000.00
01332             600.00
01333             400.00
01334             200.00
01335            -200.00
01336            -400.00
01337            -600.00
01338           -1000.00
01339           -1200.00
01340           -1200.00
01341           -1600.00
01342           -1800.00
01343           -2000.00
01344           -2200.00
01345           -2800.00
01346           -3000.00
01347           -3600.00
01348           -3000.00
01349           -3400.00
01350           -3800.00
01351           -4200.00
01352           -4200.00
01353           -4600.00
01354           -5000.00
01355           -5000.00
01356           -5400.00
01357           -5600.00
01358           -5800.00
01359           -6000.00
01360           -6200.00
01361           -6600.00
01362           -7000.00
01363           -7000.00
01364           -7400.00
01365           -7600.00
01366           -7800.00
01367           -7800.00
01368           -8200.00
01369           -8400.00
01370           -8600.00
01371           -9000.00
01372           -9000.00
01373           -9200.00
01374           -9400.00
01375           -9600.00
01376           -9800.00
01377          -10200.00
01378          -10200.00
01379          -10600.00
01380          -10600.00
01381          -10800.00
01382          -10800.00
01383          -11000.00
01384          -11400.00
01385          -11400.00
01386          -11600.00
01387          -11600.00
01388          -11800.00
01389          -12000.00
01390          -12200.00
01391          -12400.00
01392          -12400.00
01393          -12600.00
01394          -12600.00
01395          -12600.00
01396          -13000.00
01397          -13000.00
01398          -13200.00
01399          -13200.00
01400          -13200.00
01401          -13400.00
01402          -13400.00
01403          -13800.00
01404          -13400.00
01405          -13800.00
01406          -13800.00
01407          -13800.00
01408          -14000.00
01409          -14000.00
01410          -14000.00
01411          -14000.00
01412          -14000.00
01413          -14000.00
01414          -14000.00
01415          -14000.00
01416          -14000.00
01417          -14000.00
01418          -14000.00
01419          -14000.00
01420          -14000.00
01421          -14000.00
01422          -14000.00
01423          -14000.00
01424          -14000.00
01425          -14000.00
01426          -14000.00
01427          -14000.00
01428          -13800.00
01429          -13400.00
01430          -13800.00
01431          -13400.00
01432          -13400.00
01433          -13400.00
01434          -13400.00
01435          -13400.00
01436          -13200.00
01437          -13200.00
01438          -13000.00
01439          -13000.00
01440          -12600.00
01441          -12600.00
01442          -12400.00
01443          -12400.00
01444          -12200.00
01445          -12400.00
01446          -12200.00
01447          -11800.00
01448          -11800.00
01449          -11600.00
01450          -11600.00
01451          -11400.00
01452          -11200.00
01453          -11000.00
01454          -11000.00
01455          -10800.00
01456          -10600.00
01457          -10200.00
01458          -10200.00
01459          -10000.00
01460           -9800.00
01461           -9400.00
01462           -9400.00
01463           -9000.00
01464           -9000.00
01465           -8800.00
01466           -8600.00
01467           -8400.00
01468           -8400.00
01469           -8200.00
01470           -7600.00
01471           -7600.00
01472           -7000.00
01473           -7000.00
01474           -7000.00
01475           -6600.00
01476           -6200.00
01477           -6000.00
01478           -6000.00
01479           -5600.00
01480           -5200.00
01481           -5000.00
01482           -5000.00
01483           -4600.00
01484           -4400.00
01485           -4200.00
01486           -3800.00
01487           -3600.00
01488           -3400.00
01489           -3000.00
01490           -2800.00
01491           -2800.00
01492           -2200.00
01493           -2200.00
01494           -1800.00
01495           -1400.00
01496           -1200.00
01497           -1000.00
01498            -600.00
01499            -400.00
01500            -200.00
01501             200.00
01502             400.00
01503             400.00
01504             600.00
01505            1000.00
01506            1200.00
01507            1400.00
01508            1800.00
01509            1800.00
01510            2200.00
01511            2600.00
01512            2800.00
01513            3400.00
01514            3400.00
01515            3600.00
01516            3800.00
01517            4200.00
01518            4200.00
01519            4600.00
01520            4600.00
01521            5200.00
01522            5200.00
01523            5800.00
01524            5800.00
01525            5800.00
01526            6400.00
01527            6600.00
01528            6800.00
01529            6800.00
01530            7400.00
01531            7400.00
01532            7600.00
01533            7800.00
01534            8200.00
01535            8400.00
01536            8600.00
01537            8800.00
01538            9000.00
01539            9200.00
01540            9400.00
01541            9800.00
01542            9800.00
01543           10000.00
01544           10200.00
01545           10400.00
01546           10600.00
01547           10800.00
01548           10800.00
01549           11000.00
01550           11400.00
01551           11400.00
01552           11600.00
01553           11600.00
01554           12000.00
01555           12200.00
01556           12200.00
01557           12200.00
01558           12400.00
01559           12600.00
01560           12600.00
01561           12600.00
01562           13000.00
01563           13000.00
01564           13000.00
01565           13200.00
01566           13200.00
01567           13200.00
01568           13400.00
01569           13600.00
01570           13800.00
01571           13800.00
01572           13800.00
01573           13800.00
01574           14000.00
01575           13800.00
01576           14000.00
01577           14000.00
01578           14000.00
01579           14000.00
01580           14000.00
01581           14000.00
01582           14000.00
01583           14000.00
01584           14000.00
01585           14000.00
01586           14000.00
01587           14000.00
01588           14000.00
01589           14000.00
01590           13800.00
01591           13800.00
01592           13800.00
01593           13800.00
01594           13800.00
01595           13800.00
01596           13800.00
01597           13400.00
01598           13400.00
01599           13400.00
01600           13200.00
01601           13200.00
01602           13200.00
01603           13200.00
01604           13200.00
01605           13000.00
01606           12800.00
01607           12600.00
01608           12400.00
01609           12400.00
01610           12400.00
01611           12200.00
01612           12200.00
01613           12000.00
01614           11800.00
01615           11800.00
01616           11600.00
01617           11400.00
01618           11200.00
01619           11000.00
01620           10800.00
01621           10800.00
01622           10600.00
01623           10200.00
01624           10200.00
01625           10000.00
01626            9800.00
01627            9800.00
01628            9400.00
01629            9200.00
01630            9000.00
01631            8600.00
01632            8600.00
01633            8400.00
01634            8400.00
01635            8200.00
01636            7800.00
01637            7600.00
01638            7400.00
01639            7000.00
01640            6800.00
01641            6600.00
01642            6400.00
01643            6200.00
01644            5800.00
01645            5600.00
01646            5200.00
01647            5200.00
01648            5000.00
01649            4600.00
01650            4400.00
01651            4200.00
01652            3800.00
01653            3600.00
01654            3400.00
01655            3000.00
01656            2800.00
01657            2600.00
01658            2200.00
01659            2000.00
01660            1800.00
01661            1800.00
01662            1200.00
01663            1000.00
01664            1000.00
01665             400.00
01666             200.00
01667             200.00
01668            -200.00
01669            -600.00
01670            -600.00
01671           -1000.00
01672           -1200.00
01673           -1400.00
01674           -1800.00
01675           -2000.00
01676           -2200.00
01677           -2600.00
01678           -3000.00
01679           -3400.00
01680           -3200.00
01681           -3200.00
01682           -3800.00
01683           -4200.00
01684           -4200.00
01685           -4400.00
01686           -4800.00
01687           -5000.00
01688           -5200.00
01689           -5600.00
01690           -5800.00
01691           -6000.00
01692           -6200.00
01693           -6400.00
01694           -6800.00
01695           -7000.00
01696           -7000.00
01697           -7400.00
01698           -7600.00
01699           -7800.00
01700           -8200.00
01701           -8200.00
01702           -8600.00
01703           -8600.00
01704           -9000.00
01705           -9200.00
01706           -9200.00
01707           -9400.00
01708           -9800.00
01709          -10000.00
01710          -10200.00
01711          -10200.00
01712          -10600.00
01713          -10800.00
01714          -10800.00
01715          -11000.00
01716          -11200.00
01717          -11400.00
01718          -11600.00
01719          -11800.00
01720          -11800.00
01721          -12000.00
01722          -12200.00
01723          -12400.00
01724          -12400.00
01725          -12600.00
01726          -12600.00
01727          -12600.00
01728          -13000.00
01729          -13000.00
01730          -13200.00
01731          -13200.00
01732          -13200.00
01733          -13400.00
01734          -13400.00
01735          -13800.00
01736          -13400.00
01737          -13800.00
01738          -13800.00
01739          -14000.00
01740          -13800.00
01741          -13800.00
01742          -13800.00
01743          -13800.00
01744          -14000.00
01745          -14000.00
01746          -14000.00
01747          -14000.00
01748          -14000.00
01749          -14000.00
01750          -14000.00
01751          -14000.00
01752          -14000.00
01753          -14000.00
01754          -14000.00
01755          -14000.00
01756          -14000.00
01757          -14000.00
01758          -13800.00
01759          -13800.00
01760          -13800.00
01761          -13800.00
01762          -13400.00
01763          -13800.00
01764          -13400.00
01765          -13400.00
01766          -13400.00
01767          -13200.00
01768          -13200.00
01769          -13200.00
01770          -13000.00
01771          -13000.00
01772          -12800.00
01773          -12600.00
01774          -12600.00
01775          -12600.00
01776          -12400.00
01777          -12200.00
01778          -12200.00
01779          -12000.00
01780          -11800.00
01781          -11600.00
01782          -11600.00
01783          -11400.00
01784          -11200.00
01785          -11000.00
01786          -11000.00
01787          -10800.00
01788          -10600.00
01789          -10200.00
01790          -10200.00
01791          -10200.00
01792          -10000.00
01793           -9600.00
01794           -9400.00
01795           -9200.00
01796           -9200.00
01797           -8800.00
01798           -8600.00
01799           -8400.00
01800           -8200.00
01801           -8200.00
01802           -7600.00
01803           -7600.00
01804           -7400.00
01805           -7000.00
01806           -6800.00
01807           -6600.00
01808           -6200.00
01809           -6000.00
01810           -6000.00
01811           -5400.00
01812           -5400.00
01813           -5000.00
01814           -4800.00
01815           -4400.00
01816           -4400.00
01817           -4000.00
01818           -3800.00
01819           -3800.00
01820           -3400.00
01821           -3000.00
01822           -2800.00
01823           -2600.00
01824           -2200.00
01825           -2200.00
01826           -2000.00
01827           -1400.00
01828           -1200.00
01829           -1000.00
01830            -800.00
01831            -600.00
01832            -200.00
01833             200.00
01834             200.00
01835             400.00
01836             600.00
01837            1000.00
01838            1400.00
01839            1400.00
01840            1800.00
01841            2000.00
01842            2200.00
01843            2600.00
01844            2800.00
01845            3200.00
01846            3400.00
01847            3400.00
01848            3800.00
01849            4200.00
01850            4200.00
01851            4400.00
01852            4800.00
01853            5000.00
01854            5200.00
01855            5400.00
01856            5800.00
01857            5800.00
01858            6200.00
01859            6600.00
01860            6800.00
01861            6800.00
01862            7200.00
01863            7400.00
01864            7600.00
01865            7800.00
01866            8200.00
01867            8200.00
01868            8400.00
01869            8800.00
01870            9000.00
01871            9200.00
01872            9400.00
01873            9800.00
01874            9800.00
01875           10000.00
01876           10000.00
01877           10600.00
01878           10600.00
01879           10600.00
01880           10800.00
01881           11000.00
01882           11200.00
01883           11400.00
01884           11600.00
01885           11600.00
01886           12000.00
01887           12000.00
01888           12200.00
01889           12400.00
01890           12400.00
01891           12400.00
01892           12600.00
01893           13000.00
01894           12800.00
01895           13000.00
01896           13200.00
01897           13200.00
01898           13200.00
01899           13200.00
01900           13400.00
01901           13400.00
01902           13800.00
01903           13600.00
01904           13800.00
01905           13800.00
01906           13800.00
01907           13800.00
01908           14000.00
01909           14000.00
01910           14000.00
01911           14000.00
01912           14000.00
01913           14000.00
01914           14000.00
01915           14000.00
01916           14000.00
01917           14000.00
01918           14000.00
01919           14000.00
01920           14000.00
01921           14000.00
01922           14000.00
01923           14000.00
01924           13800.00
01925           14000.00
01926           13800.00
01927           13800.00
01928           13800.00
01929           13600.00
01930           13400.00
01931           13400.00
01932           13200.00
01933           13400.00
01934           13200.00
01935           13200.00
01936           13000.00
01937           13000.00
01938           13000.00
01939           12800.00
01940           12600.00
01941           12400.00
01942           12200.00
01943           12400.00
01944           12200.00
01945           12200.00
01946           11800.00
01947           11800.00
01948           11600.00
01949           11400.00
01950           11400.00
01951           11000.00
01952           11000.00
01953           10800.00
01954           10800.00
01955           10600.00
01956           10200.00
01957           10000.00
01958           10000.00
01959            9600.00
01960            9600.00
01961            9200.00
01962            9200.00
01963            9000.00
01964            8600.00
01965            8400.00
01966            8200.00
01967            8200.00
01968            7800.00
01969            7600.00
01970            7400.00
01971            7200.00
01972            6800.00
01973            6600.00
01974            6600.00
01975            6200.00
01976            6000.00
01977            5400.00
01978            5400.00
01979            5200.00
01980            5000.00
01981            4600.00
01982            4400.00
01983            4200.00
01984            3800.00
01985            3600.00
01986            3400.00
01987            3000.00
01988            2800.00
01989            2800.00
01990            2600.00
01991            2200.00
01992            2000.00
01993            1800.00
01994            1400.00
01995            1200.00
01996            1000.00
01997             600.00
01998             400.00
01999             200.00
02000            -200.00
02001            -400.00
02002            -600.00
02003           -1000.00
02004           -1200.00
02005           -1400.00
02006           -1800.00
02007           -1800.00
02008           -2200.00
02009           -2600.00
02010           -3000.00
02011           -3200.00
02012           -3200.00
02013           -3200.00
02014           -3600.00
02015           -4200.00
02016           -4200.00
02017           -4400.00
02018           -4800.00
02019           -4800.00
02020           -5200.00
02021           -5400.00
02022           -5800.00
02023           -6000.00
02024           -6200.00
02025           -6200.00
02026           -6800.00
02027           -7000.00
02028           -7000.00
02029           -7400.00
02030           -7600.00
02031           -7800.00
02032           -8200.00
02033           -8200.00
02034           -8600.00
02035           -8600.00
02036           -9000.00
02037           -9200.00
02038           -9200.00
02039           -9600.00
02040           -9800.00
02041          -10000.00
02042          -10200.00
02043          -10200.00
02044          -10600.00
02045          -10800.00
02046          -10800.00
02047          -11000.00
02048          -11000.00
02049          -11400.00
02050          -11600.00
02051          -11800.00
02052          -11800.00
02053          -11800.00
02054          -12200.00
02055          -12400.00
02056          -12400.00
02057          -12400.00
02058          -12600.00
02059          -12600.00
02060          -12800.00
02061          -12800.00
02062          -13000.00
02063          -13200.00
02064          -13200.00
02065          -13400.00
02066          -13400.00
02067          -13400.00
02068          -13800.00
02069          -13400.00
02070          -13800.00
02071          -13800.00
02072          -14000.00
02073          -14000.00
02074          -14000.00
02075          -14000.00
02076          -13800.00
02077          -14000.00
02078          -14000.00
02079          -14000.00
02080          -14000.00
02081          -14000.00
02082          -14000.00
02083          -14000.00
02084          -14000.00
02085          -14000.00
02086          -14000.00
02087          -14000.00
02088          -14000.00
02089          -14000.00
02090          -14000.00
02091          -13800.00
02092          -13800.00
02093          -13800.00
02094          -13600.00
02095          -13400.00
02096          -13400.00
02097          -13400.00
02098          -13400.00
02099          -13400.00
02100          -13400.00
02101          -13200.00
02102          -13000.00
02103          -13000.00
02104          -13000.00
02105          -13000.00
02106          -12600.00
02107          -12600.00
02108          -12400.00
02109          -12400.00
02110          -12400.00
02111          -12200.00
02112          -12000.00
02113          -11800.00
02114          -11600.00
02115          -11400.00
02116          -11400.00
02117          -11000.00
02118          -11000.00
02119          -10800.00
02120          -10800.00
02121          -10600.00
02122          -10200.00
02123          -10000.00
02124          -10000.00
02125           -9800.00
02126           -9400.00
02127           -9200.00
02128           -9200.00
02129           -9000.00
02130           -8600.00
02131           -8600.00
02132           -8400.00
02133           -7800.00
02134           -7800.00
02135           -7600.00
02136           -7400.00
02137           -7000.00
02138           -7000.00
02139           -6800.00
02140           -6600.00
02141           -6000.00
02142           -6000.00
02143           -5800.00
02144           -5400.00
02145           -5200.00
02146           -4800.00
02147           -4600.00
02148           -4400.00
02149           -4200.00
02150           -3800.00
02151           -3800.00
02152           -3400.00
02153           -3000.00
02154           -2800.00
02155           -2600.00
02156           -2400.00
02157           -2200.00
02158           -2000.00
02159           -1600.00
02160           -1400.00
02161           -1000.00
02162            -800.00
02163            -600.00
02164            -400.00
02165            -200.00
02166             200.00
02167             400.00
02168             600.00
02169             800.00
02170            1200.00
02171            1400.00
02172            1800.00
02173            1800.00
02174            2000.00
02175            2600.00
02176            2800.00
02177            3000.00
02178            3400.00
02179            3400.00
02180            3600.00
02181            4200.00
02182            4200.00
02183            4400.00
02184            4600.00
02185            5000.00
02186            5200.00
02187            5400.00
02188            5800.00
02189            5800.00
02190            6200.00
02191            6600.00
02192            6800.00
02193            6800.00
02194            7000.00
02195            7400.00
02196            7600.00
02197            7800.00
02198            8200.00
02199            8200.00
02200            8400.00
02201            8800.00
02202            9000.00
02203            9000.00
02204            9200.00
02205            9600.00
02206            9800.00
02207           10000.00
02208           10000.00
02209           10200.00
02210           10600.00
02211           10600.00
02212           10800.00
02213           11000.00
02214           11000.00
02215           11400.00
02216           11600.00
02217           11600.00
02218           11800.00
02219           12200.00
02220           12200.00
02221           12200.00
02222           12400.00
02223           12400.00
02224           12600.00
02225           12600.00
02226           13000.00
02227           13000.00
02228           13000.00
02229           13200.00
02230           13200.00
02231           13200.00
02232           13200.00
02233           13400.00
02234           13400.00
02235           13800.00
02236           13800.00
02237           13800.00
02238           13800.00
02239           13800.00
02240           14000.00
02241           14000.00
02242           14000.00
02243           14000.00
02244           14000.00
02245           14000.00
02246           14000.00
02247           14000.00
02248           14000.00
02249           14000.00
02250           14000.00
02251           14000.00
02252           14000.00
02253           14000.00
02254           14000.00
02255           14000.00
02256           14000.00
02257           13800.00
02258           13800.00
02259           13800.00
02260           13800.00
02261           13800.00
02262           13600.00
02263           13400.00
02264           13600.00
02265           13200.00
02266           13200.00
02267           13200.00
02268           13200.00
02269           13200.00
02270           13000.00
02271           12800.00
02272           12600.00
02273           12600.00
02274           12600.00
02275           12400.00
02276           12200.00
02277           12200.00
02278           12200.00
02279           11800.00
02280           11600.00
02281           11400.00
02282           11400.00
02283           11000.00
02284           11000.00
02285           10800.00
02286           10600.00
02287           10600.00
02288           10200.00
02289           10000.00
02290           10000.00
02291            9800.00
02292            9400.00
02293            9400.00
02294            9000.00
02295            9000.00
02296            8600.00
02297            8400.00
02298            8200.00
02299            8000.00
02300            7800.00
02301            7600.00
02302            7400.00
02303            7000.00
02304            7000.00
02305            6800.00
02306            6600.00
02307            6200.00
02308            6000.00
02309            5800.00
02310            5400.00
02311            5200.00
02312            5000.00
02313            4600.00
02314            4600.00
02315            4200.00
02316            3800.00
02317            3800.00
02318            3400.00
02319            3200.00
02320            3000.00
02321            2800.00
02322            2600.00
02323            2000.00
02324            2000.00
02325            1800.00
02326            1400.00
02327            1200.00
02328            1000.00
02329             600.00
02330             400.00
02331             200.00
02332            -200.00
02333            -400.00
02334            -600.00
02335            -800.00
02336           -1000.00
02337           -1400.00
02338           -1400.00
02339           -1800.00
02340           -2200.00
02341           -2200.00
02342           -2800.00
02343           -3000.00
02344           -3400.00
02345           -3000.00
02346           -3600.00
02347           -4000.00
02348           -4200.00
02349           -4400.00
02350           -4600.00
02351           -4600.00
02352           -5200.00
02353           -5400.00
02354           -5800.00
02355           -6000.00
02356           -6200.00
02357           -6600.00
02358           -6600.00
02359           -7000.00
02360           -7000.00
02361           -7400.00
02362           -7600.00
02363           -7800.00
02364           -8200.00
02365           -8400.00
02366           -8600.00
02367           -8600.00
02368           -9000.00
02369           -9200.00
02370           -9200.00
02371           -9400.00
02372           -9800.00
02373          -10000.00
02374          -10200.00
02375          -10200.00
02376          -10600.00
02377          -10800.00
02378          -10800.00
02379          -11000.00
02380          -11400.00
02381          -11400.00
02382          -11600.00
02383          -11600.00
02384          -11800.00
02385          -12200.00
02386          -12200.00
02387          -12200.00
02388          -12400.00
02389          -12400.00
02390          -12600.00
02391          -12600.00
02392          -12600.00
02393          -12600.00
02394          -13000.00
02395          -13200.00
02396          -13200.00
02397          -13400.00
02398          -13400.00
02399          -13400.00
02400          -13400.00
02401          -13400.00
02402          -13600.00
02403          -13600.00
02404          -13800.00
02405          -14000.00
02406          -14000.00
02407          -13800.00
02408          -14000.00
02409          -14000.00
02410          -14000.00
02411          -14000.00
02412          -14000.00
02413          -14000.00
02414          -14000.00
02415          -14000.00
02416          -14000.00
02417          -14000.00
02418          -14000.00
02419          -14000.00
02420          -14000.00
02421          -14000.00
02422          -14000.00
02423          -13800.00
02424          -13800.00
02425          -13800.00
02426          -13800.00
02427          -13800.00
02428          -13400.00
02429          -13600.00
02430          -13400.00
02431          -13400.00
02432          -13400.00
02433          -13200.00
02434          -13200.00
02435          -13000.00
02436          -13000.00
02437          -13000.00
02438          -12800.00
02439          -12600.00
02440          -12600.00
02441          -12200.00
02442          -12400.00
02443          -12200.00
02444          -11800.00
02445          -11800.00
02446          -11600.00
02447          -11600.00
02448          -11400.00
02449          -11200.00
02450          -11000.00
02451          -10800.00
02452          -10800.00
02453          -10200.00
02454          -10200.00
02455          -10200.00
02456           -9800.00
02457           -9600.00
02458           -9400.00
02459           -9400.00
02460           -9200.00
02461           -9000.00
02462           -8600.00
02463           -8400.00
02464           -8200.00
02465           -8200.00
02466           -7800.00
02467           -7600.00
02468           -7400.00
02469           -7000.00
02470           -7000.00
02471           -6800.00
02472           -6600.00
02473           -6200.00
02474           -6000.00
02475           -5800.00
02476           -5400.00
02477           -5200.00
02478           -5000.00
02479           -4600.00
02480           -4400.00
02481           -4400.00
02482           -3800.00
02483           -3800.00
02484           -3600.00
02485           -3200.00
02486           -3000.00
02487           -2800.00
02488           -2600.00
02489           -2200.00
02490           -2000.00
02491           -1800.00
02492           -1400.00
02493           -1200.00
02494           -1000.00
02495            -600.00
02496            -600.00
02497            -200.00
02498             200.00
02499             400.00
02500             600.00
02501            1000.00
02502            1000.00
02503            1200.00
02504            1600.00
02505            1800.00
02506            2000.00
02507            2200.00
02508            2600.00
02509            3000.00
02510            3400.00
02511            3400.00
02512            3400.00
02513            3800.00
02514            4200.00
02515            4400.00
02516            4600.00
02517            4600.00
02518            5000.00
02519            5400.00
02520            5600.00
02521            5800.00
02522            6200.00
02523            6400.00
02524            6800.00
02525            6800.00
02526            7000.00
02527            7400.00
02528            7600.00
02529            7600.00
02530            8200.00
02531            8200.00
02532            8400.00
02533            8600.00
02534            9000.00
02535            9000.00
02536            9200.00
02537            9400.00
02538            9800.00
02539           10000.00
02540           10000.00
02541           10200.00
02542           10600.00
02543           10600.00
02544           10800.00
02545           11000.00
02546           11400.00
02547           11400.00
02548           11600.00
02549           11600.00
02550           11800.00
02551           12200.00
02552           12200.00
02553           12200.00
02554           12200.00
02555           12400.00
02556           12600.00
02557           12600.00
02558           13000.00
02559           13000.00
02560           13000.00
02561           13200.00
02562           13200.00
02563           13200.00
02564           13200.00
02565           13400.00
02566           13400.00
02567           13600.00
02568           13800.00
02569           13800.00
02570           13800.00
02571           13800.00
02572           14000.00
02573           14000.00
02574           14000.00
02575           14000.00
02576           14000.00
02577           14000.00
02578           14000.00
02579           14000.00
02580           14000.00
02581           14000.00
02582           14000.00
02583           14000.00
02584           14000.00
02585           14000.00
02586           14000.00
02587           14000.00
02588           14000.00
02589           13800.00
02590           14000.00
02591           13800.00
02592           13800.00
02593           13800.00
02594           13800.00
02595           13600.00
02596           13400.00
02597           13400.00
02598           13400.00
02599           13200.00
02600           13200.00
02601           13000.00
02602           13000.00
02603           13000.00
02604           12600.00
02605           12600.00
02606           12600.00
02607           12400.00
02608           12200.00
02609           12200.00
02610           12000.00
02611           11600.00
02612           11600.00
02613           11600.00
02614           11400.00
02615           11200.00
02616           11000.00
02617           10800.00
02618           10600.00
02619           10600.00
02620           10200.00
02621           10000.00
02622           10000.00
02623            9800.00
02624            9600.00
02625            9200.00
02626            9200.00
02627            9000.00
02628            8600.00
02629            8400.00
02630            8400.00
02631            8200.00
02632            8000.00
02633            7600.00
02634            7400.00
02635            7400.00
02636            7000.00
02637            6800.00
02638            6600.00
02639            6200.00
02640            5800.00
02641            5800.00
02642            5600.00
02643            5200.00
02644            5000.00
02645            4600.00
02646            4600.00
02647            4200.00
02648            4200.00
02649            3800.00
02650            3600.00
02651            3400.00
02652            3200.00
02653            2800.00
02654            2600.00
02655            2200.00
02656            2000.00
02657            1800.00
02658            1400.00
02659            1200.00
02660            1000.00
02661             600.00
02662             400.00
02663             400.00
02664             200.00
02665            -400.00
02666            -600.00
02667            -800.00
02668           -1000.00
02669           -1400.00
02670           -1400.00
02671           -1800.00
02672           -2000.00
02673           -2200.00
02674           -2800.00
02675           -3000.00
02676           -3400.00
02677           -3400.00
02678           -3400.00
02679           -3800.00
02680           -4200.00
02681           -4200.00
02682           -4600.00
02683           -4800.00
02684           -5000.00
02685           -5400.00
02686           -5800.00
02687           -5800.00
02688           -6200.00
02689           -6200.00
02690           -6600.00
02691           -7000.00
02692           -7000.00
02693           -7400.00
02694           -7600.00
02695           -7800.00
02696           -8000.00
02697           -8400.00
02698           -8600.00
02699           -8600.00
02700           -8800.00
02701           -9200.00
02702           -9200.00
02703           -9400.00
02704           -9800.00
02705           -9800.00
02706          -10000.00
02707          -10200.00
02708          -10200.00
02709          -10600.00
02710          -10800.00
02711          -11000.00
02712          -11000.00
02713          -11400.00
02714          -11400.00
02715          -11600.00
02716          -11600.00
02717          -11800.00
02718          -12000.00
02719          -12200.00
02720          -12400.00
02721          -12400.00
02722          -12600.00
02723          -12600.00
02724          -12600.00
02725          -12800.00
02726          -13200.00
02727          -13000.00
02728          -13200.00
02729          -13200.00
02730          -13400.00
02731          -13400.00
02732          -13600.00
02733          -13400.00
02734          -13600.00
02735          -13800.00
02736          -13800.00
02737          -13800.00
02738          -13800.00
02739          -14000.00
02740          -14000.00
02741          -14000.00
02742          -14000.00
02743          -14000.00
02744          -14000.00
02745          -14000.00
02746          -14000.00
02747          -14000.00
02748          -14000.00
02749          -14000.00
02750          -14000.00
02751          -14000.00
02752          -14000.00
02753          -14000.00
02754          -14000.00
02755          -14000.00
02756          -13800.00
02757          -14000.00
02758          -13800.00
02759          -13800.00
02760          -13400.00
02761          -13600.00
02762          -13400.00
02763          -13400.00
02764          -13400.00
02765          -13200.00
02766          -13400.00
02767          -13200.00
02768          -13000.00
02769          -12800.00
02770          -12600.00
02771          -12600.00
02772          -12600.00
02773          -12400.00
02774          -12400.00
02775          -12200.00
02776          -11800.00
02777          -11800.00
02778          -11600.00
02779          -11600.00
02780          -11400.00
02781          -11400.00
02782          -11000.00
02783          -10800.00
02784          -10800.00
02785          -10600.00
02786          -10200.00
02787          -10000.00
02788          -10000.00
02789           -9800.00
02790           -9400.00
02791           -9200.00
02792           -9200.00
02793           -9000.00
02794           -8600.00
02795           -8600.00
02796           -8400.00
02797           -8200.00
02798           -8000.00
02799           -7600.00
02800           -7600.00
02801           -7400.00
02802           -7000.00
02803           -6800.00
02804           -6600.00
02805           -6400.00
02806           -6000.00
02807           -6000.00
02808           -5600.00
02809           -5400.00
02810           -5200.00
02811           -4800.00
02812           -4600.00
02813           -4400.00
02814           -3800.00
02815           -3800.00
02816           -3600.00
02817           -3400.00
02818           -3000.00
02819           -2800.00
02820           -2800.00
02821           -2200.00
02822           -2200.00
02823           -1800.00
02824           -1400.00
02825           -1200.00
02826           -1200.00
02827            -600.00
02828            -600.00
02829            -200.00
02830               0.00
02831             200.00
02832             400.00
02833             800.00
02834            1200.00
02835            1200.00
02836            1400.00
02837            1800.00
02838            2000.00
02839            2200.00
02840            2600.00
02841            3000.00
02842            3200.00
02843            3400.00
02844            3600.00
02845            3800.00
02846            4200.00
02847            4400.00
02848            4600.00
02849            5000.00
02850            5000.00
02851            5400.00
02852            5400.00
02853            5800.00
02854            6000.00
02855            6200.00
02856            6600.00
02857            6800.00
02858            7000.00
02859            7200.00
02860            7600.00
02861            7600.00
02862            8200.00
02863            8200.00
02864            8400.00
02865            8600.00
02866            8800.00
02867            9000.00
02868            9200.00
02869            9200.00
02870            9800.00
02871           10000.00
02872           10000.00
02873           10200.00
02874           10600.00
02875           10600.00
02876           10800.00
02877           11000.00
02878           11000.00
02879           11400.00
02880           11400.00
02881           11600.00
02882           11800.00
02883           11800.00
02884           12000.00
02885           12000.00
02886           12200.00
02887           12200.00
02888           12400.00
02889           12600.00
02890           12600.00
02891           13000.00
02892           13000.00
02893           13000.00
02894           13000.00
02895           13200.00
02896           13200.00
02897           13400.00
02898           13400.00
02899           13400.00
02900           13800.00
02901           13800.00
02902           13800.00
02903           13800.00
02904           13800.00
02905           13800.00
02906           14000.00
02907           13800.00
02908           14000.00
02909           14000.00
02910           14000.00
02911           14000.00
02912           14000.00
02913           14000.00
02914           14000.00
02915           14000.00
02916           14200.00
02917           14000.00
02918           14000.00
02919           13800.00
02920           14000.00
02921           14000.00
02922           13800.00
02923           13800.00
02924           13800.00
02925           13800.00
02926           13800.00
02927           13400.00
02928           13400.00
02929           13400.00
02930           13200.00
02931           13200.00
02932           13200.00
02933           13000.00
02934           13000.00
02935           13000.00
02936           12800.00
02937           12600.00
02938           12600.00
02939           12400.00
02940           12200.00
02941           12200.00
02942           11800.00
02943           11800.00
02944           11800.00
02945           11600.00
02946           11400.00
02947           11200.00
02948           11000.00
02949           10800.00
02950           10800.00
02951           10600.00
02952           10200.00
02953           10200.00
02954           10000.00
02955            9800.00
02956            9400.00
02957            9400.00
02958            9200.00
02959            9000.00
02960            8600.00
02961            8400.00
02962            8400.00
02963            8200.00
02964            7800.00
02965            7800.00
02966            7400.00
02967            7200.00
02968            7000.00
02969            6800.00
02970            6600.00
02971            6200.00
02972            6000.00
02973            5800.00
02974            5600.00
02975            5400.00
02976            5200.00
02977            5200.00
02978            4600.00
02979            4400.00
02980            4200.00
02981            3800.00
02982            3600.00
02983            3400.00
02984            3000.00
02985            2800.00
02986            2600.00
02987            2400.00
02988            2200.00
02989            1800.00
02990            1800.00
02991            1400.00
02992            1000.00
02993             800.00
02994             600.00
02995             200.00
02996               0.00
02997            -200.00
02998            -600.00
02999           -1000.00
03000           -1000.00
03001           -1200.00
03002           -1400.00
03003           -1800.00
03004           -2000.00
03005           -2200.00
03006           -2600.00
03007           -3000.00
03008           -3400.00
03009           -3000.00
03010           -3200.00
03011           -3800.00
03012           -4200.00
03013           -4200.00
03014           -4400.00
03015           -5000.00
03016           -5000.00
03017           -5400.00
03018           -5600.00
03019           -5800.00
03020           -6200.00
03021           -6200.00
03022           -6600.00
03023           -7000.00
03024           -7000.00
03025           -7000.00
03026           -7600.00
03027           -7800.00
03028           -8000.00
03029           -8200.00
03030           -8400.00
03031           -8600.00
03032           -9000.00
03033           -9200.00
03034           -9200.00
03035           -9400.00
03036           -9800.00
03037           -9800.00
03038          -10000.00
03039          -10200.00
03040          -10200.00
03041          -10600.00
03042          -10800.00
03043          -11000.00
03044          -11000.00
03045          -11200.00
03046          -11400.00
03047          -11600.00
03048          -11600.00
03049          -11800.00
03050          -11800.00
03051          -12200.00
03052          -12200.00
03053          -12400.00
03054          -12400.00
03055          -12600.00
03056          -12600.00
03057          -12600.00
03058          -13000.00
03059          -13000.00
03060          -13200.00
03061          -13200.00
03062          -13400.00
03063          -13400.00
03064          -13400.00
03065          -13400.00
03066          -13600.00
03067          -13800.00
03068          -13800.00
03069          -13800.00
03070          -13800.00
03071          -13800.00
03072          -13800.00
03073          -14000.00
03074          -14000.00
03075          -14000.00
03076          -14000.00
03077          -14000.00
03078          -14000.00
03079          -14000.00
03080          -14000.00
03081          -14200.00
03082          -14000.00
03083          -14200.00
03084          -14000.00
03085          -14000.00
03086          -14000.00
03087          -13800.00
03088          -14000.00
03089          -13800.00
03090          -14000.00
03091          -13600.00
03092          -13800.00
03093          -13400.00
03094          -13400.00
03095          -13400.00
03096          -13400.00
03097          -13200.00
03098          -13400.00
03099          -13000.00
03100          -13200.00
03101          -12800.00
03102          -12800.00
03103          -12600.00
03104          -12400.00
03105          -12400.00
03106          -12200.00
03107          -12200.00
03108          -11800.00
03109          -11800.00
03110          -11600.00
03111          -11400.00
03112          -11400.00
03113          -11200.00
03114          -11000.00
03115          -10800.00
03116          -10800.00
03117          -10600.00
03118          -10400.00
03119          -10200.00
03120          -10000.00
03121           -9800.00
03122           -9400.00
03123           -9400.00
03124           -9200.00
03125           -9200.00
03126           -8600.00
03127           -8400.00
03128           -8400.00
03129           -8200.00
03130           -7800.00
03131           -7800.00
03132           -7400.00
03133           -7400.00
03134           -7000.00
03135           -6800.00
03136           -6600.00
03137           -6200.00
03138           -6000.00
03139           -6000.00
03140           -5800.00
03141           -5400.00
03142           -5000.00
03143           -4800.00
03144           -4600.00
03145           -4400.00
03146           -4200.00
03147           -3800.00
03148           -3800.00
03149           -3400.00
03150           -3000.00
03151           -3000.00
03152           -2800.00
03153           -2200.00
03154           -2200.00
03155           -1800.00
03156           -1600.00
03157           -1400.00
03158           -1200.00
03159            -800.00
03160            -600.00
03161            -400.00
03162             200.00
03163             200.00
03164             400.00
03165             600.00
03166            1000.00
03167            1200.00
03168            1400.00
03169            1800.00
03170            1800.00
03171            2200.00
03172            2400.00
03173            2800.00
03174            3400.00
03175            3400.00
03176            3600.00
03177            3800.00
03178            4200.00
03179            4200.00
03180            4600.00
03181            4600.00
03182            5000.00
03183            5400.00
03184            5600.00
03185            5800.00
03186            6000.00
03187            6200.00
03188            6600.00
03189            6800.00
03190            6800.00
03191            7000.00
03192            7400.00
03193            7800.00
03194            7800.00
03195            8200.00
03196            8400.00
03197            8400.00
03198            8600.00
03199            9000.00
03200            9000.00
03201            9200.00
03202            9400.00
03203           10000.00
03204           10000.00
03205           10000.00
03206           10200.00
03207           10600.00
03208           10800.00
03209           10800.00
03210           11000.00
03211           11200.00
03212           11400.00
03213           11600.00
03214           11600.00
03215           11800.00
03216           12000.00
03217           12200.00
03218           12200.00
03219           12200.00
03220           12400.00
03221           12600.00
03222           12800.00
03223           12600.00
03224           13000.00
03225           13000.00
03226           13200.00
03227           13200.00
03228           13400.00
03229           13200.00
03230           13400.00
03231           13600.00
03232           13800.00
03233           13800.00
03234           13800.00
03235           13800.00
03236           14000.00
03237           13800.00
03238           14000.00
03239           14000.00
03240           14000.00
03241           14200.00
03242           14000.00
03243           14000.00
03244           14000.00
03245           14000.00
03246           14000.00
03247           14000.00
03248           14000.00
03249           14200.00
03250           14000.00
03251           14000.00
03252           14000.00
03253           14000.00
03254           14000.00
03255           13800.00
03256           13800.00
03257           13800.00
03258           13800.00
03259           13600.00
03260           13400.00
03261           13400.00
03262           13200.00
03263           13200.00
03264           13400.00
03265           13200.00
03266           13200.00
03267           13000.00
03268           12800.00
03269           12600.00
03270           12400.00
03271           12400.00
03272           12200.00
03273           12200.00
03274           12200.00
03275           11800.00
03276           11600.00
03277           11600.00
03278           11400.00
03279           11000.00
03280           11000.00
03281           10800.00
03282           10800.00
03283           10600.00
03284           10600.00
03285           10200.00
03286           10000.00
03287            9800.00
03288            9600.00
03289            9400.00
03290            9200.00
03291            9000.00
03292            8600.00
03293            8600.00
03294            8400.00
03295            8200.00
03296            7800.00
03297            8000.00
03298            7400.00
03299            7400.00
03300            7000.00
03301            6800.00
03302            6800.00
03303            6600.00
03304            6200.00
03305            6000.00
03306            5800.00
03307            5400.00
03308            5200.00
03309            5000.00
03310            4800.00
03311            4400.00
03312            4200.00
03313            3800.00
03314            3600.00
03315            3600.00
03316            3200.00
03317            3000.00
03318            2600.00
03319            2600.00
03320            2000.00
03321            2000.00
03322            1400.00
03323            1400.00
03324            1200.00
03325            1000.00
03326             400.00
03327             400.00
03328             200.00
03329            -200.00
03330            -400.00
03331            -600.00
03332           -1000.00
03333           -1200.00
03334           -1600.00
03335           -1400.00
03336           -1800.00
03337           -2200.00
03338           -2600.00
03339           -3000.00
03340           -3400.00
03341           -3400.00
03342           -3200.00
03343           -3800.00
03344           -4200.00
03345           -4200.00
03346           -4600.00
03347           -5000.00
03348           -5000.00
03349           -5400.00
03350           -5800.00
03351           -5800.00
03352           -6000.00
03353           -6200.00
03354           -6400.00
03355           -7000.00
03356           -7000.00
03357           -7000.00
03358           -7600.00
03359           -7600.00
03360           -7800.00
03361           -8000.00
03362           -8400.00
03363           -8600.00
03364           -8800.00
03365           -9000.00
03366           -9200.00
03367           -9200.00
03368           -9400.00
03369           -9800.00
03370           -9800.00
03371          -10200.00
03372          -10200.00
03373          -10400.00
03374          -10800.00
03375          -10800.00
03376          -11000.00
03377          -11200.00
03378          -11400.00
03379          -11400.00
03380          -11600.00
03381          -11800.00
03382          -11800.00
03383          -12200.00
03384          -12400.00
03385          -12200.00
03386          -12400.00
03387          -12600.00
03388          -12600.00
03389          -12600.00
03390          -13000.00
03391          -13000.00
03392          -13200.00
03393          -13400.00
03394          -13400.00
03395          -13200.00
03396          -13400.00
03397          -13400.00
03398          -13800.00
03399          -13400.00
03400          -13800.00
03401          -13800.00
03402          -13800.00
03403          -13800.00
03404          -13800.00
03405          -14000.00
03406          -14000.00
03407          -14000.00
03408          -14000.00
03409          -14000.00
03410          -14000.00
03411          -14000.00
03412          -14000.00
03413          -14000.00
03414          -14000.00
03415          -14000.00
03416          -14000.00
03417          -14000.00
03418          -14000.00
03419          -14000.00
03420          -13800.00
03421          -14000.00
03422          -13800.00
03423          -13800.00
03424          -13800.00
03425          -13400.00
03426          -13400.00
03427          -13400.00
03428          -13400.00
03429          -13400.00
03430          -13200.00
03431          -13200.00
03432          -13000.00
03433          -13000.00
03434          -12600.00
03435          -12600.00
03436          -12600.00
03437          -12400.00
03438          -12400.00
03439          -12200.00
03440          -12200.00
03441          -11800.00
03442          -11800.00
03443          -11600.00
03444          -11400.00
03445          -11000.00
03446          -11000.00
03447          -10800.00
03448          -10600.00
03449          -10600.00
03450          -10200.00
03451          -10200.00
03452          -10200.00
03453           -9800.00
03454           -9400.00
03455           -9400.00
03456           -9200.00
03457           -9000.00
03458           -9000.00
03459           -8600.00
03460           -8400.00
03461           -8200.00
03462           -7800.00
03463           -7800.00
03464           -7600.00
03465           -7200.00
03466           -7000.00
03467           -6800.00
03468           -6800.00
03469           -6600.00
03470           -6200.00
03471           -6000.00
03472           -5800.00
03473           -5600.00
03474           -5200.00
03475           -5000.00
03476           -4600.00
03477           -4600.00
03478           -4400.00
03479           -3800.00
03480           -3800.00
03481           -3600.00
03482           -3000.00
03483           -3000.00
03484           -2800.00
03485           -2600.00
03486           -2200.00
03487           -2000.00
03488           -1600.00
03489           -1400.00
03490           -1200.00
03491           -1000.00
03492            -600.00
03493            -400.00
03494            -200.00
03495             200.00
03496             400.00
03497             600.00
03498            1000.00
03499            1200.00
03500            1400.00
03501            1800.00
03502            1800.00
03503            2200.00
03504            2400.00
03505            2800.00
03506            3000.00
03507            3400.00
03508            3400.00
03509            3800.00
03510            4000.00
03511            4200.00
03512            4400.00
03513            4600.00
03514            5000.00
03515            5200.00
03516            5800.00
03517            5800.00
03518            6000.00
03519            6000.00
03520            6600.00
03521            6800.00
03522            7000.00
03523            7000.00
03524            7600.00
03525            7600.00
03526            7800.00
03527            8200.00
03528            8200.00
03529            8400.00
03530            8600.00
03531            9000.00
03532            9000.00
03533            9200.00
03534            9400.00
03535            9800.00
03536            9800.00
03537           10000.00
03538           10200.00
03539           10600.00
03540           10600.00
03541           10800.00
03542           11000.00
03543           11000.00
03544           11200.00
03545           11400.00
03546           11600.00
03547           11800.00
03548           11800.00
03549           12000.00
03550           12200.00
03551           12200.00
03552           12400.00
03553           12400.00
03554           12600.00
03555           12600.00
03556           13000.00
03557           13000.00
03558           13000.00
03559           13200.00
03560           13200.00
03561           13200.00
03562           13400.00
03563           13400.00
03564           13600.00
03565           13800.00
03566           13800.00
03567           14000.00
03568           14000.00
03569           14000.00
03570           14000.00
03571           14000.00
03572           14000.00
03573           14000.00
03574           14000.00
03575           14200.00
03576           14000.00
03577           14000.00
03578           14200.00
03579           14000.00
03580           14200.00
03581           14000.00
03582           14000.00
03583           14000.00
03584           14000.00
03585           14000.00
03586           14000.00
03587           13800.00
03588           13800.00
03589           13800.00
03590           13600.00
03591           13600.00
03592           13400.00
03593           13400.00
03594           13400.00
03595           13200.00
03596           13200.00
03597           13000.00
03598           13000.00
03599           13000.00
03600           12800.00
03601           12600.00
03602           12600.00
03603           12400.00
03604           12400.00
03605           12200.00
03606           12200.00
03607           11800.00
03608           11600.00
03609           11600.00
03610           11400.00
03611           11200.00
03612           11200.00
03613           10800.00
03614           10600.00
03615           10600.00
03616           10200.00
03617           10000.00
03618           10000.00
03619           10000.00
03620            9800.00
03621            9400.00
03622            9200.00
03623            9000.00
03624            8800.00
03625            8600.00
03626            8400.00
03627            8400.00
03628            8200.00
03629            7800.00
03630            7600.00
03631            7400.00
03632            7400.00
03633            7000.00
03634            6600.00
03635            6600.00
03636            6200.00
03637            6000.00
03638            5800.00
03639            5400.00
03640            5200.00
03641            5000.00
03642            4800.00
03643            4600.00
03644            4200.00
03645            3800.00
03646            3800.00
03647            3600.00
03648            3400.00
03649            3000.00
03650            2800.00
03651            2600.00
03652            2200.00
03653            2000.00
03654            1800.00
03655            1400.00
03656            1200.00
03657            1000.00
03658             600.00
03659             400.00
03660             200.00
03661            -200.00
03662            -400.00
03663            -600.00
03664            -800.00
03665           -1200.00
03666           -1400.00
03667           -1800.00
03668           -2000.00
03669           -2000.00
03670           -2600.00
03671           -3000.00
03672           -3400.00
03673           -3400.00
03674           -3400.00
03675           -3600.00
03676           -4200.00
03677           -4200.00
03678           -4400.00
03679           -4600.00
03680           -5000.00
03681           -5200.00
03682           -5400.00
03683           -5800.00
03684           -6000.00
03685           -6200.00
03686           -6400.00
03687           -6600.00
03688           -7000.00
03689           -7000.00
03690           -7200.00
03691           -7600.00
03692           -7800.00
03693           -8200.00
03694           -8200.00
03695           -8400.00
03696           -8600.00
03697           -8600.00
03698           -9200.00
03699           -9200.00
03700           -9400.00
03701           -9800.00
03702           -9800.00
03703          -10000.00
03704          -10200.00
03705          -10400.00
03706          -10600.00
03707          -10800.00
03708          -11000.00
03709          -11000.00
03710          -11400.00
03711          -11400.00
03712          -11600.00
03713          -11600.00
03714          -11800.00
03715          -12000.00
03716          -12200.00
03717          -12400.00
03718          -12400.00
03719          -12600.00
03720          -12600.00
03721          -12600.00
03722          -12800.00
03723          -13000.00
03724          -13200.00
03725          -13200.00
03726          -13400.00
03727          -13400.00
03728          -13400.00
03729          -13400.00
03730          -13800.00
03731          -13800.00
03732          -13800.00
03733          -13800.00
03734          -14000.00
03735          -14000.00
03736          -14000.00
03737          -14000.00
03738          -14000.00
03739          -14000.00
03740          -14000.00
03741          -14000.00
03742          -14000.00
03743          -14000.00
03744          -14000.00
03745          -14000.00
03746          -14000.00
03747          -14200.00
03748          -14000.00
03749          -14000.00
03750          -14000.00
03751          -14000.00
03752          -14000.00
03753          -13800.00
03754          -13800.00
03755          -13800.00
03756          -13600.00
03757          -13400.00
03758          -13600.00
03759          -13200.00
03760          -13200.00
03761          -13400.00
03762          -13200.00
03763          -13200.00
03764          -13000.00
03765          -13000.00
03766          -12600.00
03767          -12600.00
03768          -12400.00
03769          -12400.00
03770          -12200.00
03771          -12000.00
03772          -12000.00
03773          -11800.00
03774          -11600.00
03775          -11600.00
03776          -11400.00
03777          -11000.00
03778          -11000.00
03779          -11000.00
03780          -10800.00
03781          -10600.00
03782          -10200.00
03783          -10200.00
03784          -10000.00
03785           -9800.00
03786           -9800.00
03787           -9400.00
03788           -9200.00
03789           -9200.00
03790           -9000.00
03791           -8600.00
03792           -8400.00
03793           -8400.00
03794           -8200.00
03795           -7800.00
03796           -7600.00
03797           -7600.00
03798           -7000.00
03799           -7000.00
03800           -6800.00
03801           -6600.00
03802           -6200.00
03803           -6000.00
03804           -6000.00
03805           -5400.00
03806           -5400.00
03807           -5000.00
03808           -4600.00
03809           -4600.00
03810           -4400.00
03811           -3800.00
03812           -3800.00
03813           -3600.00
03814           -3400.00
03815           -3000.00
03816           -2800.00
03817           -2600.00
03818           -2200.00
03819           -2000.00
03820           -1800.00
03821           -1400.00
03822           -1200.00
03823           -1000.00
03824            -600.00
03825            -400.00
03826            -200.00
03827             200.00
03828             400.00
03829             600.00
03830            1000.00
03831            1000.00
03832            1400.00
03833            1800.00
03834            1800.00
03835            2000.00
03836            2400.00
03837            2800.00
03838            3000.00
03839            3400.00
03840            3400.00
03841            3600.00
03842            3800.00
03843            4200.00
03844            4400.00
03845            4600.00
03846            5000.00
03847            5200.00
03848            5600.00
03849            5800.00
03850            5800.00
03851            6000.00
03852            6200.00
03853            6800.00
03854            6800.00
03855            7000.00
03856            7200.00
03857            7600.00
03858            7600.00
03859            8000.00
03860            8200.00
03861            8400.00
03862            8600.00
03863            8600.00
03864            9000.00
03865            9000.00
03866            9400.00
03867            9800.00
03868            9800.00
03869            9800.00
03870           10000.00
03871           10400.00
03872           10600.00
03873           10800.00
03874           10800.00
03875           11000.00
03876           11200.00
03877           11600.00
03878           11600.00
03879           11800.00
03880           12000.00
03881           11800.00
03882           12200.00
03883           12200.00
03884           12400.00
03885           12600.00
03886           12600.00
03887           13000.00
03888           13000.00
03889           13000.00
03890           13200.00
03891           13200.00
03892           13200.00
03893           13200.00
03894           13400.00
03895           13400.00
03896           13600.00
03897           13600.00
03898           13800.00
03899           13800.00
03900           13800.00
03901           14000.00
03902           14000.00
03903           14000.00
03904           14000.00
03905           14000.00
03906           14000.00
03907           14200.00
03908           14000.00
03909           14200.00
03910           14000.00
03911           14200.00
03912           14000.00
03913           14000.00
03914           14000.00
03915           14000.00
03916           14000.00
03917           14000.00
03918           14000.00
03919           13800.00
03920           13800.00
03921           13800.00
03922           13600.00
03923           13800.00
03924           13400.00
03925           13400.00
03926           13200.00
03927           13200.00
03928           13000.00
03929           13000.00
03930           13000.00
03931           12800.00
03932           12600.00
03933           12600.00
03934           12400.00
03935           12400.00
03936           12200.00
03937           12200.00
03938           12200.00
03939           11800.00
03940           11800.00
03941           11600.00
03942           11600.00
03943           11400.00
03944           11000.00
03945           11000.00
03946           10800.00
03947           10600.00
03948           10600.00
03949           10400.00
03950           10000.00
03951           10000.00
03952            9800.00
03953            9400.00
03954            9200.00
03955            9200.00
03956            9000.00
03957            8600.00
03958            8400.00
03959            8400.00
03960            8200.00
03961            7800.00
03962            7600.00
03963            7600.00
03964            7400.00
03965            7000.00
03966            6800.00
03967            6600.00
03968            6200.00
03969            6000.00
03970            5800.00
03971            5800.00
03972            5200.00
03973            5200.00
03974            4800.00
03975            4600.00
03976            4200.00
03977            4200.00
03978            3800.00
03979            3600.00
03980            3400.00
03981            3000.00
03982            2800.00
03983            2600.00
03984            2200.00
03985            2000.00
03986            1800.00
03987            1600.00
03988            1200.00
03989            1000.00
03990             600.00
03991             400.00
03992             200.00
03993            -200.00
03994            -400.00
03995            -600.00
03996            -600.00
03997           -1200.00
03998           -1400.00
03999           -1400.00
04000           -2000.00
04001           -2000.00
04002           -2200.00
04003           -2800.00
04004           -3200.00
04005           -3600.00
04006           -3400.00
04007           -3400.00
04008           -4200.00
04009           -4200.00
04010           -4200.00
04011           -4600.00
04012           -5000.00
04013           -5000.00
04014           -5400.00
04015           -5400.00
04016           -5800.00
04017           -6000.00
04018           -6200.00
04019           -6800.00
04020           -7000.00
04021           -7000.00
04022           -7000.00
04023           -7600.00
04024           -7800.00
04025           -8000.00
04026           -8400.00
04027           -8400.00
04028           -8600.00
04029           -8600.00
04030           -9000.00
04031           -9200.00
04032           -9400.00
04033           -9800.00
04034           -9800.00
04035          -10000.00
04036          -10200.00
04037          -10200.00
04038          -10600.00
04039          -10800.00
04040          -10800.00
04041          -11000.00
04042          -11400.00
04043          -11400.00
04044          -11400.00
04045          -11800.00
04046          -11800.00
04047          -12000.00
04048          -12200.00
04049          -12200.00
04050          -12400.00
04051          -12600.00
04052          -12600.00
04053          -12600.00
04054          -12600.00
04055          -13000.00
04056          -13000.00
04057          -13200.00
04058          -13400.00
04059          -13400.00
04060          -13400.00
04061          -13600.00
04062          -13400.00
04063          -13800.00
04064          -14000.00
04065          -14000.00
04066          -14000.00
04067          -14000.00
04068          -14000.00
04069          -14000.00
04070          -14000.00
04071          -14000.00
04072          -14000.00
04073          -14000.00
04074          -14000.00
04075          -14200.00
04076          -14000.00
04077          -14000.00
04078          -14000.00
04079          -14000.00
04080          -14000.00
04081          -14000.00
04082          -14000.00
04083          -14000.00
04084          -14000.00
04085          -13800.00
04086          -13800.00
04087          -13800.00
04088          -13600.00
04089          -13400.00
04090          -13400.00
04091          -13400.00
04092          -13400.00
04093          -13400.00
04094          -13200.00
04095          -13200.00
04096          -13000.00
04097          -13000.00
04098          -13000.00
04099          -12600.00
04100          -12600.00
04101          -12400.00
04102          -12400.00
04103          -12200.00
04104          -12200.00
04105          -11800.00
04106          -11600.00
04107          -11600.00
04108          -11400.00
04109          -11200.00
04110          -11200.00
04111          -10800.00
04112          -10800.00
04113          -10600.00
04114          -10200.00
04115          -10200.00
04116          -10000.00
04117          -10000.00
04118           -9800.00
04119           -9400.00
04120           -9400.00
04121           -9200.00
04122           -9200.00
04123           -8800.00
04124           -8600.00
04125           -8400.00
04126           -8200.00
04127           -7800.00
04128           -7600.00
04129           -7400.00
04130           -7400.00
04131           -7000.00
04132           -6800.00
04133           -6600.00
04134           -6200.00
04135           -6000.00
04136           -6000.00
04137           -5800.00
04138           -5400.00
04139           -5200.00
04140           -5000.00
04141           -4400.00
04142           -4400.00
04143           -4200.00
04144           -3800.00
04145           -3600.00
04146           -3400.00
04147           -3000.00
04148           -2800.00
04149           -2600.00
04150           -2200.00
04151           -2000.00
04152           -1800.00
04153           -1400.00
04154           -1200.00
04155           -1000.00
04156            -600.00
04157            -400.00
04158            -200.00
04159             200.00
04160             400.00
04161             400.00
04162            1000.00
04163            1000.00
04164            1400.00
04165            1800.00
04166            2000.00
04167            2000.00
04168            2200.00
04169            2600.00
04170            3000.00
04171            3400.00
04172            3400.00
04173            3600.00
04174            3800.00
04175            4200.00
04176            4200.00
04177            4600.00
04178            5000.00
04179            5200.00
04180            5400.00
04181            5600.00
04182            5800.00
04183            6000.00
04184            6200.00
04185            6600.00
04186            6800.00
04187            6800.00
04188            7200.00
04189            7400.00
04190            7600.00
04191            7800.00
04192            8200.00
04193            8200.00
04194            8600.00
04195            8600.00
04196            9000.00
04197            9200.00
04198            9400.00
04199            9600.00
04200            9800.00
04201           10000.00
04202           10000.00
04203           10200.00
04204           10600.00
04205           10800.00
04206           10800.00
04207           11000.00
04208           11200.00
04209           11400.00
04210           11600.00
04211           11800.00
04212           11600.00
04213           11800.00
04214           12200.00
04215           12200.00
04216           12200.00
04217           12400.00
04218           12600.00
04219           13000.00
04220           12800.00
04221           13000.00
04222           13200.00
04223           13200.00
04224           13200.00
04225           13200.00
04226           13400.00
04227           13600.00
04228           13800.00
04229           13800.00
04230           13800.00
04231           13800.00
04232           13800.00
04233           13800.00
04234           13800.00
04235           14000.00
04236           14000.00
04237           14000.00
04238           14000.00
04239           14000.00
04240           14000.00
04241           14000.00
04242           14000.00
04243           14000.00
04244           14000.00
04245           14000.00
04246           14000.00
04247           14000.00
04248           14000.00
04249           14000.00
04250           13800.00
04251           13800.00
04252           13800.00
04253           13800.00
04254           13400.00
04255           13600.00
04256           13400.00
04257           13400.00
04258           13200.00
04259           13200.00
04260           13200.00
04261           13200.00
04262           13000.00
04263           13000.00
04264           13000.00
04265           12600.00
04266           12600.00
04267           12400.00
04268           12200.00
04269           12200.00
04270           12000.00
04271           11800.00
04272           11600.00
04273           11800.00
04274           11600.00
04275           11400.00
04276           11000.00
04277           11000.00
04278           10800.00
04279           10800.00
04280           10600.00
04281           10400.00
04282           10200.00
04283           10000.00
04284            9800.00
04285            9600.00
04286            9400.00
04287            9200.00
04288            9000.00
04289            9000.00
04290            8600.00
04291            8400.00
04292            8200.00
04293            7800.00
04294            7800.00
04295            7400.00
04296            7400.00
04297            7000.00
04298            6800.00
04299            6800.00
04300            6200.00
04301            6000.00
04302            6000.00
04303            5800.00
04304            5400.00
04305            5200.00
04306            5200.00
04307            4600.00
04308            4400.00
04309            4200.00
04310            3800.00
04311            3600.00
04312            3400.00
04313            3200.00
04314            2800.00
04315            2600.00
04316            2600.00
04317            2000.00
04318            1800.00
04319            1400.00
04320            1200.00
04321            1000.00
04322             600.00
04323             400.00
04324             200.00
04325            -200.00
04326            -200.00
04327            -400.00
04328            -600.00
04329           -1000.00
04330           -1200.00
04331           -1400.00
04332           -1800.00
04333           -2000.00
04334           -2200.00
04335           -2600.00
04336           -3000.00
04337           -3400.00
04338           -3200.00
04339           -3400.00
04340           -3800.00
04341           -4200.00
04342           -4200.00
04343           -4600.00
04344           -5000.00
04345           -5000.00
04346           -5200.00
04347           -5800.00
04348           -5800.00
04349           -6000.00
04350           -6400.00
04351           -6400.00
04352           -6800.00
04353           -7000.00
04354           -7000.00
04355           -7400.00
04356           -7600.00
04357           -7800.00
04358           -8200.00
04359           -8400.00
04360           -8600.00
04361           -8600.00
04362           -9000.00
04363           -9200.00
04364           -9200.00
04365           -9400.00
04366           -9800.00
04367           -9800.00
04368          -10200.00
04369          -10200.00
04370          -10600.00
04371          -10800.00
04372          -10800.00
04373          -11000.00
04374          -11000.00
04375          -11400.00
04376          -11600.00
04377          -11800.00
04378          -11800.00
04379          -11800.00
04380          -12200.00
04381          -12400.00
04382          -12400.00
04383          -12400.00
04384          -12600.00
04385          -13000.00
04386          -12600.00
04387          -13000.00
04388          -13200.00
04389          -13200.00
04390          -13200.00
04391          -13400.00
04392          -13400.00
04393          -13400.00
04394          -13400.00
04395          -13600.00
04396          -13800.00
04397          -13800.00
04398          -13800.00
04399          -13800.00
04400          -14000.00
04401          -14000.00
04402          -14000.00
04403          -14200.00
04404          -14000.00
04405          -14000.00
04406          -14000.00
04407          -14000.00
04408          -14000.00
04409          -13800.00
04410          -14000.00
04411          -14000.00
04412          -14000.00
04413          -14000.00
04414          -14000.00
04415          -14000.00
04416          -13800.00
04417          -14000.00
04418          -13800.00
04419          -13800.00
04420          -13800.00
04421          -13600.00
04422          -13400.00
04423          -13400.00
04424          -13400.00
04425          -13400.00
04426          -13200.00
04427          -13200.00
04428          -13000.00
04429          -12800.00
04430          -13000.00
04431          -12800.00
04432          -12600.00
04433          -12400.00
04434          -12400.00
04435          -12400.00
04436          -11800.00
04437          -11800.00
04438          -11800.00
04439          -11600.00
04440          -11600.00
04441          -11200.00
04442          -11200.00
04443          -11000.00
04444          -10800.00
04445          -10800.00
04446          -10400.00
04447          -10400.00
04448          -10200.00
04449          -10000.00
04450          -10000.00
04451           -9400.00
04452           -9400.00
04453           -9200.00
04454           -9200.00
04455           -9000.00
04456           -8600.00
04457           -8400.00
04458           -8400.00
04459           -8200.00
04460           -7600.00
04461           -7600.00
04462           -7400.00
04463           -7000.00
04464           -7000.00
04465           -6600.00
04466           -6200.00
04467           -6200.00
04468           -6000.00
04469           -5800.00
04470           -5400.00
04471           -5200.00
04472           -5000.00
04473           -4600.00
04474           -4400.00
04475           -4200.00
04476           -3800.00
04477           -3600.00
04478           -3400.00
04479           -3000.00
04480           -2800.00
04481           -2600.00
04482           -2200.00
04483           -2200.00
04484           -1800.00
04485           -1400.00
04486           -1200.00
04487           -1000.00
04488            -600.00
04489            -600.00
04490            -200.00
04491             200.00
04492             200.00
04493             400.00
04494             600.00
04495            1000.00
04496            1400.00
04497            1400.00
04498            1800.00
04499            2000.00
04500            2200.00
04501            2600.00
04502            3000.00
04503            3400.00
04504            3400.00
04505            3400.00
04506            3800.00
04507            4000.00
04508            4200.00
04509            4400.00
04510            4600.00
04511            5000.00
04512            5200.00
04513            5600.00
04514            5800.00
04515            6000.00
04516            6200.00
04517            6600.00
04518            6600.00
04519            6800.00
04520            7000.00
04521            7400.00
04522            7600.00
04523            7800.00
04524            8000.00
04525            8200.00
04526            8400.00
04527            8600.00
04528            9000.00
04529            9000.00
04530            9200.00
04531            9400.00
04532            9800.00
04533            9800.00
04534           10000.00
04535           10200.00
04536           10600.00
04537           10800.00
04538           10800.00
04539           11000.00
04540           11400.00
04541           11400.00
04542           11600.00
04543           11600.00
04544           11800.00
04545           11800.00
04546           12200.00
04547           12200.00
04548           12400.00
04549           12400.00
04550           12600.00
04551           13000.00
04552           13000.00
04553           13000.00
04554           13200.00
04555           13200.00
04556           13200.00
04557           13200.00
04558           13400.00
04559           13400.00
04560           13600.00
04561           13800.00
04562           13800.00
04563           13800.00
04564           13800.00
04565           13800.00
04566           14000.00
04567           14000.00
04568           14000.00
04569           14000.00
04570           14000.00
04571           14000.00
04572           14000.00
04573           14000.00
04574           14000.00
04575           14000.00
04576           14200.00
04577           14000.00
04578           14000.00
04579           14000.00
04580           14000.00
04581           13800.00
04582           13800.00
04583           13800.00
04584           13800.00
04585           13800.00
04586           13800.00
04587           13400.00
04588           13400.00
04589           13600.00
04590           13400.00
04591           13200.00
04592           13200.00
04593           13200.00
04594           13000.00
04595           13000.00
04596           13000.00
04597           12800.00
04598           12600.00
04599           12400.00
04600           12400.00
04601           12200.00
04602           12200.00
04603           12000.00
04604           11800.00
04605           11600.00
04606           11600.00
04607           11400.00
04608           11400.00
04609           10800.00
04610           10800.00
04611           10800.00
04612           10600.00
04613           10200.00
04614           10200.00
04615           10000.00
04616           10000.00
04617            9800.00
04618            9400.00
04619            9400.00
04620            9200.00
04621            9000.00
04622            8600.00
04623            8400.00
04624            8400.00
04625            7800.00
04626            7800.00
04627            7600.00
04628            7400.00
04629            7400.00
04630            6800.00
04631            6600.00
04632            6400.00
04633            6200.00
04634            5800.00
04635            5800.00
04636            5400.00
04637            5200.00
04638            5000.00
04639            4600.00
04640            4400.00
04641            4200.00
04642            3800.00
04643            3600.00
04644            3400.00
04645            3000.00
04646            2800.00
04647            2600.00
04648            2400.00
04649            2000.00
04650            1800.00
04651            1800.00
04652            1000.00
04653            1200.00
04654             800.00
04655             400.00
04656             400.00
04657             200.00
04658            -400.00
04659            -400.00
04660            -600.00
04661           -1000.00
04662           -1200.00
04663           -1400.00
04664           -1800.00
04665           -2000.00
04666           -2200.00
04667           -2400.00
04668           -3000.00
04669           -3200.00
04670           -3200.00
04671           -3000.00
04672           -3800.00
04673           -4200.00
04674           -4200.00
04675           -4400.00
04676           -4600.00
04677           -5000.00
04678           -5200.00
04679           -5400.00
04680           -5600.00
04681           -6000.00
04682           -6200.00
04683           -6200.00
04684           -6800.00
04685           -6800.00
04686           -7000.00
04687           -7400.00
04688           -7600.00
04689           -7600.00
04690           -8200.00
04691           -8400.00
04692           -8400.00
04693           -8600.00
04694           -9000.00
04695           -9200.00
04696           -9200.00
04697           -9400.00
04698           -9400.00
04699          -10000.00
04700          -10000.00
04701          -10200.00
04702          -10200.00
04703          -10600.00
04704          -10800.00
04705          -10800.00
04706          -11000.00
04707          -11400.00
04708          -11600.00
04709          -11600.00
04710          -11800.00
04711          -11800.00
04712          -12400.00
04713          -12200.00
04714          -12400.00
04715          -12400.00
04716          -12600.00
04717          -12600.00
04718          -13000.00
04719          -13000.00
04720          -13200.00
04721          -13200.00
04722          -13200.00
04723          -13400.00
04724          -13400.00
04725          -13400.00
04726          -13800.00
04727          -13400.00
04728          -13800.00
04729          -13800.00
04730          -13800.00
04731          -14000.00
04732          -14000.00
04733          -14000.00
04734          -14000.00
04735          -14000.00
04736          -14000.00
04737          -14000.00
04738          -14000.00
04739          -14200.00
04740          -14000.00
04741          -14000.00
04742          -14000.00
04743          -14000.00
04744          -14000.00
04745          -14000.00
04746          -13800.00
04747          -14000.00
04748          -13800.00
04749          -14000.00
04750          -13800.00
04751          -13600.00
04752          -13600.00
04753          -13600.00
04754          -13400.00
04755          -13400.00
04756          -13400.00
04757          -13200.00
04758          -13200.00
04759          -13200.00
04760          -13000.00
04761          -13000.00
04762          -12800.00
04763          -12600.00
04764          -12600.00
04765          -12400.00
04766          -12400.00
04767          -12400.00
04768          -12200.00
04769          -12200.00
04770          -11800.00
04771          -11800.00
04772          -11600.00
04773          -11400.00
04774          -11400.00
04775          -11000.00
04776          -11000.00
04777          -10800.00
04778          -10600.00
04779          -10200.00
04780          -10200.00
04781          -10200.00
04782           -9800.00
04783           -9800.00
04784           -9400.00
04785           -9400.00
04786           -9200.00
04787           -9000.00
04788           -8600.00
04789           -8400.00
04790           -8400.00
04791           -8000.00
04792           -7800.00
04793           -7600.00
04794           -7400.00
04795           -7000.00
04796           -7000.00
04797           -6800.00
04798           -6400.00
04799           -6200.00
04800           -6000.00
04801           -5800.00
04802           -5400.00
04803           -5200.00
04804           -5000.00
04805           -4800.00
04806           -4400.00
04807           -4200.00
04808           -3800.00
04809           -3800.00
04810           -3400.00
04811           -3000.00
04812           -2800.00
04813           -2800.00
04814           -2600.00
04815           -2200.00
04816           -2000.00
04817           -1800.00
04818           -1400.00
04819           -1200.00
04820           -1000.00
04821            -600.00
04822            -400.00
04823            -200.00
04824             200.00
04825             400.00
04826             600.00
04827            1000.00
04828            1200.00
04829            1400.00
04830            1800.00
04831            2000.00
04832            2200.00
04833            2600.00
04834            2800.00
04835            3200.00
04836            3400.00
04837            3400.00
04838            3600.00
04839            4200.00
04840            4200.00
04841            4400.00
04842            4600.00
04843            4600.00
04844            5200.00
04845            5600.00
04846            5800.00
04847            5800.00
04848            6000.00
04849            6600.00
04850            6600.00
04851            6800.00
04852            7000.00
04853            7400.00
04854            7600.00
04855            7800.00
04856            8200.00
04857            8200.00
04858            8400.00
04859            8600.00
04860            9000.00
04861            9000.00
04862            9200.00
04863            9400.00
04864            9800.00
04865           10000.00
04866           10000.00
04867           10200.00
04868           10600.00
04869           10600.00
04870           10800.00
04871           11000.00
04872           11200.00
04873           11200.00
04874           11600.00
04875           11600.00
04876           11800.00
04877           12000.00
04878           12200.00
04879           12200.00
04880           12200.00
04881           12400.00
04882           12600.00
04883           12800.00
04884           12800.00
04885           13000.00
04886           13000.00
04887           13000.00
04888           13200.00
04889           13400.00
04890           13400.00
04891           13400.00
04892           13800.00
04893           13800.00
04894           13600.00
04895           13800.00
04896           14000.00
04897           14000.00
04898           13800.00
04899           14000.00
04900           14000.00
04901           14000.00
04902           14000.00
04903           14000.00
04904           14000.00
04905           14000.00
04906           14000.00
04907           14000.00
04908           14000.00
04909           14000.00
04910           14000.00
04911           14000.00
04912           13800.00
04913           14000.00
04914           13800.00
04915           13800.00
04916           13800.00
04917           13800.00
04918           13800.00
04919           13400.00
04920           13600.00
04921           13400.00
04922           13400.00
04923           13200.00
04924           13200.00
04925           13200.00
04926           13200.00
04927           13000.00
04928           13000.00
04929           13000.00
04930           12600.00
04931           12400.00
04932           12400.00
04933           12200.00
04934           12200.00
04935           12000.00
04936           11800.00
04937           11800.00
04938           11600.00
04939           11400.00
04940           11400.00
04941           11200.00
04942           10800.00
04943           10800.00
04944           10800.00
04945           10600.00
04946           10400.00
04947           10000.00
04948           10000.00
04949            9600.00
04950            9600.00
04951            9200.00
04952            9000.00
04953            9000.00
04954            8600.00
04955            8400.00
04956            8200.00
04957            8200.00
04958            7800.00
04959            7600.00
04960            7400.00
04961            7000.00
04962            7000.00
04963            6800.00
04964            6600.00
04965            6200.00
04966            6000.00
04967            5800.00
04968            5400.00
04969            5200.00
04970            5200.00
04971            4800.00
04972            4400.00
04973            4200.00
04974            3800.00
04975            3600.00
04976            3600.00
04977            3200.00
04978            2800.00
04979            2600.00
04980            2400.00
04981            2200.00
04982            2000.00
04983            1800.00
04984            1400.00
04985            1200.00
04986            1000.00
04987             600.00
04988             400.00
04989             200.00
04990            -200.00
04991            -400.00
04992            -600.00
04993           -1000.00
04994           -1200.00
04995           -1400.00
04996           -1800.00
04997           -1800.00
04998           -2200.00
04999           -2400.00
05000           -2800.00
