Unit:(mV)
                     CH1
Frequency    301.830 kHz
00001            1400.00
00002            1200.00
00003            1200.00
00004            1200.00
00005            1000.00
00006             800.00
00007             600.00
00008             600.00
00009             400.00
00010             400.00
00011             200.00
00012             200.00
00013               0.00
00014            -200.00
00015            -400.00
00016            -400.00
00017            -600.00
00018            -600.00
00019            -600.00
00020            -600.00
00021           -1000.00
00022           -1200.00
00023           -1200.00
00024           -1200.00
00025           -1400.00
00026           -1400.00
00027           -1800.00
00028           -1800.00
00029           -1800.00
00030           -2200.00
00031           -2200.00
00032           -2200.00
00033           -2200.00
00034           -2600.00
00035           -2600.00
00036           -2800.00
00037           -3000.00
00038           -3000.00
00039           -3000.00
00040           -3200.00
00041           -3400.00
00042           -3400.00
00043           -3400.00
00044           -3800.00
00045           -3600.00
00046           -3800.00
00047           -4000.00
00048           -4200.00
00049           -4200.00
00050           -4200.00
00051           -4400.00
00052           -4400.00
00053           -4400.00
00054           -4400.00
00055           -4600.00
00056           -4600.00
00057           -5000.00
00058           -5000.00
00059           -5200.00
00060           -5200.00
00061           -5200.00
00062           -5400.00
00063           -5400.00
00064           -5400.00
00065           -5400.00
00066           -5600.00
00067           -5800.00
00068           -6000.00
00069           -5800.00
00070           -6000.00
00071           -6000.00
00072           -6000.00
00073           -6000.00
00074           -6200.00
00075           -6200.00
00076           -6200.00
00077           -6200.00
00078           -6200.00
00079           -6400.00
00080           -6200.00
00081           -6400.00
00082           -6200.00
00083           -6600.00
00084           -6600.00
00085           -6600.00
00086           -6600.00
00087           -6600.00
00088           -6600.00
00089           -6600.00
00090           -6600.00
00091           -6600.00
00092           -6600.00
00093           -6800.00
00094           -6600.00
00095           -6800.00
00096           -6600.00
00097           -6800.00
00098           -6800.00
00099           -6600.00
00100           -6600.00
00101           -6600.00
00102           -6600.00
00103           -6600.00
00104           -6600.00
00105           -6600.00
00106           -6400.00
00107           -6400.00
00108           -6600.00
00109           -6200.00
00110           -6200.00
00111           -6200.00
00112           -6200.00
00113           -6200.00
00114           -6200.00
00115           -6000.00
00116           -6200.00
00117           -6000.00
00118           -6000.00
00119           -6000.00
00120           -6000.00
00121           -6000.00
00122           -5800.00
00123           -5800.00
00124           -6000.00
00125           -5800.00
00126           -5800.00
00127           -5400.00
00128           -5400.00
00129           -5400.00
00130           -5200.00
00131           -5200.00
00132           -5200.00
00133           -5000.00
00134           -5200.00
00135           -5000.00
00136           -4600.00
00137           -4600.00
00138           -4600.00
00139           -4400.00
00140           -4400.00
00141           -4400.00
00142           -4200.00
00143           -4200.00
00144           -4000.00
00145           -3800.00
00146           -3800.00
00147           -3800.00
00148           -3600.00
00149           -3600.00
00150           -3400.00
00151           -3000.00
00152           -3200.00
00153           -3000.00
00154           -2800.00
00155           -2800.00
00156           -2800.00
00157           -2800.00
00158           -2400.00
00159           -2600.00
00160           -2200.00
00161           -2000.00
00162           -2200.00
00163           -2000.00
00164           -1800.00
00165           -1800.00
00166           -1400.00
00167           -1200.00
00168           -1200.00
00169           -1200.00
00170           -1000.00
00171           -1000.00
00172            -600.00
00173            -800.00
00174            -400.00
00175            -400.00
00176            -200.00
00177            -200.00
00178            -200.00
00179             200.00
00180             200.00
00181             400.00
00182             400.00
00183             400.00
00184             600.00
00185            1000.00
00186             600.00
00187            1000.00
00188            1200.00
00189            1200.00
00190            1200.00
00191            1400.00
00192            1800.00
00193            1800.00
00194            1800.00
00195            2000.00
00196            2200.00
00197            2200.00
00198            2400.00
00199            2600.00
00200            2600.00
00201            2600.00
00202            2600.00
00203            3000.00
00204            2800.00
00205            3000.00
00206            3400.00
00207            3400.00
00208            3400.00
00209            3600.00
00210            3600.00
00211            3800.00
00212            3800.00
00213            4200.00
00214            4200.00
00215            4200.00
00216            4200.00
00217            4400.00
00218            4400.00
00219            4400.00
00220            4600.00
00221            5000.00
00222            4800.00
00223            5000.00
00224            5000.00
00225            5200.00
00226            5200.00
00227            5200.00
00228            5400.00
00229            5400.00
00230            5400.00
00231            5800.00
00232            5800.00
00233            5800.00
00234            5800.00
00235            5800.00
00236            5800.00
00237            6000.00
00238            6000.00
00239            6000.00
00240            6000.00
00241            6000.00
00242            6200.00
00243            6200.00
00244            6200.00
00245            6400.00
00246            6200.00
00247            6400.00
00248            6600.00
00249            6600.00
00250            6400.00
00251            6600.00
00252            6400.00
00253            6600.00
00254            6600.00
00255            6600.00
00256            6600.00
00257            6600.00
00258            6600.00
00259            6600.00
00260            6600.00
00261            6600.00
00262            6600.00
00263            6600.00
00264            6600.00
00265            6600.00
00266            6600.00
00267            6600.00
00268            6600.00
00269            6600.00
00270            6600.00
00271            6400.00
00272            6600.00
00273            6600.00
00274            6600.00
00275            6400.00
00276            6400.00
00277            6400.00
00278            6200.00
00279            6200.00
00280            6200.00
00281            6200.00
00282            6200.00
00283            6000.00
00284            6000.00
00285            6000.00
00286            5800.00
00287            5800.00
00288            5800.00
00289            5800.00
00290            5800.00
00291            5600.00
00292            5400.00
00293            5400.00
00294            5400.00
00295            5200.00
00296            5200.00
00297            5200.00
00298            5000.00
00299            5000.00
00300            5000.00
00301            4800.00
00302            4800.00
00303            4600.00
00304            4600.00
00305            4400.00
00306            4200.00
00307            4200.00
00308            4200.00
00309            4200.00
00310            4000.00
00311            3800.00
00312            3800.00
00313            3600.00
00314            3600.00
00315            3400.00
00316            3400.00
00317            3400.00
00318            3000.00
00319            3000.00
00320            2800.00
00321            2600.00
00322            2600.00
00323            2600.00
00324            2400.00
00325            2200.00
00326            2200.00
00327            2000.00
00328            2000.00
00329            1800.00
00330            1800.00
00331            1600.00
00332            1400.00
00333            1400.00
00334            1200.00
00335            1000.00
00336            1000.00
00337             800.00
00338             600.00
00339             600.00
00340             600.00
00341             400.00
00342             200.00
00343             200.00
00344             200.00
00345            -400.00
00346            -200.00
00347            -200.00
00348            -600.00
00349            -600.00
00350            -600.00
00351            -600.00
00352           -1000.00
00353           -1200.00
00354           -1200.00
00355           -1400.00
00356           -1400.00
00357           -1400.00
00358           -1800.00
00359           -1800.00
00360           -1800.00
00361           -2200.00
00362           -2200.00
00363           -2200.00
00364           -2200.00
00365           -2600.00
00366           -2800.00
00367           -2600.00
00368           -2800.00
00369           -3000.00
00370           -3000.00
00371           -3000.00
00372           -3400.00
00373           -3400.00
00374           -3600.00
00375           -3800.00
00376           -3800.00
00377           -3800.00
00378           -3800.00
00379           -4200.00
00380           -4400.00
00381           -4200.00
00382           -4400.00
00383           -4400.00
00384           -4400.00
00385           -4600.00
00386           -4600.00
00387           -5000.00
00388           -5000.00
00389           -5000.00
00390           -5200.00
00391           -5200.00
00392           -5200.00
00393           -5400.00
00394           -5200.00
00395           -5400.00
00396           -5400.00
00397           -5800.00
00398           -5600.00
00399           -5800.00
00400           -6000.00
00401           -6000.00
00402           -6000.00
00403           -6000.00
00404           -6000.00
00405           -6200.00
00406           -6200.00
00407           -6200.00
00408           -6200.00
00409           -6200.00
00410           -6200.00
00411           -6200.00
00412           -6200.00
00413           -6200.00
00414           -6400.00
00415           -6600.00
00416           -6600.00
00417           -6600.00
00418           -6600.00
00419           -6600.00
00420           -6600.00
00421           -6600.00
00422           -6800.00
00423           -6600.00
00424           -6600.00
00425           -6600.00
00426           -6600.00
00427           -6600.00
00428           -6600.00
00429           -6800.00
00430           -6800.00
00431           -6600.00
00432           -6600.00
00433           -6600.00
00434           -6600.00
00435           -6600.00
00436           -6200.00
00437           -6400.00
00438           -6600.00
00439           -6200.00
00440           -6200.00
00441           -6200.00
00442           -6200.00
00443           -6200.00
00444           -6200.00
00445           -6200.00
00446           -6200.00
00447           -6200.00
00448           -6000.00
00449           -6000.00
00450           -6000.00
00451           -6000.00
00452           -6000.00
00453           -6000.00
00454           -5800.00
00455           -5800.00
00456           -5800.00
00457           -5600.00
00458           -5800.00
00459           -5400.00
00460           -5400.00
00461           -5200.00
00462           -5200.00
00463           -5200.00
00464           -5200.00
00465           -5000.00
00466           -5000.00
00467           -4800.00
00468           -4600.00
00469           -4600.00
00470           -4600.00
00471           -4400.00
00472           -4400.00
00473           -4200.00
00474           -4200.00
00475           -4200.00
00476           -3800.00
00477           -3800.00
00478           -3800.00
00479           -3600.00
00480           -3600.00
00481           -3600.00
00482           -3400.00
00483           -3400.00
00484           -3200.00
00485           -3000.00
00486           -2800.00
00487           -2800.00
00488           -2600.00
00489           -2600.00
00490           -2400.00
00491           -2200.00
00492           -2200.00
00493           -2000.00
00494           -2000.00
00495           -2000.00
00496           -1400.00
00497           -1800.00
00498           -1400.00
00499           -1200.00
00500           -1200.00
00501           -1200.00
00502           -1000.00
00503           -1000.00
00504            -600.00
00505            -600.00
00506            -400.00
00507            -400.00
00508            -200.00
00509            -200.00
00510             200.00
00511             200.00
00512             200.00
00513             200.00
00514             400.00
00515             400.00
00516             600.00
00517             800.00
00518            1000.00
00519            1200.00
00520            1200.00
00521            1200.00
00522            1400.00
00523            1800.00
00524            1800.00
00525            1800.00
00526            2000.00
00527            2000.00
00528            2200.00
00529            2200.00
00530            2600.00
00531            2600.00
00532            2600.00
00533            2800.00
00534            2800.00
00535            3000.00
00536            3000.00
00537            3400.00
00538            3400.00
00539            3600.00
00540            3600.00
00541            3600.00
00542            3600.00
00543            3800.00
00544            4200.00
00545            4000.00
00546            4200.00
00547            4200.00
00548            4400.00
00549            4400.00
00550            4600.00
00551            4600.00
00552            4600.00
00553            5000.00
00554            5000.00
00555            5000.00
00556            5000.00
00557            5200.00
00558            5400.00
00559            5200.00
00560            5400.00
00561            5400.00
00562            5400.00
00563            5800.00
00564            5800.00
00565            5800.00
00566            5800.00
00567            6000.00
00568            5800.00
00569            6000.00
00570            5800.00
00571            6000.00
00572            6000.00
00573            6200.00
00574            6200.00
00575            6200.00
00576            6200.00
00577            6200.00
00578            6200.00
00579            6200.00
00580            6400.00
00581            6600.00
00582            6600.00
00583            6600.00
00584            6600.00
00585            6600.00
00586            6600.00
00587            6600.00
00588            6600.00
00589            6600.00
00590            6600.00
00591            6600.00
00592            6600.00
00593            6600.00
00594            6600.00
00595            6600.00
00596            6600.00
00597            6600.00
00598            6600.00
00599            6600.00
00600            6600.00
00601            6600.00
00602            6600.00
00603            6600.00
00604            6400.00
00605            6600.00
00606            6600.00
00607            6400.00
00608            6600.00
00609            6200.00
00610            6400.00
00611            6200.00
00612            6200.00
00613            6000.00
00614            6000.00
00615            6000.00
00616            6000.00
00617            6000.00
00618            5800.00
00619            5800.00
00620            5800.00
00621            5800.00
00622            5600.00
00623            5800.00
00624            5400.00
00625            5400.00
00626            5200.00
00627            5200.00
00628            5200.00
00629            5000.00
00630            5000.00
00631            5000.00
00632            5000.00
00633            4600.00
00634            4600.00
00635            4400.00
00636            4600.00
00637            4400.00
00638            4200.00
00639            4200.00
00640            4200.00
00641            4000.00
00642            4000.00
00643            3800.00
00644            3600.00
00645            3600.00
00646            3400.00
00647            3400.00
00648            3400.00
00649            3200.00
00650            3000.00
00651            2800.00
00652            2800.00
00653            2600.00
00654            2600.00
00655            2600.00
00656            2200.00
00657            2200.00
00658            2200.00
00659            2000.00
00660            2000.00
00661            1800.00
00662            1800.00
00663            1600.00
00664            1600.00
00665            1400.00
00666            1200.00
00667            1200.00
00668            1000.00
00669            1000.00
00670             600.00
00671             400.00
00672             400.00
00673             200.00
00674             200.00
00675             200.00
00676            -200.00
00677            -400.00
00678            -200.00
00679            -400.00
00680            -600.00
00681            -600.00
00682            -600.00
00683            -800.00
00684           -1200.00
00685           -1400.00
00686           -1200.00
00687           -1200.00
00688           -1400.00
00689           -1800.00
00690           -1800.00
00691           -1800.00
00692           -2000.00
00693           -2200.00
00694           -2200.00
00695           -2200.00
00696           -2600.00
00697           -2600.00
00698           -2600.00
00699           -2800.00
00700           -2800.00
00701           -3000.00
00702           -2800.00
00703           -3400.00
00704           -3400.00
00705           -3400.00
00706           -3600.00
00707           -3800.00
00708           -3800.00
00709           -3800.00
00710           -4200.00
00711           -4200.00
00712           -4400.00
00713           -4400.00
00714           -4400.00
00715           -4600.00
00716           -4600.00
00717           -4600.00
00718           -4800.00
00719           -5000.00
00720           -5000.00
00721           -5000.00
00722           -5200.00
00723           -5200.00
00724           -5400.00
00725           -5400.00
00726           -5600.00
00727           -5400.00
00728           -5800.00
00729           -5800.00
00730           -5800.00
00731           -5800.00
00732           -5800.00
00733           -6000.00
00734           -6000.00
00735           -6000.00
00736           -6000.00
00737           -6200.00
00738           -6200.00
00739           -6000.00
00740           -6200.00
00741           -6200.00
00742           -6200.00
00743           -6200.00
00744           -6200.00
00745           -6400.00
00746           -6600.00
00747           -6400.00
00748           -6600.00
00749           -6600.00
00750           -6600.00
00751           -6600.00
00752           -6400.00
00753           -6600.00
00754           -6600.00
00755           -6800.00
00756           -6600.00
00757           -6800.00
00758           -6600.00
00759           -6600.00
00760           -6600.00
00761           -6600.00
00762           -6600.00
00763           -6200.00
00764           -6600.00
00765           -6600.00
00766           -6600.00
00767           -6600.00
00768           -6600.00
00769           -6400.00
00770           -6400.00
00771           -6600.00
00772           -6200.00
00773           -6600.00
00774           -6400.00
00775           -6200.00
00776           -6200.00
00777           -6000.00
00778           -6200.00
00779           -6000.00
00780           -6200.00
00781           -6000.00
00782           -6000.00
00783           -6000.00
00784           -5800.00
00785           -6000.00
00786           -5800.00
00787           -5800.00
00788           -5600.00
00789           -5400.00
00790           -5400.00
00791           -5200.00
00792           -5400.00
00793           -5200.00
00794           -5200.00
00795           -5000.00
00796           -5000.00
00797           -4600.00
00798           -5000.00
00799           -4600.00
00800           -4600.00
00801           -4400.00
00802           -4400.00
00803           -4400.00
00804           -4200.00
00805           -4200.00
00806           -4200.00
00807           -3800.00
00808           -3800.00
00809           -3800.00
00810           -3600.00
00811           -3600.00
00812           -3400.00
00813           -3200.00
00814           -3000.00
00815           -3000.00
00816           -3000.00
00817           -2800.00
00818           -2800.00
00819           -2600.00
00820           -2600.00
00821           -2400.00
00822           -2200.00
00823           -2200.00
00824           -2000.00
00825           -2000.00
00826           -1800.00
00827           -2000.00
00828           -1600.00
00829           -1600.00
00830           -1400.00
00831           -1200.00
00832           -1200.00
00833           -1000.00
00834           -1000.00
00835            -600.00
00836            -600.00
00837            -400.00
00838            -400.00
00839            -400.00
00840            -200.00
00841            -200.00
00842             200.00
00843             200.00
00844             200.00
00845             400.00
00846             400.00
00847             600.00
00848             600.00
00849             800.00
00850            1200.00
00851            1000.00
00852            1200.00
00853            1400.00
00854            1600.00
00855            1800.00
00856            1800.00
00857            1800.00
00858            2000.00
00859            2000.00
00860            2200.00
00861            2200.00
00862            2600.00
00863            2600.00
00864            2600.00
00865            2800.00
00866            3000.00
00867            3000.00
00868            3000.00
00869            3400.00
00870            3400.00
00871            3400.00
00872            3600.00
00873            3600.00
00874            3800.00
00875            3800.00
00876            4200.00
00877            4200.00
00878            4200.00
00879            4200.00
00880            4400.00
00881            4600.00
00882            4600.00
00883            4600.00
00884            5000.00
00885            5000.00
00886            5000.00
00887            5000.00
00888            5200.00
00889            5200.00
00890            5400.00
00891            5400.00
00892            5400.00
00893            5600.00
00894            5800.00
00895            5800.00
00896            5800.00
00897            5800.00
00898            6000.00
00899            6000.00
00900            6000.00
00901            6000.00
00902            6000.00
00903            6000.00
00904            6200.00
00905            6200.00
00906            6200.00
00907            6000.00
00908            6200.00
00909            6200.00
00910            6200.00
00911            6600.00
00912            6600.00
00913            6600.00
00914            6600.00
00915            6600.00
00916            6600.00
00917            6600.00
00918            6600.00
00919            6600.00
00920            6600.00
00921            6600.00
00922            6600.00
00923            6600.00
00924            6600.00
00925            6600.00
00926            6600.00
00927            6600.00
00928            6600.00
00929            6600.00
00930            6600.00
00931            6600.00
00932            6600.00
00933            6600.00
00934            6600.00
00935            6600.00
00936            6400.00
00937            6200.00
00938            6400.00
00939            6200.00
00940            6200.00
00941            6200.00
00942            6200.00
00943            6200.00
00944            6200.00
00945            6200.00
00946            6000.00
00947            5800.00
00948            6000.00
00949            5800.00
00950            5800.00
00951            5800.00
00952            5800.00
00953            5800.00
00954            5600.00
00955            5400.00
00956            5400.00
00957            5200.00
00958            5400.00
00959            5200.00
00960            5200.00
00961            5200.00
00962            5000.00
00963            5000.00
00964            5000.00
00965            4600.00
00966            4600.00
00967            4400.00
00968            4400.00
00969            4400.00
00970            4200.00
00971            4200.00
00972            3800.00
00973            3800.00
00974            3800.00
00975            3600.00
00976            3600.00
00977            3600.00
00978            3400.00
00979            3400.00
00980            3200.00
00981            3000.00
00982            2800.00
00983            2800.00
00984            2600.00
00985            2600.00
00986            2600.00
00987            2400.00
00988            2400.00
00989            2000.00
00990            2200.00
00991            2000.00
00992            1800.00
00993            1800.00
00994            1400.00
00995            1400.00
00996            1400.00
00997            1200.00
00998            1000.00
00999            1000.00
01000            1000.00
01001             600.00
01002             600.00
01003             400.00
01004             400.00
01005             200.00
01006             200.00
01007             200.00
01008            -200.00
01009            -200.00
01010            -400.00
01011            -600.00
01012            -600.00
01013            -600.00
01014            -600.00
01015           -1000.00
01016           -1200.00
01017           -1200.00
01018           -1200.00
01019           -1200.00
01020           -1600.00
01021           -1800.00
01022           -1800.00
01023           -1800.00
01024           -2200.00
01025           -2200.00
01026           -2200.00
01027           -2200.00
01028           -2600.00
01029           -2600.00
01030           -2800.00
01031           -3000.00
01032           -3000.00
01033           -3200.00
01034           -3400.00
01035           -3400.00
01036           -3600.00
01037           -3600.00
01038           -3800.00
01039           -3800.00
01040           -3800.00
01041           -4200.00
01042           -4200.00
01043           -4200.00
01044           -4400.00
01045           -4400.00
01046           -4600.00
01047           -4600.00
01048           -4600.00
01049           -4800.00
01050           -5000.00
01051           -5200.00
01052           -5000.00
01053           -5200.00
01054           -5200.00
01055           -5200.00
01056           -5400.00
01057           -5400.00
01058           -5400.00
01059           -5800.00
01060           -5800.00
01061           -5400.00
01062           -5800.00
01063           -5800.00
01064           -6000.00
01065           -6000.00
01066           -6000.00
01067           -6000.00
01068           -6200.00
01069           -6000.00
01070           -6200.00
01071           -6200.00
01072           -6200.00
01073           -6200.00
01074           -6200.00
01075           -6200.00
01076           -6400.00
01077           -6200.00
01078           -6600.00
01079           -6600.00
01080           -6400.00
01081           -6600.00
01082           -6600.00
01083           -6600.00
01084           -6600.00
01085           -6600.00
01086           -6600.00
01087           -6600.00
01088           -6600.00
01089           -6800.00
01090           -6600.00
01091           -6600.00
01092           -6600.00
01093           -6600.00
01094           -6600.00
01095           -6600.00
01096           -6600.00
01097           -6600.00
01098           -6600.00
01099           -6600.00
01100           -6600.00
01101           -6600.00
01102           -6600.00
01103           -6600.00
01104           -6200.00
01105           -6200.00
01106           -6600.00
01107           -6200.00
01108           -6400.00
01109           -6000.00
01110           -6200.00
01111           -6000.00
01112           -6000.00
01113           -6000.00
01114           -6000.00
01115           -6000.00
01116           -6000.00
01117           -5800.00
01118           -5800.00
01119           -5600.00
01120           -5400.00
01121           -5400.00
01122           -5400.00
01123           -5200.00
01124           -5400.00
01125           -5200.00
01126           -5200.00
01127           -5000.00
01128           -5000.00
01129           -4800.00
01130           -4600.00
01131           -4600.00
01132           -4400.00
01133           -4600.00
01134           -4400.00
01135           -4400.00
01136           -4200.00
01137           -4000.00
01138           -4000.00
01139           -3800.00
01140           -3800.00
01141           -3600.00
01142           -3600.00
01143           -3600.00
01144           -3400.00
01145           -3000.00
01146           -3200.00
01147           -3000.00
01148           -3000.00
01149           -2800.00
01150           -2600.00
01151           -2800.00
01152           -2600.00
01153           -2200.00
01154           -2200.00
01155           -2200.00
01156           -2000.00
01157           -2000.00
01158           -1800.00
01159           -1800.00
01160           -1400.00
01161           -1400.00
01162           -1200.00
01163           -1200.00
01164           -1000.00
01165           -1000.00
01166            -800.00
01167            -600.00
01168            -600.00
01169            -400.00
01170            -400.00
01171            -200.00
01172               0.00
01173             200.00
01174             200.00
01175             200.00
01176             400.00
01177             600.00
01178             600.00
01179             600.00
01180             800.00
01181            1000.00
01182            1200.00
01183            1200.00
01184            1200.00
01185            1600.00
01186            1800.00
01187            1800.00
01188            2000.00
01189            2000.00
01190            2200.00
01191            2200.00
01192            2400.00
01193            2600.00
01194            2600.00
01195            2600.00
01196            2800.00
01197            2800.00
01198            3000.00
01199            3000.00
01200            3400.00
01201            3400.00
01202            3400.00
01203            3600.00
01204            3800.00
01205            3800.00
01206            4000.00
01207            4200.00
01208            4200.00
01209            4200.00
01210            4400.00
01211            4400.00
01212            4400.00
01213            4400.00
01214            4600.00
01215            5000.00
01216            5000.00
01217            5000.00
01218            5200.00
01219            5200.00
01220            5200.00
01221            5200.00
01222            5400.00
01223            5200.00
01224            5400.00
01225            5400.00
01226            5800.00
01227            5800.00
01228            5800.00
01229            5800.00
01230            5800.00
01231            5800.00
01232            5800.00
01233            6000.00
01234            6000.00
01235            6200.00
01236            6000.00
01237            6200.00
01238            6200.00
01239            6200.00
01240            6400.00
01241            6200.00
01242            6200.00
01243            6600.00
01244            6400.00
01245            6600.00
01246            6200.00
01247            6600.00
01248            6600.00
01249            6600.00
01250            6600.00
01251            6600.00
01252            6600.00
01253            6600.00
01254            6600.00
01255            6600.00
01256            6600.00
01257            6600.00
01258            6800.00
01259            6800.00
01260            6600.00
01261            6600.00
01262            6600.00
01263            6600.00
01264            6600.00
01265            6600.00
01266            6600.00
01267            6200.00
01268            6600.00
01269            6600.00
01270            6400.00
01271            6600.00
01272            6200.00
01273            6600.00
01274            6200.00
01275            6200.00
01276            6200.00
01277            6000.00
01278            6000.00
01279            6000.00
01280            6000.00
01281            5800.00
01282            5800.00
01283            5800.00
01284            5800.00
01285            5600.00
01286            5400.00
01287            5600.00
01288            5400.00
01289            5200.00
01290            5200.00
01291            5200.00
01292            5200.00
01293            5000.00
01294            5000.00
01295            4600.00
01296            4600.00
01297            4400.00
01298            4400.00
01299            4400.00
01300            4400.00
01301            4200.00
01302            4200.00
01303            4000.00
01304            3800.00
01305            3800.00
01306            3800.00
01307            3800.00
01308            3600.00
01309            3400.00
01310            3400.00
01311            3000.00
01312            3000.00
01313            3000.00
01314            2800.00
01315            2800.00
01316            2600.00
01317            2600.00
01318            2600.00
01319            2200.00
01320            2200.00
01321            2000.00
01322            2000.00
01323            2000.00
01324            1800.00
01325            1800.00
01326            1400.00
01327            1200.00
01328            1200.00
01329            1000.00
01330            1000.00
01331            1000.00
01332             600.00
01333             600.00
01334             400.00
01335             400.00
01336             400.00
01337             200.00
01338             200.00
01339            -200.00
01340            -200.00
01341            -400.00
01342            -400.00
01343            -600.00
01344            -600.00
01345            -600.00
01346           -1000.00
01347           -1200.00
01348           -1200.00
01349           -1200.00
01350           -1200.00
01351           -1400.00
01352           -2000.00
01353           -1800.00
01354           -1800.00
01355           -2200.00
01356           -2200.00
01357           -2200.00
01358           -2400.00
01359           -2600.00
01360           -2800.00
01361           -2600.00
01362           -3000.00
01363           -3000.00
01364           -3000.00
01365           -3400.00
01366           -3400.00
01367           -3400.00
01368           -3600.00
01369           -3600.00
01370           -3800.00
01371           -3800.00
01372           -4200.00
01373           -4200.00
01374           -4200.00
01375           -4400.00
01376           -4400.00
01377           -4400.00
01378           -4400.00
01379           -4600.00
01380           -4600.00
01381           -5000.00
01382           -5000.00
01383           -5000.00
01384           -5200.00
01385           -5200.00
01386           -5200.00
01387           -5400.00
01388           -5400.00
01389           -5400.00
01390           -5400.00
01391           -5600.00
01392           -5800.00
01393           -5800.00
01394           -5800.00
01395           -5800.00
01396           -6000.00
01397           -6000.00
01398           -6000.00
01399           -6000.00
01400           -6000.00
01401           -6200.00
01402           -6200.00
01403           -6200.00
01404           -6200.00
01405           -6200.00
01406           -6200.00
01407           -6200.00
01408           -6600.00
01409           -6400.00
01410           -6600.00
01411           -6600.00
01412           -6600.00
01413           -6600.00
01414           -6800.00
01415           -6600.00
01416           -6600.00
01417           -6600.00
01418           -6600.00
01419           -6800.00
01420           -6600.00
01421           -6600.00
01422           -6600.00
01423           -6600.00
01424           -6600.00
01425           -6600.00
01426           -6600.00
01427           -6800.00
01428           -6800.00
01429           -6600.00
01430           -6600.00
01431           -6600.00
01432           -6600.00
01433           -6400.00
01434           -6600.00
01435           -6200.00
01436           -6200.00
01437           -6200.00
01438           -6200.00
01439           -6200.00
01440           -6200.00
01441           -6200.00
01442           -6000.00
01443           -6000.00
01444           -6000.00
01445           -6000.00
01446           -6000.00
01447           -6000.00
01448           -6000.00
01449           -5800.00
01450           -5800.00
01451           -5400.00
01452           -5400.00
01453           -5400.00
01454           -5400.00
01455           -5200.00
01456           -5400.00
01457           -5200.00
01458           -5000.00
01459           -5000.00
01460           -5000.00
01461           -4600.00
01462           -4800.00
01463           -4400.00
01464           -4600.00
01465           -4400.00
01466           -4200.00
01467           -4200.00
01468           -4200.00
01469           -3800.00
01470           -3800.00
01471           -3800.00
01472           -3800.00
01473           -3800.00
01474           -3600.00
01475           -3400.00
01476           -3400.00
01477           -3000.00
01478           -3000.00
01479           -2800.00
01480           -2800.00
01481           -2800.00
01482           -2600.00
01483           -2600.00
01484           -2400.00
01485           -2200.00
01486           -2200.00
01487           -2000.00
01488           -2000.00
01489           -1800.00
01490           -1600.00
01491           -1800.00
01492           -1600.00
01493           -1200.00
01494           -1200.00
01495           -1200.00
01496           -1000.00
01497            -800.00
01498            -600.00
01499            -600.00
01500            -600.00
01501            -400.00
01502            -200.00
01503            -200.00
01504             200.00
01505             200.00
01506             200.00
01507             200.00
01508             400.00
01509             600.00
01510             600.00
01511             600.00
01512            1000.00
01513            1200.00
01514            1200.00
01515            1400.00
01516            1400.00
01517            1600.00
01518            1800.00
01519            1800.00
01520            2000.00
01521            2000.00
01522            2200.00
01523            2200.00
01524            2600.00
01525            2600.00
01526            2600.00
01527            2800.00
01528            2800.00
01529            3000.00
01530            3000.00
01531            3400.00
01532            3400.00
01533            3600.00
01534            3600.00
01535            3600.00
01536            3800.00
01537            3800.00
01538            4200.00
01539            4200.00
01540            4200.00
01541            4200.00
01542            4400.00
01543            4400.00
01544            4600.00
01545            4600.00
01546            5000.00
01547            5000.00
01548            5000.00
01549            5200.00
01550            5000.00
01551            5200.00
01552            5200.00
01553            5200.00
01554            5400.00
01555            5200.00
01556            5400.00
01557            5400.00
01558            5800.00
01559            5800.00
01560            5800.00
01561            5800.00
01562            5800.00
01563            6000.00
01564            6000.00
01565            6000.00
01566            6000.00
01567            6200.00
01568            6200.00
01569            6200.00
01570            6200.00
01571            6400.00
01572            6400.00
01573            6600.00
01574            6600.00
01575            6200.00
01576            6600.00
01577            6600.00
01578            6600.00
01579            6600.00
01580            6600.00
01581            6600.00
01582            6600.00
01583            6600.00
01584            6600.00
01585            6600.00
01586            6800.00
01587            6600.00
01588            6600.00
01589            6600.00
01590            6600.00
01591            6600.00
01592            6600.00
01593            6600.00
01594            6600.00
01595            6600.00
01596            6600.00
01597            6600.00
01598            6600.00
01599            6200.00
01600            6400.00
01601            6200.00
01602            6200.00
01603            6200.00
01604            6400.00
01605            6200.00
01606            6000.00
01607            6000.00
01608            6200.00
01609            6000.00
01610            6000.00
01611            5800.00
01612            5800.00
01613            5800.00
01614            5800.00
01615            5800.00
01616            5600.00
01617            5400.00
01618            5400.00
01619            5400.00
01620            5200.00
01621            5200.00
01622            5200.00
01623            5200.00
01624            5000.00
01625            5000.00
01626            4800.00
01627            4600.00
01628            4600.00
01629            4600.00
01630            4400.00
01631            4400.00
01632            4200.00
01633            4200.00
01634            4200.00
01635            3800.00
01636            3800.00
01637            3600.00
01638            3600.00
01639            3600.00
01640            3600.00
01641            3400.00
01642            3400.00
01643            3000.00
01644            3000.00
01645            3000.00
01646            2800.00
01647            2600.00
01648            2600.00
01649            2600.00
01650            2400.00
01651            2200.00
01652            2000.00
01653            2000.00
01654            2000.00
01655            1800.00
01656            1800.00
01657            1800.00
01658            1400.00
01659            1200.00
01660            1000.00
01661            1200.00
01662            1000.00
01663             600.00
01664             600.00
01665             400.00
01666             400.00
01667             400.00
01668             200.00
01669             200.00
01670            -200.00
01671            -200.00
01672            -400.00
01673            -400.00
01674            -600.00
01675            -600.00
01676            -800.00
01677            -600.00
01678           -1000.00
01679           -1200.00
01680           -1200.00
01681           -1200.00
01682           -1400.00
01683           -1800.00
01684           -1800.00
01685           -2000.00
01686           -2000.00
01687           -2200.00
01688           -2200.00
01689           -2400.00
01690           -2600.00
01691           -2800.00
01692           -2800.00
01693           -2800.00
01694           -3000.00
01695           -3000.00
01696           -3000.00
01697           -3400.00
01698           -3600.00
01699           -3600.00
01700           -3800.00
01701           -3800.00
01702           -3800.00
01703           -3800.00
01704           -4200.00
01705           -4200.00
01706           -4400.00
01707           -4400.00
01708           -4400.00
01709           -4600.00
01710           -4600.00
01711           -4600.00
01712           -4800.00
01713           -5000.00
01714           -5000.00
01715           -5000.00
01716           -5200.00
01717           -5000.00
01718           -5400.00
01719           -5400.00
01720           -5400.00
01721           -5400.00
01722           -5600.00
01723           -5600.00
01724           -5800.00
01725           -5800.00
01726           -5800.00
01727           -6000.00
01728           -6000.00
01729           -6000.00
01730           -6000.00
01731           -6000.00
01732           -6000.00
01733           -6200.00
01734           -6200.00
01735           -6200.00
01736           -6200.00
01737           -6200.00
01738           -6400.00
01739           -6200.00
01740           -6400.00
01741           -6600.00
01742           -6200.00
01743           -6600.00
01744           -6600.00
01745           -6600.00
01746           -6600.00
01747           -6600.00
01748           -6600.00
01749           -6600.00
01750           -6600.00
01751           -6800.00
01752           -6600.00
01753           -6800.00
01754           -6600.00
01755           -6800.00
01756           -6600.00
01757           -6800.00
01758           -6800.00
01759           -6600.00
01760           -6600.00
01761           -6600.00
01762           -6600.00
01763           -6600.00
01764           -6600.00
01765           -6600.00
01766           -6200.00
01767           -6600.00
01768           -6400.00
01769           -6400.00
01770           -6200.00
01771           -6200.00
01772           -6200.00
01773           -6200.00
01774           -6000.00
01775           -6000.00
01776           -6000.00
01777           -6000.00
01778           -6000.00
01779           -5800.00
01780           -5800.00
01781           -5800.00
01782           -5400.00
01783           -5600.00
01784           -5400.00
01785           -5400.00
01786           -5200.00
01787           -5200.00
01788           -5200.00
01789           -5000.00
01790           -4600.00
01791           -4800.00
01792           -4800.00
01793           -4600.00
01794           -4600.00
01795           -4600.00
01796           -4400.00
01797           -4200.00
01798           -4200.00
01799           -4200.00
01800           -3800.00
01801           -3800.00
01802           -3800.00
01803           -3800.00
01804           -3600.00
01805           -3600.00
01806           -3600.00
01807           -3400.00
01808           -3400.00
01809           -3000.00
01810           -3000.00
01811           -2800.00
01812           -2800.00
01813           -2600.00
01814           -2600.00
01815           -2600.00
01816           -2200.00
01817           -2200.00
01818           -2000.00
01819           -2000.00
01820           -2000.00
01821           -1800.00
01822           -1400.00
01823           -1400.00
01824           -1400.00
01825           -1200.00
01826           -1200.00
01827           -1000.00
01828           -1000.00
01829           -1000.00
01830            -600.00
01831            -600.00
01832            -400.00
01833            -400.00
01834            -200.00
01835            -200.00
01836               0.00
01837             200.00
01838             400.00
01839             400.00
01840             400.00
01841             800.00
01842             600.00
01843            1000.00
01844            1000.00
01845            1200.00
01846            1200.00
01847            1400.00
01848            1400.00
01849            2000.00
01850            1800.00
01851            2000.00
01852            2000.00
01853            2200.00
01854            2200.00
01855            2600.00
01856            2600.00
01857            2600.00
01858            2800.00
01859            3000.00
01860            3000.00
01861            3000.00
01862            3400.00
01863            3400.00
01864            3600.00
01865            3600.00
01866            3600.00
01867            3600.00
01868            3800.00
01869            4000.00
01870            3800.00
01871            4200.00
01872            4200.00
01873            4400.00
01874            4400.00
01875            4400.00
01876            4600.00
01877            4600.00
01878            5000.00
01879            5000.00
01880            5000.00
01881            5200.00
01882            5200.00
01883            5200.00
01884            5200.00
01885            5400.00
01886            5400.00
01887            5400.00
01888            5400.00
01889            5600.00
01890            5800.00
01891            5800.00
01892            5800.00
01893            5800.00
01894            6000.00
01895            5800.00
01896            6000.00
01897            6000.00
01898            6200.00
01899            6000.00
01900            6200.00
01901            6200.00
01902            6400.00
01903            6200.00
01904            6200.00
01905            6600.00
01906            6600.00
01907            6400.00
01908            6600.00
01909            6600.00
01910            6600.00
01911            6600.00
01912            6600.00
01913            6600.00
01914            6600.00
01915            6600.00
01916            6600.00
01917            6600.00
01918            6600.00
01919            6800.00
01920            6800.00
01921            6600.00
01922            6600.00
01923            6600.00
01924            6600.00
01925            6600.00
01926            6600.00
01927            6600.00
01928            6600.00
01929            6200.00
01930            6600.00
01931            6200.00
01932            6600.00
01933            6400.00
01934            6200.00
01935            6400.00
01936            6200.00
01937            6200.00
01938            6200.00
01939            6200.00
01940            6000.00
01941            5800.00
01942            5800.00
01943            5800.00
01944            5800.00
01945            5800.00
01946            5800.00
01947            5800.00
01948            5400.00
01949            5400.00
01950            5200.00
01951            5200.00
01952            5200.00
01953            5200.00
01954            5200.00
01955            5000.00
01956            5000.00
01957            5000.00
01958            4600.00
01959            4600.00
01960            4400.00
01961            4400.00
01962            4400.00
01963            4200.00
01964            4200.00
01965            4200.00
01966            4000.00
01967            4000.00
01968            3800.00
01969            3600.00
01970            3600.00
01971            3600.00
01972            3400.00
01973            3400.00
01974            3400.00
01975            3000.00
01976            3000.00
01977            2800.00
01978            2800.00
01979            2600.00
01980            2600.00
01981            2200.00
01982            2200.00
01983            2200.00
01984            2000.00
01985            2000.00
01986            2000.00
01987            1800.00
01988            1400.00
01989            1400.00
01990            1400.00
01991            1200.00
01992            1200.00
01993            1000.00
01994            1000.00
01995             800.00
01996             600.00
01997             400.00
01998             400.00
01999             200.00
02000             200.00
02001               0.00
02002            -200.00
02003            -400.00
02004            -400.00
02005            -400.00
02006            -600.00
02007            -600.00
02008            -600.00
02009           -1000.00
02010           -1200.00
02011           -1200.00
02012           -1200.00
02013           -1200.00
02014           -1800.00
02015           -1800.00
02016           -2000.00
02017           -2000.00
02018           -2200.00
02019           -2400.00
02020           -2200.00
02021           -2600.00
02022           -2600.00
02023           -2800.00
02024           -2800.00
02025           -3000.00
02026           -3000.00
02027           -3000.00
02028           -3400.00
02029           -3400.00
02030           -3400.00
02031           -3600.00
02032           -3800.00
02033           -3800.00
02034           -3800.00
02035           -4200.00
02036           -4200.00
02037           -4200.00
02038           -4400.00
02039           -4400.00
02040           -4400.00
02041           -4400.00
02042           -4600.00
02043           -4600.00
02044           -4800.00
02045           -5000.00
02046           -5000.00
02047           -5200.00
02048           -5200.00
02049           -5200.00
02050           -5400.00
02051           -5400.00
02052           -5400.00
02053           -5600.00
02054           -5400.00
02055           -5600.00
02056           -5800.00
02057           -5800.00
02058           -6000.00
02059           -6000.00
02060           -6000.00
02061           -6000.00
02062           -6000.00
02063           -6000.00
02064           -6000.00
02065           -6200.00
02066           -6200.00
02067           -6200.00
02068           -6200.00
02069           -6400.00
02070           -6200.00
02071           -6400.00
02072           -6600.00
02073           -6400.00
02074           -6600.00
02075           -6600.00
02076           -6800.00
02077           -6600.00
02078           -6600.00
02079           -6600.00
02080           -6600.00
02081           -6800.00
02082           -6600.00
02083           -6800.00
02084           -6800.00
02085           -6600.00
02086           -6600.00
02087           -6800.00
02088           -6600.00
02089           -6800.00
02090           -6600.00
02091           -6600.00
02092           -6600.00
02093           -6600.00
02094           -6600.00
02095           -6600.00
02096           -6600.00
02097           -6400.00
02098           -6200.00
02099           -6200.00
02100           -6400.00
02101           -6200.00
02102           -6200.00
02103           -6200.00
02104           -6200.00
02105           -6200.00
02106           -6000.00
02107           -6000.00
02108           -6000.00
02109           -6000.00
02110           -5800.00
02111           -5800.00
02112           -5800.00
02113           -5800.00
02114           -5400.00
02115           -5400.00
02116           -5400.00
02117           -5200.00
02118           -5200.00
02119           -5200.00
02120           -5000.00
02121           -5000.00
02122           -5000.00
02123           -4800.00
02124           -4600.00
02125           -4600.00
02126           -4600.00
02127           -4400.00
02128           -4400.00
02129           -4400.00
02130           -4200.00
02131           -4000.00
02132           -3800.00
02133           -3800.00
02134           -3800.00
02135           -3600.00
02136           -3600.00
02137           -3400.00
02138           -3600.00
02139           -3400.00
02140           -3000.00
02141           -3000.00
02142           -3000.00
02143           -2800.00
02144           -2800.00
02145           -2600.00
02146           -2600.00
02147           -2400.00
02148           -2200.00
02149           -2200.00
02150           -2000.00
02151           -2000.00
02152           -2000.00
02153           -1800.00
02154           -1400.00
02155           -1400.00
02156           -1200.00
02157           -1200.00
02158           -1200.00
02159           -1000.00
02160           -1000.00
02161            -600.00
02162            -600.00
02163            -600.00
02164            -400.00
02165            -400.00
02166               0.00
02167               0.00
02168             200.00
02169             200.00
02170             400.00
02171             400.00
02172             800.00
02173             600.00
02174            1000.00
02175            1200.00
02176            1200.00
02177            1200.00
02178            1400.00
02179            1400.00
02180            1800.00
02181            2000.00
02182            2000.00
02183            2000.00
02184            2200.00
02185            2200.00
02186            2600.00
02187            2600.00
02188            2600.00
02189            2600.00
02190            2800.00
02191            3000.00
02192            3200.00
02193            3200.00
02194            3400.00
02195            3600.00
02196            3400.00
02197            3600.00
02198            3800.00
02199            3800.00
02200            3800.00
02201            4200.00
02202            4200.00
02203            4200.00
02204            4400.00
02205            4400.00
02206            4400.00
02207            4600.00
02208            4400.00
02209            5000.00
02210            5000.00
02211            5000.00
02212            5200.00
02213            5000.00
02214            5200.00
02215            5200.00
02216            5400.00
02217            5400.00
02218            5600.00
02219            5400.00
02220            5800.00
02221            5800.00
02222            5800.00
02223            5800.00
02224            5800.00
02225            5800.00
02226            6000.00
02227            6000.00
02228            6200.00
02229            6200.00
02230            6200.00
02231            6200.00
02232            6200.00
02233            6200.00
02234            6400.00
02235            6400.00
02236            6600.00
02237            6600.00
02238            6600.00
02239            6600.00
02240            6600.00
02241            6600.00
02242            6600.00
02243            6600.00
02244            6600.00
02245            6600.00
02246            6600.00
02247            6600.00
02248            6800.00
02249            6600.00
02250            6600.00
02251            6800.00
02252            6800.00
02253            6600.00
02254            6600.00
02255            6800.00
02256            6600.00
02257            6600.00
02258            6600.00
02259            6600.00
02260            6600.00
02261            6600.00
02262            6600.00
02263            6600.00
02264            6600.00
02265            6400.00
02266            6200.00
02267            6200.00
02268            6200.00
02269            6200.00
02270            6000.00
02271            6000.00
02272            6000.00
02273            5800.00
02274            5800.00
02275            5800.00
02276            5800.00
02277            5400.00
02278            5400.00
02279            5600.00
02280            5400.00
02281            5400.00
02282            5400.00
02283            5200.00
02284            5200.00
02285            5200.00
02286            5200.00
02287            5000.00
02288            4800.00
02289            4800.00
02290            4600.00
02291            4400.00
02292            4400.00
02293            4400.00
02294            4200.00
02295            4200.00
02296            4200.00
02297            3800.00
02298            4200.00
02299            3800.00
02300            3600.00
02301            3600.00
02302            3600.00
02303            3600.00
02304            3400.00
02305            3400.00
02306            3200.00
02307            3000.00
02308            2800.00
02309            2800.00
02310            2800.00
02311            2600.00
02312            2600.00
02313            2600.00
02314            2200.00
02315            2200.00
02316            2000.00
02317            2000.00
02318            1800.00
02319            1800.00
02320            1600.00
02321            1400.00
02322            1200.00
02323            1200.00
02324            1000.00
02325            1000.00
02326             600.00
02327             600.00
02328             600.00
02329             400.00
02330             400.00
02331             200.00
02332             200.00
02333            -200.00
02334            -200.00
02335            -400.00
02336            -600.00
02337            -600.00
02338           -1000.00
02339           -1000.00
02340           -1000.00
02341           -1200.00
02342           -1200.00
02343           -1200.00
02344           -1200.00
02345           -1600.00
02346           -1800.00
02347           -1800.00
02348           -1800.00
02349           -2200.00
02350           -2200.00
02351           -2200.00
02352           -2600.00
02353           -2600.00
02354           -2800.00
02355           -2800.00
02356           -3000.00
02357           -3000.00
02358           -3000.00
02359           -3000.00
02360           -3400.00
02361           -3600.00
02362           -3600.00
02363           -3600.00
02364           -3800.00
02365           -3800.00
02366           -4200.00
02367           -4200.00
02368           -4200.00
02369           -4400.00
02370           -4400.00
02371           -4400.00
02372           -4600.00
02373           -4600.00
02374           -4600.00
02375           -4800.00
02376           -5000.00
02377           -5000.00
02378           -5000.00
02379           -5200.00
02380           -5000.00
02381           -5200.00
02382           -5200.00
02383           -5400.00
02384           -5400.00
02385           -5600.00
02386           -5600.00
02387           -5800.00
02388           -5800.00
02389           -5800.00
02390           -6000.00
02391           -5800.00
02392           -6000.00
02393           -6200.00
02394           -6000.00
02395           -6200.00
02396           -6200.00
02397           -6200.00
02398           -6200.00
02399           -6200.00
02400           -6200.00
02401           -6600.00
02402           -6400.00
02403           -6600.00
02404           -6600.00
02405           -6600.00
02406           -6600.00
02407           -6600.00
02408           -6600.00
02409           -6600.00
02410           -6800.00
02411           -6800.00
02412           -6800.00
02413           -6800.00
02414           -6800.00
02415           -6600.00
02416           -6800.00
02417           -6800.00
02418           -6800.00
02419           -6800.00
02420           -6600.00
02421           -6600.00
02422           -6800.00
02423           -6600.00
02424           -6600.00
02425           -6600.00
02426           -6600.00
02427           -6600.00
02428           -6400.00
02429           -6600.00
02430           -6600.00
02431           -6400.00
02432           -6200.00
02433           -6200.00
02434           -6200.00
02435           -6200.00
02436           -6000.00
02437           -6000.00
02438           -6200.00
02439           -6000.00
02440           -6000.00
02441           -6000.00
02442           -5400.00
02443           -5800.00
02444           -5600.00
02445           -5800.00
02446           -5400.00
02447           -5400.00
02448           -5200.00
02449           -5200.00
02450           -5200.00
02451           -5000.00
02452           -5000.00
02453           -5000.00
02454           -4800.00
02455           -4600.00
02456           -4600.00
02457           -4600.00
02458           -4600.00
02459           -4400.00
02460           -4400.00
02461           -4200.00
02462           -4200.00
02463           -4000.00
02464           -3800.00
02465           -3800.00
02466           -3800.00
02467           -3600.00
02468           -3600.00
02469           -3600.00
02470           -3400.00
02471           -3200.00
02472           -3000.00
02473           -3000.00
02474           -2800.00
02475           -2800.00
02476           -2800.00
02477           -2600.00
02478           -2600.00
02479           -2600.00
02480           -2200.00
02481           -2000.00
02482           -2200.00
02483           -1800.00
02484           -1800.00
02485           -1800.00
02486           -1400.00
02487           -1400.00
02488           -1200.00
02489           -1200.00
02490           -1000.00
02491           -1000.00
02492            -600.00
02493            -600.00
02494            -400.00
02495            -200.00
02496            -200.00
02497            -200.00
02498             200.00
02499             200.00
02500             200.00
02501             400.00
02502             400.00
02503             600.00
02504             800.00
02505            1000.00
02506            1000.00
02507            1200.00
02508            1200.00
02509            1400.00
02510            1400.00
02511            1800.00
02512            2000.00
02513            1800.00
02514            2000.00
02515            2200.00
02516            2200.00
02517            2400.00
02518            2600.00
02519            2600.00
02520            2600.00
02521            2800.00
02522            3000.00
02523            3200.00
02524            3000.00
02525            3400.00
02526            3400.00
02527            3400.00
02528            3600.00
02529            3800.00
02530            3800.00
02531            3800.00
02532            4000.00
02533            4200.00
02534            4200.00
02535            4400.00
02536            4400.00
02537            4400.00
02538            4400.00
02539            4600.00
02540            5000.00
02541            4600.00
02542            5000.00
02543            5000.00
02544            5200.00
02545            5200.00
02546            5200.00
02547            5200.00
02548            5400.00
02549            5400.00
02550            5400.00
02551            5600.00
02552            5600.00
02553            5800.00
02554            5800.00
02555            5800.00
02556            6000.00
02557            5800.00
02558            6000.00
02559            6000.00
02560            6200.00
02561            6200.00
02562            6200.00
02563            6400.00
02564            6400.00
02565            6200.00
02566            6400.00
02567            6600.00
02568            6400.00
02569            6600.00
02570            6600.00
02571            6600.00
02572            6600.00
02573            6600.00
02574            6800.00
02575            6600.00
02576            6600.00
02577            6600.00
02578            6600.00
02579            6800.00
02580            6600.00
02581            6800.00
02582            6800.00
02583            6800.00
02584            6600.00
02585            6600.00
02586            6600.00
02587            6800.00
02588            6600.00
02589            6600.00
02590            6600.00
02591            6600.00
02592            6600.00
02593            6600.00
02594            6400.00
02595            6200.00
02596            6200.00
02597            6200.00
02598            6200.00
02599            6200.00
02600            6200.00
02601            6000.00
02602            6000.00
02603            6000.00
02604            6000.00
02605            5800.00
02606            5800.00
02607            5800.00
02608            5800.00
02609            5800.00
02610            5400.00
02611            5400.00
02612            5600.00
02613            5400.00
02614            5200.00
02615            5200.00
02616            5200.00
02617            5000.00
02618            5000.00
02619            5000.00
02620            4800.00
02621            4600.00
02622            4600.00
02623            4400.00
02624            4400.00
02625            4400.00
02626            4400.00
02627            4200.00
02628            4200.00
02629            4200.00
02630            3800.00
02631            3800.00
02632            3600.00
02633            3600.00
02634            3600.00
02635            3400.00
02636            3400.00
02637            3400.00
02638            3200.00
02639            3000.00
02640            2800.00
02641            2800.00
02642            2600.00
02643            2600.00
02644            2400.00
02645            2200.00
02646            2000.00
02647            2200.00
02648            2000.00
02649            2000.00
02650            1600.00
02651            1800.00
02652            1400.00
02653            1200.00
02654            1200.00
02655            1000.00
02656            1000.00
02657             800.00
02658             800.00
02659             600.00
02660             400.00
02661             400.00
02662             200.00
02663             200.00
02664            -200.00
02665            -200.00
02666            -400.00
02667            -400.00
02668            -400.00
02669            -600.00
02670            -600.00
02671           -1000.00
02672           -1200.00
02673           -1200.00
02674           -1200.00
02675           -1200.00
02676           -1400.00
02677           -1800.00
02678           -2000.00
02679           -1800.00
02680           -2000.00
02681           -2200.00
02682           -2200.00
02683           -2200.00
02684           -2600.00
02685           -2800.00
02686           -2600.00
02687           -2800.00
02688           -3000.00
02689           -3000.00
02690           -3000.00
02691           -3400.00
02692           -3400.00
02693           -3600.00
02694           -3600.00
02695           -3800.00
02696           -3800.00
02697           -3800.00
02698           -4000.00
02699           -4200.00
02700           -4400.00
02701           -4400.00
02702           -4400.00
02703           -4600.00
02704           -4600.00
02705           -4600.00
02706           -4800.00
02707           -5000.00
02708           -5000.00
02709           -5000.00
02710           -5200.00
02711           -5200.00
02712           -5200.00
02713           -5400.00
02714           -5400.00
02715           -5400.00
02716           -5400.00
02717           -5400.00
02718           -5800.00
02719           -5800.00
02720           -5800.00
02721           -6000.00
02722           -6000.00
02723           -5800.00
02724           -6000.00
02725           -6000.00
02726           -6200.00
02727           -6200.00
02728           -6200.00
02729           -6200.00
02730           -6200.00
02731           -6200.00
02732           -6600.00
02733           -6600.00
02734           -6600.00
02735           -6600.00
02736           -6600.00
02737           -6600.00
02738           -6600.00
02739           -6600.00
02740           -6800.00
02741           -6600.00
02742           -6600.00
02743           -6800.00
02744           -6800.00
02745           -6800.00
02746           -6800.00
02747           -6600.00
02748           -6800.00
02749           -6600.00
02750           -6800.00
02751           -6600.00
02752           -6600.00
02753           -6600.00
02754           -6600.00
02755           -6600.00
02756           -6600.00
02757           -6400.00
02758           -6600.00
02759           -6400.00
02760           -6400.00
02761           -6600.00
02762           -6200.00
02763           -6600.00
02764           -6200.00
02765           -6200.00
02766           -6200.00
02767           -6000.00
02768           -6200.00
02769           -6000.00
02770           -6000.00
02771           -6000.00
02772           -6000.00
02773           -5800.00
02774           -5800.00
02775           -5400.00
02776           -5400.00
02777           -5400.00
02778           -5400.00
02779           -5200.00
02780           -5400.00
02781           -5200.00
02782           -5200.00
02783           -5000.00
02784           -5000.00
02785           -5000.00
02786           -4600.00
02787           -4800.00
02788           -4600.00
02789           -4400.00
02790           -4400.00
02791           -4400.00
02792           -4400.00
02793           -4200.00
02794           -4000.00
02795           -4200.00
02796           -4200.00
02797           -3800.00
02798           -3600.00
02799           -3600.00
02800           -3600.00
02801           -3400.00
02802           -3200.00
02803           -3000.00
02804           -3000.00
02805           -2800.00
02806           -2800.00
02807           -2800.00
02808           -2600.00
02809           -2600.00
02810           -2200.00
02811           -2200.00
02812           -2200.00
02813           -2000.00
02814           -2000.00
02815           -2000.00
02816           -1600.00
02817           -1400.00
02818           -1400.00
02819           -1200.00
02820           -1200.00
02821           -1000.00
02822           -1000.00
02823            -800.00
02824            -600.00
02825            -600.00
02826            -400.00
02827            -400.00
02828            -200.00
02829             200.00
02830             200.00
02831             200.00
02832             400.00
02833             400.00
02834             600.00
02835             600.00
02836             800.00
02837            1000.00
02838            1200.00
02839            1400.00
02840            1400.00
02841            1400.00
02842            1800.00
02843            1800.00
02844            1800.00
02845            2000.00
02846            2000.00
02847            2200.00
02848            2200.00
02849            2600.00
02850            2600.00
02851            2600.00
02852            2800.00
02853            3000.00
02854            3000.00
02855            3000.00
02856            3000.00
02857            3400.00
02858            3400.00
02859            3600.00
02860            3600.00
02861            3600.00
02862            3800.00
02863            4000.00
02864            4200.00
02865            4200.00
02866            4200.00
02867            4400.00
02868            4400.00
02869            4400.00
02870            4600.00
02871            4600.00
02872            4800.00
02873            4800.00
02874            5000.00
02875            5000.00
02876            5200.00
02877            5200.00
02878            5200.00
02879            5200.00
02880            5400.00
02881            5400.00
02882            5600.00
02883            5600.00
02884            5800.00
02885            5800.00
02886            6000.00
02887            5800.00
02888            6000.00
02889            5800.00
02890            6000.00
02891            6000.00
02892            6000.00
02893            6200.00
02894            6200.00
02895            6200.00
02896            6200.00
02897            6200.00
02898            6600.00
02899            6600.00
02900            6600.00
02901            6600.00
02902            6600.00
02903            6600.00
02904            6600.00
02905            6600.00
02906            6600.00
02907            6600.00
02908            6800.00
02909            6600.00
02910            6800.00
02911            6800.00
02912            6800.00
02913            6600.00
02914            6600.00
02915            6600.00
02916            6600.00
02917            6600.00
02918            6800.00
02919            6600.00
02920            6600.00
02921            6600.00
02922            6600.00
02923            6600.00
02924            6200.00
02925            6400.00
02926            6400.00
02927            6200.00
02928            6200.00
02929            6200.00
02930            6200.00
02931            6000.00
02932            6000.00
02933            6000.00
02934            6000.00
02935            6000.00
02936            5800.00
02937            6000.00
02938            5800.00
02939            5600.00
02940            5800.00
02941            5600.00
02942            5400.00
02943            5400.00
02944            5400.00
02945            5200.00
02946            5200.00
02947            5200.00
02948            5200.00
02949            5000.00
02950            5000.00
02951            4800.00
02952            4800.00
02953            4600.00
02954            4600.00
02955            4400.00
02956            4400.00
02957            4200.00
02958            4200.00
02959            4200.00
02960            4200.00
02961            3800.00
02962            3800.00
02963            3600.00
02964            3800.00
02965            3600.00
02966            3600.00
02967            3400.00
02968            3400.00
02969            3000.00
02970            3000.00
02971            3000.00
02972            2800.00
02973            2600.00
02974            2600.00
02975            2600.00
02976            2400.00
02977            2200.00
02978            2000.00
02979            2000.00
02980            1800.00
02981            1800.00
02982            1400.00
02983            1600.00
02984            1400.00
02985            1200.00
02986            1000.00
02987            1000.00
02988             600.00
02989             600.00
02990             400.00
02991             400.00
02992             400.00
02993             200.00
02994             200.00
02995            -200.00
02996            -200.00
02997            -400.00
02998            -400.00
02999            -400.00
03000            -600.00
03001            -600.00
03002            -600.00
03003           -1200.00
03004           -1200.00
03005           -1400.00
03006           -1200.00
03007           -1400.00
03008           -1800.00
03009           -2000.00
03010           -1800.00
03011           -2000.00
03012           -2200.00
03013           -2400.00
03014           -2200.00
03015           -2200.00
03016           -2800.00
03017           -2600.00
03018           -2800.00
03019           -2800.00
03020           -3000.00
03021           -3000.00
03022           -3200.00
03023           -3400.00
03024           -3600.00
03025           -3600.00
03026           -3800.00
03027           -3800.00
03028           -3800.00
03029           -3800.00
03030           -4000.00
03031           -4200.00
03032           -4200.00
03033           -4400.00
03034           -4400.00
03035           -4400.00
03036           -4600.00
03037           -4600.00
03038           -4600.00
03039           -4800.00
03040           -5000.00
03041           -5200.00
03042           -5200.00
03043           -5200.00
03044           -5400.00
03045           -5400.00
03046           -5400.00
03047           -5400.00
03048           -5400.00
03049           -5600.00
03050           -5800.00
03051           -5800.00
03052           -5800.00
03053           -6000.00
03054           -6000.00
03055           -6000.00
03056           -6200.00
03057           -6200.00
03058           -6200.00
03059           -6200.00
03060           -6200.00
03061           -6600.00
03062           -6200.00
03063           -6200.00
03064           -6400.00
03065           -6800.00
03066           -6600.00
03067           -6400.00
03068           -6600.00
03069           -6600.00
03070           -6600.00
03071           -6600.00
03072           -6600.00
03073           -6600.00
03074           -6800.00
03075           -6800.00
03076           -6800.00
03077           -6800.00
03078           -6800.00
03079           -6600.00
03080           -6800.00
03081           -6600.00
03082           -6600.00
03083           -6600.00
03084           -6800.00
03085           -6600.00
03086           -6600.00
03087           -6600.00
03088           -6600.00
03089           -6200.00
03090           -6600.00
03091           -6200.00
03092           -6200.00
03093           -6200.00
03094           -6200.00
03095           -6000.00
03096           -6200.00
03097           -6000.00
03098           -6200.00
03099           -6000.00
03100           -6000.00
03101           -6000.00
03102           -6000.00
03103           -5800.00
03104           -6000.00
03105           -5600.00
03106           -5800.00
03107           -5600.00
03108           -5400.00
03109           -5400.00
03110           -5400.00
03111           -5400.00
03112           -5200.00
03113           -5200.00
03114           -5200.00
03115           -5000.00
03116           -4800.00
03117           -4800.00
03118           -4600.00
03119           -4600.00
03120           -4600.00
03121           -4600.00
03122           -4400.00
03123           -4400.00
03124           -4400.00
03125           -4200.00
03126           -4200.00
03127           -3800.00
03128           -3800.00
03129           -3800.00
03130           -3600.00
03131           -3600.00
03132           -3400.00
03133           -3400.00
03134           -3400.00
03135           -3000.00
03136           -3000.00
03137           -3000.00
03138           -2800.00
03139           -2600.00
03140           -2600.00
03141           -2400.00
03142           -2200.00
03143           -2200.00
03144           -2000.00
03145           -1800.00
03146           -1800.00
03147           -1800.00
03148           -1400.00
03149           -1400.00
03150           -1400.00
03151           -1200.00
03152           -1200.00
03153           -1000.00
03154            -600.00
03155            -600.00
03156            -600.00
03157            -400.00
03158            -400.00
03159            -200.00
03160            -200.00
03161             200.00
03162             200.00
03163             400.00
03164             400.00
03165             400.00
03166             400.00
03167             800.00
03168            1000.00
03169            1000.00
03170            1200.00
03171            1200.00
03172            1400.00
03173            1800.00
03174            1800.00
03175            1800.00
03176            2000.00
03177            2000.00
03178            2200.00
03179            2200.00
03180            2400.00
03181            2600.00
03182            2600.00
03183            2800.00
03184            2800.00
03185            3000.00
03186            3000.00
03187            3000.00
03188            3400.00
03189            3400.00
03190            3400.00
03191            3600.00
03192            3600.00
03193            3800.00
03194            3800.00
03195            4000.00
03196            4200.00
03197            4200.00
03198            4400.00
03199            4400.00
03200            4600.00
03201            4400.00
03202            4600.00
03203            4800.00
03204            5000.00
03205            5000.00
03206            5200.00
03207            5200.00
03208            5200.00
03209            5200.00
03210            5400.00
03211            5400.00
03212            5400.00
03213            5600.00
03214            5800.00
03215            5800.00
03216            5800.00
03217            5800.00
03218            5800.00
03219            5800.00
03220            6000.00
03221            6200.00
03222            6200.00
03223            6200.00
03224            6200.00
03225            6200.00
03226            6200.00
03227            6200.00
03228            6600.00
03229            6600.00
03230            6600.00
03231            6600.00
03232            6600.00
03233            6600.00
03234            6600.00
03235            6600.00
03236            6600.00
03237            6600.00
03238            6600.00
03239            6600.00
03240            6600.00
03241            6800.00
03242            6800.00
03243            6600.00
03244            6600.00
03245            6600.00
03246            6800.00
03247            6600.00
03248            6600.00
03249            6600.00
03250            6600.00
03251            6600.00
03252            6600.00
03253            6600.00
03254            6600.00
03255            6600.00
03256            6200.00
03257            6400.00
03258            6200.00
03259            6200.00
03260            6200.00
03261            6400.00
03262            6000.00
03263            6200.00
03264            6200.00
03265            6000.00
03266            6000.00
03267            6000.00
03268            5800.00
03269            5800.00
03270            5800.00
03271            5800.00
03272            5800.00
03273            5400.00
03274            5400.00
03275            5400.00
03276            5400.00
03277            5200.00
03278            5200.00
03279            5200.00
03280            5200.00
03281            5000.00
03282            5000.00
03283            4600.00
03284            4600.00
03285            4600.00
03286            4600.00
03287            4400.00
03288            4400.00
03289            4400.00
03290            4200.00
03291            4200.00
03292            4200.00
03293            3800.00
03294            3800.00
03295            3600.00
03296            3600.00
03297            3400.00
03298            3400.00
03299            3400.00
03300            3000.00
03301            3000.00
03302            2800.00
03303            2800.00
03304            2600.00
03305            2600.00
03306            2600.00
03307            2200.00
03308            2200.00
03309            2200.00
03310            2000.00
03311            1800.00
03312            1800.00
03313            1800.00
03314            1600.00
03315            1200.00
03316            1200.00
03317            1000.00
03318            1000.00
03319            1000.00
03320             800.00
03321             400.00
03322             400.00
03323             400.00
03324             200.00
03325             200.00
03326               0.00
03327            -200.00
03328            -200.00
03329            -600.00
03330            -600.00
03331            -600.00
03332            -600.00
03333           -1000.00
03334           -1200.00
03335           -1200.00
03336           -1400.00
03337           -1400.00
03338           -1400.00
03339           -1600.00
03340           -1800.00
03341           -2000.00
03342           -2000.00
03343           -2000.00
03344           -2200.00
03345           -2200.00
03346           -2400.00
03347           -2600.00
03348           -2800.00
03349           -2600.00
03350           -2800.00
03351           -3000.00
03352           -3000.00
03353           -3200.00
03354           -3400.00
03355           -3400.00
03356           -3600.00
03357           -3600.00
03358           -3800.00
03359           -3800.00
03360           -3800.00
03361           -3800.00
03362           -4200.00
03363           -4400.00
03364           -4400.00
03365           -4400.00
03366           -4600.00
03367           -4600.00
03368           -4600.00
03369           -5000.00
03370           -4800.00
03371           -5000.00
03372           -5000.00
03373           -5200.00
03374           -5200.00
03375           -5200.00
03376           -5200.00
03377           -5400.00
03378           -5400.00
03379           -5600.00
03380           -5600.00
03381           -6000.00
03382           -5800.00
03383           -6000.00
03384           -6000.00
03385           -6000.00
03386           -6000.00
03387           -6200.00
03388           -6200.00
03389           -6200.00
03390           -6200.00
03391           -6200.00
03392           -6200.00
03393           -6600.00
03394           -6600.00
03395           -6600.00
03396           -6400.00
03397           -6600.00
03398           -6600.00
03399           -6600.00
03400           -6600.00
03401           -6600.00
03402           -6600.00
03403           -6600.00
03404           -6600.00
03405           -6600.00
03406           -6800.00
03407           -6600.00
03408           -6600.00
03409           -6600.00
03410           -6600.00
03411           -6600.00
03412           -6600.00
03413           -6600.00
03414           -6800.00
03415           -6600.00
03416           -6600.00
03417           -6600.00
03418           -6200.00
03419           -6600.00
03420           -6200.00
03421           -6200.00
03422           -6600.00
03423           -6200.00
03424           -6200.00
03425           -6200.00
03426           -6200.00
03427           -6200.00
03428           -6200.00
03429           -6200.00
03430           -6000.00
03431           -6000.00
03432           -6000.00
03433           -6000.00
03434           -6000.00
03435           -5800.00
03436           -5800.00
03437           -5800.00
03438           -5800.00
03439           -5400.00
03440           -5400.00
03441           -5400.00
03442           -5200.00
03443           -5400.00
03444           -5200.00
03445           -5200.00
03446           -5200.00
03447           -5000.00
03448           -5000.00
03449           -4800.00
03450           -4600.00
03451           -4400.00
03452           -4400.00
03453           -4400.00
03454           -4400.00
03455           -4400.00
03456           -4200.00
03457           -4000.00
03458           -4200.00
03459           -3800.00
03460           -3800.00
03461           -3600.00
03462           -3600.00
03463           -3400.00
03464           -3400.00
03465           -3000.00
03466           -3000.00
03467           -3000.00
03468           -3000.00
03469           -2800.00
03470           -2600.00
03471           -2600.00
03472           -2400.00
03473           -2200.00
03474           -2200.00
03475           -2200.00
03476           -2000.00
03477           -1800.00
03478           -1800.00
03479           -1400.00
03480           -1400.00
03481           -1400.00
03482           -1200.00
03483           -1000.00
03484            -800.00
03485            -600.00
03486            -600.00
03487            -600.00
03488            -400.00
03489            -400.00
03490            -200.00
03491            -200.00
03492             200.00
03493             200.00
03494             200.00
03495             400.00
03496             600.00
03497             600.00
03498             600.00
03499            1000.00
03500            1000.00
03501            1200.00
03502            1200.00
03503            1400.00
03504            1600.00
03505            1800.00
03506            1800.00
03507            1800.00
03508            1800.00
03509            2200.00
03510            2200.00
03511            2200.00
03512            2600.00
03513            2600.00
03514            2600.00
03515            2800.00
03516            3000.00
03517            3000.00
03518            3000.00
03519            3400.00
03520            3400.00
03521            3400.00
03522            3400.00
03523            3600.00
03524            3600.00
03525            3800.00
03526            4000.00
03527            4000.00
03528            4200.00
03529            4200.00
03530            4200.00
03531            4400.00
03532            4400.00
03533            4600.00
03534            4600.00
03535            4800.00
03536            5000.00
03537            5000.00
03538            5200.00
03539            5200.00
03540            5200.00
03541            5200.00
03542            5400.00
03543            5400.00
03544            5400.00
03545            5800.00
03546            5800.00
03547            5800.00
03548            5800.00
03549            5800.00
03550            6000.00
03551            6000.00
03552            6000.00
03553            6000.00
03554            6000.00
03555            6200.00
03556            6200.00
03557            6200.00
03558            6200.00
03559            6200.00
03560            6600.00
03561            6600.00
03562            6400.00
03563            6600.00
03564            6600.00
03565            6600.00
03566            6600.00
03567            6600.00
03568            6600.00
03569            6600.00
03570            6600.00
03571            6600.00
03572            6600.00
03573            6600.00
03574            6600.00
03575            6600.00
03576            6800.00
03577            6600.00
03578            6600.00
03579            6600.00
03580            6600.00
03581            6600.00
03582            6600.00
03583            6600.00
03584            6600.00
03585            6600.00
03586            6400.00
03587            6200.00
03588            6400.00
03589            6200.00
03590            6200.00
03591            6200.00
03592            6000.00
03593            6200.00
03594            6000.00
03595            6000.00
03596            6000.00
03597            6000.00
03598            5800.00
03599            5800.00
03600            5800.00
03601            5800.00
03602            5800.00
03603            5800.00
03604            5800.00
03605            5600.00
03606            5400.00
03607            5400.00
03608            5200.00
03609            5200.00
03610            5200.00
03611            5200.00
03612            5000.00
03613            4800.00
03614            5000.00
03615            4600.00
03616            4800.00
03617            4600.00
03618            4400.00
03619            4400.00
03620            4200.00
03621            4200.00
03622            4000.00
03623            4000.00
03624            4200.00
03625            3800.00
03626            3800.00
03627            3600.00
03628            3400.00
03629            3400.00
03630            3400.00
03631            3000.00
03632            3200.00
03633            3000.00
03634            2800.00
03635            2800.00
03636            2600.00
03637            2600.00
03638            2200.00
03639            2200.00
03640            2000.00
03641            2000.00
03642            1800.00
03643            1800.00
03644            1800.00
03645            1400.00
03646            1400.00
03647            1200.00
03648            1200.00
03649            1000.00
03650             800.00
03651             600.00
03652             600.00
03653             400.00
03654             400.00
03655             200.00
03656             200.00
03657             200.00
03658               0.00
03659            -200.00
03660            -400.00
03661            -400.00
03662            -600.00
03663            -600.00
03664           -1000.00
03665           -1000.00
03666           -1200.00
03667           -1200.00
03668           -1400.00
03669           -1200.00
03670           -1400.00
03671           -1800.00
03672           -1800.00
03673           -2000.00
03674           -2000.00
03675           -2200.00
03676           -2200.00
03677           -2200.00
03678           -2600.00
03679           -2800.00
03680           -2600.00
03681           -2800.00
03682           -3000.00
03683           -3000.00
03684           -3000.00
03685           -3200.00
03686           -3400.00
03687           -3600.00
03688           -3600.00
03689           -3800.00
03690           -3800.00
03691           -4000.00
03692           -4200.00
03693           -3800.00
03694           -4200.00
03695           -4200.00
03696           -4400.00
03697           -4400.00
03698           -4400.00
03699           -4600.00
03700           -4600.00
03701           -5000.00
03702           -5000.00
03703           -5000.00
03704           -5200.00
03705           -5200.00
03706           -5400.00
03707           -5400.00
03708           -5400.00
03709           -5400.00
03710           -5400.00
03711           -5800.00
03712           -5800.00
03713           -6000.00
03714           -6000.00
03715           -6000.00
03716           -6000.00
03717           -6000.00
03718           -6200.00
03719           -6200.00
03720           -6200.00
03721           -6200.00
03722           -6200.00
03723           -6400.00
03724           -6400.00
03725           -6200.00
03726           -6600.00
03727           -6600.00
03728           -6600.00
03729           -6600.00
03730           -6600.00
03731           -6600.00
03732           -6600.00
03733           -6600.00
03734           -6800.00
03735           -6600.00
03736           -6800.00
03737           -6600.00
03738           -6600.00
03739           -6600.00
03740           -6600.00
03741           -6600.00
03742           -6800.00
03743           -6600.00
03744           -6600.00
03745           -6600.00
03746           -6800.00
03747           -6600.00
03748           -6400.00
03749           -6600.00
03750           -6600.00
03751           -6400.00
03752           -6600.00
03753           -6200.00
03754           -6200.00
03755           -6200.00
03756           -6400.00
03757           -6200.00
03758           -6200.00
03759           -6200.00
03760           -6200.00
03761           -6000.00
03762           -6000.00
03763           -6000.00
03764           -6000.00
03765           -6000.00
03766           -5800.00
03767           -5800.00
03768           -5800.00
03769           -5400.00
03770           -5800.00
03771           -5400.00
03772           -5400.00
03773           -5400.00
03774           -5200.00
03775           -5200.00
03776           -5200.00
03777           -5000.00
03778           -5200.00
03779           -4800.00
03780           -5000.00
03781           -4600.00
03782           -4800.00
03783           -4600.00
03784           -4400.00
03785           -4400.00
03786           -4400.00
03787           -4200.00
03788           -4200.00
03789           -4000.00
03790           -3800.00
03791           -3600.00
03792           -3800.00
03793           -3600.00
03794           -3600.00
03795           -3400.00
03796           -3400.00
03797           -3000.00
03798           -2800.00
03799           -3000.00
03800           -2800.00
03801           -2600.00
03802           -2600.00
03803           -2400.00
03804           -2200.00
03805           -2400.00
03806           -2000.00
03807           -2000.00
03808           -1800.00
03809           -1800.00
03810           -1600.00
03811           -1400.00
03812           -1400.00
03813           -1200.00
03814           -1000.00
03815           -1000.00
03816            -800.00
03817            -600.00
03818            -600.00
03819            -400.00
03820            -400.00
03821            -400.00
03822               0.00
03823            -200.00
03824             200.00
03825             200.00
03826             400.00
03827             400.00
03828             600.00
03829            1000.00
03830            1000.00
03831            1000.00
03832            1200.00
03833            1200.00
03834            1200.00
03835            1400.00
03836            1600.00
03837            1600.00
03838            1800.00
03839            1800.00
03840            2000.00
03841            2200.00
03842            2200.00
03843            2200.00
03844            2600.00
03845            2600.00
03846            2600.00
03847            2800.00
03848            3000.00
03849            3000.00
03850            3000.00
03851            3200.00
03852            3400.00
03853            3400.00
03854            3600.00
03855            3600.00
03856            3800.00
03857            3800.00
03858            4200.00
03859            4200.00
03860            4200.00
03861            4200.00
03862            4400.00
03863            4400.00
03864            4600.00
03865            4600.00
03866            5000.00
03867            5000.00
03868            5000.00
03869            5200.00
03870            5200.00
03871            5200.00
03872            5200.00
03873            5400.00
03874            5400.00
03875            5400.00
03876            5800.00
03877            5800.00
03878            5800.00
03879            5800.00
03880            6000.00
03881            6000.00
03882            6000.00
03883            6000.00
03884            6000.00
03885            6200.00
03886            6200.00
03887            6200.00
03888            6200.00
03889            6200.00
03890            6600.00
03891            6200.00
03892            6600.00
03893            6400.00
03894            6600.00
03895            6600.00
03896            6600.00
03897            6600.00
03898            6600.00
03899            6600.00
03900            6600.00
03901            6600.00
03902            6600.00
03903            6600.00
03904            6600.00
03905            6600.00
03906            6600.00
03907            6600.00
03908            6600.00
03909            6600.00
03910            6600.00
03911            6600.00
03912            6600.00
03913            6600.00
03914            6600.00
03915            6600.00
03916            6600.00
03917            6600.00
03918            6200.00
03919            6600.00
03920            6400.00
03921            6200.00
03922            6200.00
03923            6200.00
03924            6200.00
03925            6000.00
03926            6200.00
03927            6200.00
03928            6000.00
03929            6000.00
03930            6000.00
03931            5800.00
03932            5800.00
03933            5800.00
03934            5800.00
03935            5800.00
03936            5400.00
03937            5400.00
03938            5400.00
03939            5400.00
03940            5400.00
03941            5200.00
03942            5200.00
03943            5000.00
03944            5000.00
03945            5000.00
03946            5000.00
03947            4600.00
03948            4600.00
03949            4600.00
03950            4400.00
03951            4400.00
03952            4200.00
03953            4200.00
03954            4200.00
03955            4200.00
03956            3800.00
03957            3800.00
03958            3600.00
03959            3600.00
03960            3400.00
03961            3400.00
03962            3400.00
03963            3000.00
03964            3000.00
03965            2800.00
03966            2600.00
03967            2600.00
03968            2600.00
03969            2400.00
03970            2200.00
03971            2200.00
03972            2000.00
03973            2000.00
03974            1800.00
03975            1800.00
03976            1400.00
03977            1400.00
03978            1200.00
03979            1200.00
03980            1000.00
03981            1000.00
03982             600.00
03983             600.00
03984             600.00
03985             400.00
03986             200.00
03987             200.00
03988               0.00
03989            -200.00
03990            -200.00
03991            -400.00
03992            -400.00
03993            -600.00
03994            -600.00
03995            -600.00
03996            -600.00
03997           -1000.00
03998           -1200.00
03999           -1400.00
04000           -1200.00
04001           -1200.00
04002           -1800.00
04003           -1800.00
04004           -1800.00
04005           -2000.00
04006           -2200.00
04007           -2200.00
04008           -2200.00
04009           -2200.00
04010           -2600.00
04011           -2600.00
04012           -2800.00
04013           -3000.00
04014           -3000.00
04015           -3000.00
04016           -3000.00
04017           -3400.00
04018           -3400.00
04019           -3600.00
04020           -3600.00
04021           -3800.00
04022           -3800.00
04023           -4000.00
04024           -3800.00
04025           -4200.00
04026           -4400.00
04027           -4400.00
04028           -4400.00
04029           -4400.00
04030           -4600.00
04031           -5000.00
04032           -5000.00
04033           -5000.00
04034           -5000.00
04035           -5200.00
04036           -5400.00
04037           -5200.00
04038           -5400.00
04039           -5400.00
04040           -5400.00
04041           -5800.00
04042           -5800.00
04043           -5800.00
04044           -6000.00
04045           -5800.00
04046           -6000.00
04047           -6000.00
04048           -6000.00
04049           -6000.00
04050           -6200.00
04051           -6200.00
04052           -6200.00
04053           -6200.00
04054           -6200.00
04055           -6200.00
04056           -6200.00
04057           -6400.00
04058           -6400.00
04059           -6600.00
04060           -6400.00
04061           -6600.00
04062           -6600.00
04063           -6600.00
04064           -6600.00
04065           -6600.00
04066           -6600.00
04067           -6600.00
04068           -6600.00
04069           -6600.00
04070           -6600.00
04071           -6600.00
04072           -6600.00
04073           -6600.00
04074           -6800.00
04075           -6600.00
04076           -6800.00
04077           -6600.00
04078           -6600.00
04079           -6600.00
04080           -6600.00
04081           -6200.00
04082           -6600.00
04083           -6600.00
04084           -6400.00
04085           -6200.00
04086           -6400.00
04087           -6200.00
04088           -6200.00
04089           -6200.00
04090           -6200.00
04091           -6200.00
04092           -6200.00
04093           -6000.00
04094           -6000.00
04095           -6000.00
04096           -6000.00
04097           -5800.00
04098           -6000.00
04099           -6000.00
04100           -5800.00
04101           -5600.00
04102           -5400.00
04103           -5600.00
04104           -5400.00
04105           -5400.00
04106           -5200.00
04107           -5200.00
04108           -5200.00
04109           -5200.00
04110           -5000.00
04111           -5000.00
04112           -4600.00
04113           -4600.00
04114           -4600.00
04115           -4400.00
04116           -4400.00
04117           -4400.00
04118           -4200.00
04119           -4000.00
04120           -4200.00
04121           -3800.00
04122           -3800.00
04123           -3800.00
04124           -3600.00
04125           -3600.00
04126           -3400.00
04127           -3400.00
04128           -3000.00
04129           -3000.00
04130           -3000.00
04131           -2800.00
04132           -2800.00
04133           -2600.00
04134           -2600.00
04135           -2600.00
04136           -2200.00
04137           -2200.00
04138           -2000.00
04139           -2000.00
04140           -1800.00
04141           -1600.00
04142           -1400.00
04143           -1200.00
04144           -1200.00
04145           -1200.00
04146           -1000.00
04147            -800.00
04148            -600.00
04149            -600.00
04150            -600.00
04151            -400.00
04152            -200.00
04153            -200.00
04154               0.00
04155             200.00
04156             200.00
04157             400.00
04158             400.00
04159             400.00
04160             600.00
04161             800.00
04162            1000.00
04163            1000.00
04164            1200.00
04165            1400.00
04166            1400.00
04167            1400.00
04168            1800.00
04169            1800.00
04170            2000.00
04171            2000.00
04172            2000.00
04173            2200.00
04174            2400.00
04175            2600.00
04176            2600.00
04177            2600.00
04178            2800.00
04179            3000.00
04180            3000.00
04181            3200.00
04182            3400.00
04183            3600.00
04184            3400.00
04185            3600.00
04186            3800.00
04187            3800.00
04188            3800.00
04189            4200.00
04190            4200.00
04191            4200.00
04192            4400.00
04193            4400.00
04194            4400.00
04195            4400.00
04196            4600.00
04197            5000.00
04198            5000.00
04199            5000.00
04200            5200.00
04201            5200.00
04202            5200.00
04203            5400.00
04204            5400.00
04205            5400.00
04206            5400.00
04207            5800.00
04208            5800.00
04209            5800.00
04210            5800.00
04211            5800.00
04212            5800.00
04213            5800.00
04214            6000.00
04215            6000.00
04216            6200.00
04217            6200.00
04218            6200.00
04219            6200.00
04220            6200.00
04221            6400.00
04222            6200.00
04223            6600.00
04224            6600.00
04225            6600.00
04226            6600.00
04227            6600.00
04228            6600.00
04229            6600.00
04230            6600.00
04231            6600.00
04232            6600.00
04233            6600.00
04234            6600.00
04235            6600.00
04236            6600.00
04237            6600.00
04238            6600.00
04239            6600.00
04240            6600.00
04241            6600.00
04242            6600.00
04243            6600.00
04244            6600.00
04245            6600.00
04246            6600.00
04247            6600.00
04248            6200.00
04249            6400.00
04250            6600.00
04251            6400.00
04252            6200.00
04253            6200.00
04254            6200.00
04255            6200.00
04256            6200.00
04257            6000.00
04258            6000.00
04259            6000.00
04260            6000.00
04261            6000.00
04262            5800.00
04263            6000.00
04264            5800.00
04265            5800.00
04266            5800.00
04267            5400.00
04268            5600.00
04269            5400.00
04270            5400.00
04271            5200.00
04272            5200.00
04273            5200.00
04274            5000.00
04275            5000.00
04276            5000.00
04277            4800.00
04278            4800.00
04279            4400.00
04280            4600.00
04281            4400.00
04282            4400.00
04283            4400.00
04284            4200.00
04285            4000.00
04286            4000.00
04287            3800.00
04288            3600.00
04289            3600.00
04290            3600.00
04291            3400.00
04292            3400.00
04293            3400.00
04294            3200.00
04295            2800.00
04296            2800.00
04297            2600.00
04298            2600.00
04299            2600.00
04300            2600.00
04301            2200.00
04302            2200.00
04303            2200.00
04304            1800.00
04305            1800.00
04306            1800.00
04307            1400.00
04308            1400.00
04309            1200.00
04310            1200.00
04311            1200.00
04312            1000.00
04313             800.00
04314             600.00
04315             600.00
04316             600.00
04317             400.00
04318             200.00
04319             200.00
04320             200.00
04321               0.00
04322            -400.00
04323            -400.00
04324            -400.00
04325            -600.00
04326            -600.00
04327           -1000.00
04328           -1000.00
04329           -1200.00
04330           -1200.00
04331           -1200.00
04332           -1200.00
04333           -1600.00
04334           -1800.00
04335           -1800.00
04336           -1800.00
04337           -2200.00
04338           -2200.00
04339           -2200.00
04340           -2200.00
04341           -2600.00
04342           -2600.00
04343           -2600.00
04344           -2800.00
04345           -3000.00
04346           -3000.00
04347           -3000.00
04348           -3200.00
04349           -3600.00
04350           -3600.00
04351           -3600.00
04352           -3800.00
04353           -3800.00
04354           -3800.00
04355           -4200.00
04356           -4200.00
04357           -4200.00
04358           -4400.00
04359           -4400.00
04360           -4600.00
04361           -4600.00
04362           -4800.00
04363           -4800.00
04364           -5000.00
04365           -5000.00
04366           -5200.00
04367           -5400.00
04368           -5200.00
04369           -5400.00
04370           -5400.00
04371           -5400.00
04372           -5600.00
04373           -5800.00
04374           -5600.00
04375           -5800.00
04376           -5800.00
04377           -5800.00
04378           -6000.00
04379           -6000.00
04380           -6000.00
04381           -6000.00
04382           -6000.00
04383           -6200.00
04384           -6200.00
04385           -6200.00
04386           -6200.00
04387           -6200.00
04388           -6200.00
04389           -6400.00
04390           -6400.00
04391           -6600.00
04392           -6600.00
04393           -6600.00
04394           -6600.00
04395           -6600.00
04396           -6600.00
04397           -6600.00
04398           -6600.00
04399           -6600.00
04400           -6600.00
04401           -6600.00
04402           -6600.00
04403           -6600.00
04404           -6600.00
04405           -6600.00
04406           -6600.00
04407           -6600.00
04408           -6600.00
04409           -6600.00
04410           -6400.00
04411           -6600.00
04412           -6600.00
04413           -6200.00
04414           -6600.00
04415           -6600.00
04416           -6200.00
04417           -6200.00
04418           -6200.00
04419           -6200.00
04420           -6200.00
04421           -6200.00
04422           -6000.00
04423           -6200.00
04424           -6200.00
04425           -6000.00
04426           -6000.00
04427           -5800.00
04428           -6000.00
04429           -6000.00
04430           -5800.00
04431           -5800.00
04432           -5800.00
04433           -5600.00
04434           -5400.00
04435           -5400.00
04436           -5200.00
04437           -5200.00
04438           -5200.00
04439           -5200.00
04440           -5200.00
04441           -5000.00
04442           -5000.00
04443           -4600.00
04444           -4600.00
04445           -4600.00
04446           -4400.00
04447           -4400.00
04448           -4400.00
04449           -4200.00
04450           -4200.00
04451           -4200.00
04452           -3800.00
04453           -3800.00
04454           -3800.00
04455           -3800.00
04456           -3600.00
04457           -3600.00
04458           -3400.00
04459           -3000.00
04460           -3000.00
04461           -3000.00
04462           -2800.00
04463           -2600.00
04464           -2600.00
04465           -2600.00
04466           -2200.00
04467           -2200.00
04468           -2200.00
04469           -2200.00
04470           -2000.00
04471           -1800.00
04472           -1600.00
04473           -1400.00
04474           -1400.00
04475           -1200.00
04476           -1200.00
04477           -1000.00
04478           -1000.00
04479            -600.00
04480            -600.00
04481            -600.00
04482            -400.00
04483            -400.00
04484            -200.00
04485            -200.00
04486             200.00
04487             200.00
04488             200.00
04489             400.00
04490             600.00
04491             600.00
04492             600.00
04493            1000.00
04494            1000.00
04495            1200.00
04496            1200.00
04497            1400.00
04498            1400.00
04499            1400.00
04500            1800.00
04501            1800.00
04502            2000.00
04503            2000.00
04504            2000.00
04505            2600.00
04506            2600.00
04507            2600.00
04508            2600.00
04509            2800.00
04510            2800.00
04511            3000.00
04512            3000.00
04513            3400.00
04514            3400.00
04515            3600.00
04516            3600.00
04517            3600.00
04518            3800.00
04519            4200.00
04520            3800.00
04521            4000.00
04522            4200.00
04523            4200.00
04524            4400.00
04525            4400.00
04526            4600.00
04527            4600.00
04528            4800.00
04529            5000.00
04530            5000.00
04531            5200.00
04532            5200.00
04533            5200.00
04534            5200.00
04535            5400.00
04536            5400.00
04537            5400.00
04538            5800.00
04539            5600.00
04540            5800.00
04541            5800.00
04542            5800.00
04543            5800.00
04544            6000.00
04545            6000.00
04546            6000.00
04547            6200.00
04548            6200.00
04549            6200.00
04550            6200.00
04551            6200.00
04552            6400.00
04553            6200.00
04554            6200.00
04555            6200.00
04556            6600.00
04557            6600.00
04558            6600.00
04559            6600.00
04560            6600.00
04561            6600.00
04562            6600.00
04563            6600.00
04564            6600.00
04565            6600.00
04566            6600.00
04567            6800.00
04568            6600.00
04569            6600.00
04570            6800.00
04571            6600.00
04572            6600.00
04573            6600.00
04574            6600.00
04575            6600.00
04576            6600.00
04577            6600.00
04578            6600.00
04579            6600.00
04580            6600.00
04581            6400.00
04582            6400.00
04583            6600.00
04584            6400.00
04585            6200.00
04586            6200.00
04587            6200.00
04588            6200.00
04589            6000.00
04590            6200.00
04591            6000.00
04592            6000.00
04593            6000.00
04594            5800.00
04595            5800.00
04596            5800.00
04597            5800.00
04598            5400.00
04599            5400.00
04600            5400.00
04601            5400.00
04602            5400.00
04603            5200.00
04604            5200.00
04605            5200.00
04606            5000.00
04607            5000.00
04608            5000.00
04609            4800.00
04610            4600.00
04611            4600.00
04612            4400.00
04613            4400.00
04614            4200.00
04615            4200.00
04616            4200.00
04617            3800.00
04618            3800.00
04619            3600.00
04620            3600.00
04621            3600.00
04622            3400.00
04623            3400.00
04624            3400.00
04625            3000.00
04626            2800.00
04627            3000.00
04628            2800.00
04629            2600.00
04630            2600.00
04631            2400.00
04632            2200.00
04633            2200.00
04634            2200.00
04635            2000.00
04636            1800.00
04637            1800.00
04638            1800.00
04639            1400.00
04640            1200.00
04641            1200.00
04642            1200.00
04643            1000.00
04644            1000.00
04645             800.00
04646             600.00
04647             600.00
04648             400.00
04649             400.00
04650             200.00
04651             200.00
04652             200.00
04653            -400.00
04654            -200.00
04655            -400.00
04656            -400.00
04657            -600.00
04658            -800.00
04659            -600.00
04660           -1000.00
04661           -1200.00
04662           -1200.00
04663           -1200.00
04664           -1400.00
04665           -1800.00
04666           -1800.00
04667           -1800.00
04668           -2000.00
04669           -2200.00
04670           -2200.00
04671           -2200.00
04672           -2600.00
04673           -2600.00
04674           -2800.00
04675           -2800.00
04676           -3000.00
04677           -3000.00
04678           -3000.00
04679           -3400.00
04680           -3600.00
04681           -3400.00
04682           -3600.00
04683           -3800.00
04684           -3800.00
04685           -3800.00
04686           -4200.00
04687           -4200.00
04688           -4200.00
04689           -4400.00
04690           -4400.00
04691           -4600.00
04692           -4600.00
04693           -4600.00
04694           -4800.00
04695           -5000.00
04696           -5000.00
04697           -5000.00
04698           -5200.00
04699           -5200.00
04700           -5400.00
04701           -5400.00
04702           -5400.00
04703           -5400.00
04704           -5600.00
04705           -5600.00
04706           -5800.00
04707           -5800.00
04708           -5800.00
04709           -6000.00
04710           -6000.00
04711           -6000.00
04712           -6200.00
04713           -6000.00
04714           -6000.00
04715           -6200.00
04716           -6200.00
04717           -6200.00
04718           -6200.00
04719           -6200.00
04720           -6400.00
04721           -6600.00
04722           -6600.00
04723           -6400.00
04724           -6600.00
04725           -6600.00
04726           -6600.00
04727           -6600.00
04728           -6600.00
04729           -6600.00
04730           -6600.00
04731           -6600.00
04732           -6600.00
04733           -6600.00
04734           -6600.00
04735           -6600.00
04736           -6400.00
04737           -6800.00
04738           -6600.00
04739           -6600.00
04740           -6600.00
04741           -6600.00
04742           -6600.00
04743           -6600.00
04744           -6600.00
04745           -6600.00
04746           -6600.00
04747           -6200.00
04748           -6400.00
04749           -6600.00
04750           -6200.00
04751           -6200.00
04752           -6200.00
04753           -6000.00
04754           -6200.00
04755           -6000.00
04756           -6000.00
04757           -6000.00
04758           -6000.00
04759           -6000.00
04760           -5800.00
04761           -5800.00
04762           -5600.00
04763           -5600.00
04764           -5600.00
04765           -5400.00
04766           -5400.00
04767           -5400.00
04768           -5200.00
04769           -5200.00
04770           -5200.00
04771           -5200.00
04772           -5000.00
04773           -5000.00
04774           -4600.00
04775           -4600.00
04776           -4600.00
04777           -4600.00
04778           -4400.00
04779           -4200.00
04780           -4400.00
04781           -4200.00
04782           -4200.00
04783           -4000.00
04784           -3800.00
04785           -3800.00
04786           -3600.00
04787           -3600.00
04788           -3400.00
04789           -3400.00
04790           -3200.00
04791           -3000.00
04792           -2800.00
04793           -2800.00
04794           -2800.00
04795           -2800.00
04796           -2600.00
04797           -2400.00
04798           -2200.00
04799           -2200.00
04800           -2000.00
04801           -2000.00
04802           -2000.00
04803           -1800.00
04804           -1800.00
04805           -1400.00
04806           -1400.00
04807           -1200.00
04808           -1200.00
04809           -1000.00
04810           -1000.00
04811            -800.00
04812            -600.00
04813            -600.00
04814            -400.00
04815            -400.00
04816            -200.00
04817             200.00
04818               0.00
04819             200.00
04820             200.00
04821             400.00
04822             600.00
04823             600.00
04824             600.00
04825            1000.00
04826            1000.00
04827            1200.00
04828            1400.00
04829            1400.00
04830            1600.00
04831            1800.00
04832            1800.00
04833            2000.00
04834            2000.00
04835            2000.00
04836            2200.00
04837            2600.00
04838            2600.00
04839            2600.00
04840            2800.00
04841            3000.00
04842            3000.00
04843            3200.00
04844            3400.00
04845            3400.00
04846            3400.00
04847            3600.00
04848            3600.00
04849            3800.00
04850            3800.00
04851            4000.00
04852            4200.00
04853            4200.00
04854            4400.00
04855            4400.00
04856            4600.00
04857            4400.00
04858            4600.00
04859            4600.00
04860            5000.00
04861            4800.00
04862            5000.00
04863            5000.00
04864            5200.00
04865            5200.00
04866            5400.00
04867            5400.00
04868            5400.00
04869            5800.00
04870            5600.00
04871            5800.00
04872            5800.00
04873            5800.00
04874            5800.00
04875            5800.00
04876            6000.00
04877            6000.00
04878            6000.00
04879            6000.00
04880            6200.00
04881            6200.00
04882            6200.00
04883            6200.00
04884            6200.00
04885            6200.00
04886            6200.00
04887            6600.00
04888            6200.00
04889            6600.00
04890            6600.00
04891            6600.00
04892            6600.00
04893            6600.00
04894            6600.00
04895            6600.00
04896            6600.00
04897            6600.00
04898            6600.00
04899            6600.00
04900            6600.00
04901            6600.00
04902            6600.00
04903            6600.00
04904            6600.00
04905            6600.00
04906            6600.00
04907            6600.00
04908            6600.00
04909            6600.00
04910            6600.00
04911            6400.00
04912            6400.00
04913            6600.00
04914            6200.00
04915            6200.00
04916            6200.00
04917            6200.00
04918            6200.00
04919            6200.00
04920            6200.00
04921            6000.00
04922            6200.00
04923            6000.00
04924            6000.00
04925            6000.00
04926            5800.00
04927            5800.00
04928            5800.00
04929            5600.00
04930            5400.00
04931            5400.00
04932            5400.00
04933            5400.00
04934            5400.00
04935            5200.00
04936            5000.00
04937            5200.00
04938            5000.00
04939            5000.00
04940            4800.00
04941            4600.00
04942            4400.00
04943            4400.00
04944            4400.00
04945            4200.00
04946            4200.00
04947            4200.00
04948            4000.00
04949            3800.00
04950            3800.00
04951            3600.00
04952            3600.00
04953            3600.00
04954            3400.00
04955            3400.00
04956            3000.00
04957            3000.00
04958            2800.00
04959            2800.00
04960            2800.00
04961            2600.00
04962            2600.00
04963            2600.00
04964            2200.00
04965            2200.00
04966            2000.00
04967            1800.00
04968            1800.00
04969            1800.00
04970            1400.00
04971            1400.00
04972            1200.00
04973            1400.00
04974            1000.00
04975            1000.00
04976            1000.00
04977             600.00
04978             400.00
04979             400.00
04980             400.00
04981             400.00
04982             200.00
04983             200.00
04984            -200.00
04985            -200.00
04986            -400.00
04987            -400.00
04988            -600.00
04989            -600.00
04990            -800.00
04991           -1000.00
04992           -1200.00
04993           -1200.00
04994           -1200.00
04995           -1400.00
04996           -1600.00
04997           -1800.00
04998           -1800.00
04999           -2000.00
05000           -2200.00
