Unit:(mV)
                     CH1
Frequency    300.953 kHz
00001            1800.00
00002            1400.00
00003            1200.00
00004            1000.00
00005             600.00
00006             200.00
00007            -200.00
00008            -400.00
00009            -600.00
00010           -1000.00
00011           -1200.00
00012           -1400.00
00013           -1800.00
00014           -2000.00
00015           -2200.00
00016           -2600.00
00017           -3200.00
00018           -3800.00
00019           -3800.00
00020           -3800.00
00021           -3800.00
00022           -4600.00
00023           -4600.00
00024           -5000.00
00025           -5400.00
00026           -5600.00
00027           -5800.00
00028           -6200.00
00029           -6600.00
00030           -6800.00
00031           -7000.00
00032           -7400.00
00033           -7600.00
00034           -8200.00
00035           -8200.00
00036           -8600.00
00037           -8600.00
00038           -9000.00
00039           -9200.00
00040           -9400.00
00041           -9800.00
00042          -10000.00
00043          -10200.00
00044          -10600.00
00045          -10800.00
00046          -11000.00
00047          -11200.00
00048          -11600.00
00049          -11600.00
00050          -11800.00
00051          -12200.00
00052          -12400.00
00053          -12400.00
00054          -12600.00
00055          -12800.00
00056          -13200.00
00057          -13200.00
00058          -13400.00
00059          -13400.00
00060          -13800.00
00061          -14000.00
00062          -14000.00
00063          -14000.00
00064          -14200.00
00065          -14600.00
00066          -14800.00
00067          -14600.00
00068          -15000.00
00069          -15000.00
00070          -15000.00
00071          -15200.00
00072          -15400.00
00073          -15400.00
00074          -15600.00
00075          -15600.00
00076          -15600.00
00077          -15600.00
00078          -15800.00
00079          -15600.00
00080          -15800.00
00081          -16000.00
00082          -16200.00
00083          -15800.00
00084          -16000.00
00085          -16200.00
00086          -16200.00
00087          -16200.00
00088          -16200.00
00089          -16400.00
00090          -16200.00
00091          -16200.00
00092          -16200.00
00093          -16200.00
00094          -16200.00
00095          -16000.00
00096          -16000.00
00097          -16200.00
00098          -15800.00
00099          -15800.00
00100          -15800.00
00101          -15800.00
00102          -15800.00
00103          -15800.00
00104          -15600.00
00105          -15600.00
00106          -15600.00
00107          -15400.00
00108          -15400.00
00109          -15400.00
00110          -15000.00
00111          -15000.00
00112          -14800.00
00113          -14800.00
00114          -14600.00
00115          -14200.00
00116          -14200.00
00117          -14000.00
00118          -14000.00
00119          -13800.00
00120          -13400.00
00121          -13400.00
00122          -13400.00
00123          -13000.00
00124          -13000.00
00125          -12600.00
00126          -12400.00
00127          -12400.00
00128          -11800.00
00129          -11800.00
00130          -11600.00
00131          -11400.00
00132          -11000.00
00133          -10800.00
00134          -10800.00
00135          -10600.00
00136          -10200.00
00137          -10000.00
00138           -9800.00
00139           -9600.00
00140           -9400.00
00141           -9200.00
00142           -8800.00
00143           -8600.00
00144           -8400.00
00145           -7800.00
00146           -7600.00
00147           -7600.00
00148           -7200.00
00149           -7000.00
00150           -6600.00
00151           -6200.00
00152           -6000.00
00153           -5800.00
00154           -5400.00
00155           -5200.00
00156           -5000.00
00157           -4600.00
00158           -4400.00
00159           -3800.00
00160           -3800.00
00161           -3400.00
00162           -3000.00
00163           -2800.00
00164           -2800.00
00165           -2200.00
00166           -2000.00
00167           -1600.00
00168           -1200.00
00169           -1200.00
00170            -800.00
00171            -400.00
00172            -200.00
00173             200.00
00174             400.00
00175             600.00
00176            1000.00
00177            1400.00
00178            1400.00
00179            1800.00
00180            2000.00
00181            2200.00
00182            2600.00
00183            3000.00
00184            3600.00
00185            3800.00
00186            3800.00
00187            4200.00
00188            4400.00
00189            4600.00
00190            5000.00
00191            5400.00
00192            5400.00
00193            5800.00
00194            6400.00
00195            6600.00
00196            6800.00
00197            7000.00
00198            7400.00
00199            7600.00
00200            8000.00
00201            8200.00
00202            8400.00
00203            8600.00
00204            9000.00
00205            9200.00
00206            9400.00
00207            9800.00
00208           10000.00
00209           10200.00
00210           10400.00
00211           10800.00
00212           11000.00
00213           11400.00
00214           11400.00
00215           11600.00
00216           11800.00
00217           12200.00
00218           12200.00
00219           12400.00
00220           12600.00
00221           13000.00
00222           13000.00
00223           13200.00
00224           13400.00
00225           13800.00
00226           13800.00
00227           14000.00
00228           14200.00
00229           14200.00
00230           14200.00
00231           14600.00
00232           14600.00
00233           14800.00
00234           14800.00
00235           14800.00
00236           15000.00
00237           15400.00
00238           15400.00
00239           15400.00
00240           15600.00
00241           15600.00
00242           15800.00
00243           15800.00
00244           15800.00
00245           15800.00
00246           15800.00
00247           16200.00
00248           16200.00
00249           16200.00
00250           16200.00
00251           16200.00
00252           16200.00
00253           16400.00
00254           16400.00
00255           16400.00
00256           16400.00
00257           16200.00
00258           16400.00
00259           16400.00
00260           16200.00
00261           16200.00
00262           16200.00
00263           16200.00
00264           16200.00
00265           16000.00
00266           16200.00
00267           16000.00
00268           15800.00
00269           15800.00
00270           15600.00
00271           15600.00
00272           15600.00
00273           15400.00
00274           15400.00
00275           15000.00
00276           15000.00
00277           14800.00
00278           14800.00
00279           14800.00
00280           14600.00
00281           14600.00
00282           14400.00
00283           14200.00
00284           14200.00
00285           13800.00
00286           13800.00
00287           13600.00
00288           13400.00
00289           13200.00
00290           13000.00
00291           12600.00
00292           12600.00
00293           12400.00
00294           12200.00
00295           11800.00
00296           11600.00
00297           11600.00
00298           11400.00
00299           11000.00
00300           10800.00
00301           10600.00
00302           10200.00
00303           10200.00
00304           10000.00
00305            9800.00
00306            9200.00
00307            9200.00
00308            9000.00
00309            8600.00
00310            8400.00
00311            8200.00
00312            7800.00
00313            7600.00
00314            7400.00
00315            7000.00
00316            6800.00
00317            6600.00
00318            6200.00
00319            5800.00
00320            5800.00
00321            5400.00
00322            5200.00
00323            4600.00
00324            4400.00
00325            4200.00
00326            3800.00
00327            3600.00
00328            3200.00
00329            3000.00
00330            2600.00
00331            2600.00
00332            2200.00
00333            2000.00
00334            1400.00
00335            1200.00
00336            1000.00
00337             400.00
00338             400.00
00339             200.00
00340            -400.00
00341            -600.00
00342            -800.00
00343           -1200.00
00344           -1400.00
00345           -1800.00
00346           -2000.00
00347           -2200.00
00348           -2600.00
00349           -3000.00
00350           -3600.00
00351           -3800.00
00352           -3800.00
00353           -3800.00
00354           -4400.00
00355           -4600.00
00356           -5000.00
00357           -5200.00
00358           -5400.00
00359           -5800.00
00360           -6200.00
00361           -6600.00
00362           -6800.00
00363           -7000.00
00364           -7400.00
00365           -7600.00
00366           -8200.00
00367           -8200.00
00368           -8400.00
00369           -8600.00
00370           -8800.00
00371           -9200.00
00372           -9400.00
00373           -9800.00
00374          -10000.00
00375          -10200.00
00376          -10600.00
00377          -10600.00
00378          -10800.00
00379          -11000.00
00380          -11400.00
00381          -11600.00
00382          -11600.00
00383          -12000.00
00384          -12400.00
00385          -12600.00
00386          -12400.00
00387          -12600.00
00388          -13000.00
00389          -13200.00
00390          -13400.00
00391          -13400.00
00392          -13600.00
00393          -13800.00
00394          -14000.00
00395          -14000.00
00396          -14200.00
00397          -14400.00
00398          -14800.00
00399          -14800.00
00400          -15000.00
00401          -15000.00
00402          -15000.00
00403          -15000.00
00404          -15000.00
00405          -15200.00
00406          -15600.00
00407          -15600.00
00408          -15600.00
00409          -15800.00
00410          -15800.00
00411          -15800.00
00412          -15800.00
00413          -16200.00
00414          -15800.00
00415          -16000.00
00416          -16200.00
00417          -16200.00
00418          -16200.00
00419          -16200.00
00420          -16200.00
00421          -16200.00
00422          -16200.00
00423          -16200.00
00424          -16200.00
00425          -16200.00
00426          -16200.00
00427          -16200.00
00428          -16200.00
00429          -15800.00
00430          -16200.00
00431          -16000.00
00432          -15800.00
00433          -15800.00
00434          -15600.00
00435          -15800.00
00436          -15600.00
00437          -15600.00
00438          -15400.00
00439          -15400.00
00440          -15400.00
00441          -15000.00
00442          -15000.00
00443          -15000.00
00444          -14800.00
00445          -14800.00
00446          -14600.00
00447          -14600.00
00448          -14000.00
00449          -14000.00
00450          -14000.00
00451          -13800.00
00452          -13400.00
00453          -13400.00
00454          -13200.00
00455          -13000.00
00456          -12800.00
00457          -12600.00
00458          -12600.00
00459          -12400.00
00460          -12200.00
00461          -11600.00
00462          -11600.00
00463          -11600.00
00464          -11400.00
00465          -11000.00
00466          -10800.00
00467          -10600.00
00468          -10200.00
00469          -10200.00
00470           -9800.00
00471           -9600.00
00472           -9400.00
00473           -9200.00
00474           -8800.00
00475           -8600.00
00476           -8400.00
00477           -8000.00
00478           -7800.00
00479           -7600.00
00480           -7000.00
00481           -7000.00
00482           -6800.00
00483           -6200.00
00484           -6200.00
00485           -6000.00
00486           -5800.00
00487           -5400.00
00488           -5000.00
00489           -4600.00
00490           -4400.00
00491           -4400.00
00492           -4000.00
00493           -3600.00
00494           -3400.00
00495           -2800.00
00496           -2800.00
00497           -2200.00
00498           -2200.00
00499           -1800.00
00500           -1400.00
00501           -1200.00
00502           -1000.00
00503            -600.00
00504            -400.00
00505             200.00
00506             200.00
00507             400.00
00508            1000.00
00509            1200.00
00510            1400.00
00511            1800.00
00512            2000.00
00513            2400.00
00514            2600.00
00515            3000.00
00516            3400.00
00517            3600.00
00518            3800.00
00519            4200.00
00520            4400.00
00521            4600.00
00522            5000.00
00523            5200.00
00524            5800.00
00525            5800.00
00526            6200.00
00527            6600.00
00528            6600.00
00529            7000.00
00530            7400.00
00531            7600.00
00532            8000.00
00533            8200.00
00534            8400.00
00535            8600.00
00536            9000.00
00537            9200.00
00538            9400.00
00539            9800.00
00540           10000.00
00541           10200.00
00542           10400.00
00543           10800.00
00544           10800.00
00545           11000.00
00546           11400.00
00547           11600.00
00548           11800.00
00549           12000.00
00550           12200.00
00551           12400.00
00552           12600.00
00553           12800.00
00554           13000.00
00555           13200.00
00556           13200.00
00557           13400.00
00558           13800.00
00559           13800.00
00560           14000.00
00561           14200.00
00562           14200.00
00563           14600.00
00564           14600.00
00565           14800.00
00566           14800.00
00567           14800.00
00568           15200.00
00569           15000.00
00570           15400.00
00571           15400.00
00572           15600.00
00573           15600.00
00574           15600.00
00575           15800.00
00576           15800.00
00577           15800.00
00578           16200.00
00579           16200.00
00580           16200.00
00581           16200.00
00582           16400.00
00583           16200.00
00584           16400.00
00585           16400.00
00586           16400.00
00587           16400.00
00588           16400.00
00589           16400.00
00590           16200.00
00591           16400.00
00592           16400.00
00593           16400.00
00594           16200.00
00595           16200.00
00596           16200.00
00597           16200.00
00598           16000.00
00599           16200.00
00600           16000.00
00601           15800.00
00602           15800.00
00603           15800.00
00604           15400.00
00605           15400.00
00606           15400.00
00607           15400.00
00608           15200.00
00609           15000.00
00610           15000.00
00611           14800.00
00612           14800.00
00613           14600.00
00614           14200.00
00615           14200.00
00616           14000.00
00617           14000.00
00618           13800.00
00619           13600.00
00620           13200.00
00621           13200.00
00622           13000.00
00623           12800.00
00624           12600.00
00625           12400.00
00626           12200.00
00627           12200.00
00628           11800.00
00629           11600.00
00630           11400.00
00631           11000.00
00632           10800.00
00633           10600.00
00634           10600.00
00635           10200.00
00636           10000.00
00637            9800.00
00638            9400.00
00639            9200.00
00640            9000.00
00641            8800.00
00642            8400.00
00643            8200.00
00644            7800.00
00645            7600.00
00646            7400.00
00647            7000.00
00648            6800.00
00649            6600.00
00650            6200.00
00651            6000.00
00652            5800.00
00653            5400.00
00654            5200.00
00655            5000.00
00656            4400.00
00657            4200.00
00658            4200.00
00659            3600.00
00660            3400.00
00661            3000.00
00662            2800.00
00663            2600.00
00664            2200.00
00665            1800.00
00666            1400.00
00667            1200.00
00668            1000.00
00669             600.00
00670             400.00
00671               0.00
00672            -200.00
00673            -600.00
00674            -600.00
00675           -1000.00
00676           -1200.00
00677           -1800.00
00678           -2000.00
00679           -2200.00
00680           -2600.00
00681           -3000.00
00682           -3400.00
00683           -3800.00
00684           -3800.00
00685           -3800.00
00686           -4200.00
00687           -4600.00
00688           -5000.00
00689           -5200.00
00690           -5800.00
00691           -5800.00
00692           -6000.00
00693           -6600.00
00694           -6600.00
00695           -7000.00
00696           -7000.00
00697           -7400.00
00698           -7800.00
00699           -8000.00
00700           -8400.00
00701           -8600.00
00702           -8800.00
00703           -9200.00
00704           -9400.00
00705           -9400.00
00706           -9800.00
00707          -10000.00
00708          -10400.00
00709          -10600.00
00710          -10800.00
00711          -11000.00
00712          -11400.00
00713          -11400.00
00714          -11600.00
00715          -11800.00
00716          -12200.00
00717          -12400.00
00718          -12600.00
00719          -12600.00
00720          -13000.00
00721          -13200.00
00722          -13200.00
00723          -13400.00
00724          -13600.00
00725          -13800.00
00726          -14000.00
00727          -14000.00
00728          -14200.00
00729          -14200.00
00730          -14800.00
00731          -14600.00
00732          -14800.00
00733          -14800.00
00734          -15000.00
00735          -15000.00
00736          -15000.00
00737          -15400.00
00738          -15600.00
00739          -15600.00
00740          -15600.00
00741          -15600.00
00742          -15800.00
00743          -15800.00
00744          -15800.00
00745          -15800.00
00746          -15800.00
00747          -15800.00
00748          -16200.00
00749          -16200.00
00750          -16200.00
00751          -16200.00
00752          -16200.00
00753          -16200.00
00754          -16200.00
00755          -16200.00
00756          -16200.00
00757          -16200.00
00758          -16200.00
00759          -16400.00
00760          -16200.00
00761          -16200.00
00762          -16000.00
00763          -16200.00
00764          -15800.00
00765          -15800.00
00766          -15800.00
00767          -15600.00
00768          -15600.00
00769          -15600.00
00770          -15600.00
00771          -15600.00
00772          -15400.00
00773          -15000.00
00774          -15000.00
00775          -15000.00
00776          -14800.00
00777          -14800.00
00778          -14600.00
00779          -14600.00
00780          -14200.00
00781          -14000.00
00782          -14000.00
00783          -13800.00
00784          -13600.00
00785          -13400.00
00786          -13400.00
00787          -13200.00
00788          -13000.00
00789          -12800.00
00790          -12400.00
00791          -12400.00
00792          -12200.00
00793          -12200.00
00794          -11800.00
00795          -11400.00
00796          -11400.00
00797          -11000.00
00798          -10800.00
00799          -10600.00
00800          -10200.00
00801          -10200.00
00802          -10000.00
00803           -9400.00
00804           -9400.00
00805           -9200.00
00806           -9000.00
00807           -8600.00
00808           -8400.00
00809           -8200.00
00810           -7800.00
00811           -7600.00
00812           -7400.00
00813           -7000.00
00814           -7000.00
00815           -6600.00
00816           -6200.00
00817           -6000.00
00818           -5800.00
00819           -5400.00
00820           -5200.00
00821           -4600.00
00822           -4600.00
00823           -4400.00
00824           -4000.00
00825           -3800.00
00826           -3400.00
00827           -3000.00
00828           -2800.00
00829           -2600.00
00830           -2200.00
00831           -2000.00
00832           -1800.00
00833           -1200.00
00834           -1000.00
00835            -600.00
00836            -400.00
00837            -200.00
00838             200.00
00839             400.00
00840             800.00
00841            1200.00
00842            1400.00
00843            1800.00
00844            2000.00
00845            2200.00
00846            2600.00
00847            2800.00
00848            3400.00
00849            3600.00
00850            3800.00
00851            4000.00
00852            4400.00
00853            4600.00
00854            5000.00
00855            5200.00
00856            5600.00
00857            5800.00
00858            6200.00
00859            6200.00
00860            6600.00
00861            7000.00
00862            7200.00
00863            7600.00
00864            7800.00
00865            8200.00
00866            8400.00
00867            8600.00
00868            8800.00
00869            9200.00
00870            9400.00
00871            9600.00
00872           10000.00
00873           10000.00
00874           10600.00
00875           10600.00
00876           10800.00
00877           11000.00
00878           11400.00
00879           11600.00
00880           11600.00
00881           12200.00
00882           12200.00
00883           12400.00
00884           12600.00
00885           12600.00
00886           13000.00
00887           13200.00
00888           13200.00
00889           13200.00
00890           13800.00
00891           13800.00
00892           14000.00
00893           14200.00
00894           14200.00
00895           14400.00
00896           14600.00
00897           14800.00
00898           14600.00
00899           15000.00
00900           15000.00
00901           15200.00
00902           15400.00
00903           15400.00
00904           15400.00
00905           15600.00
00906           15600.00
00907           15800.00
00908           15800.00
00909           15800.00
00910           15800.00
00911           16200.00
00912           16200.00
00913           16200.00
00914           16200.00
00915           16200.00
00916           16200.00
00917           16400.00
00918           16200.00
00919           16400.00
00920           16400.00
00921           16400.00
00922           16200.00
00923           16400.00
00924           16200.00
00925           16200.00
00926           16200.00
00927           16200.00
00928           16200.00
00929           16200.00
00930           16200.00
00931           16000.00
00932           16000.00
00933           15800.00
00934           15800.00
00935           15600.00
00936           15400.00
00937           15400.00
00938           15400.00
00939           15400.00
00940           15000.00
00941           15200.00
00942           15000.00
00943           15000.00
00944           14600.00
00945           14600.00
00946           14600.00
00947           14200.00
00948           14000.00
00949           14000.00
00950           13800.00
00951           13600.00
00952           13400.00
00953           13200.00
00954           13000.00
00955           13000.00
00956           12600.00
00957           12400.00
00958           12200.00
00959           11800.00
00960           11800.00
00961           11600.00
00962           11400.00
00963           11000.00
00964           11000.00
00965           10600.00
00966           10600.00
00967           10200.00
00968           10000.00
00969            9800.00
00970            9600.00
00971            9400.00
00972            9000.00
00973            8600.00
00974            8600.00
00975            8400.00
00976            8200.00
00977            7600.00
00978            7400.00
00979            7400.00
00980            6800.00
00981            6600.00
00982            6200.00
00983            6200.00
00984            5800.00
00985            5600.00
00986            5400.00
00987            5000.00
00988            4600.00
00989            4400.00
00990            4000.00
00991            3800.00
00992            3600.00
00993            3000.00
00994            2800.00
00995            2400.00
00996            2200.00
00997            2000.00
00998            1800.00
00999            1400.00
01000            1200.00
01001             600.00
01002             400.00
01003             200.00
01004            -200.00
01005            -400.00
01006            -600.00
01007           -1000.00
01008           -1200.00
01009           -1600.00
01010           -1800.00
01011           -2000.00
01012           -2200.00
01013           -2800.00
01014           -3400.00
01015           -3800.00
01016           -3800.00
01017           -3800.00
01018           -4200.00
01019           -4600.00
01020           -4600.00
01021           -5200.00
01022           -5600.00
01023           -6000.00
01024           -6000.00
01025           -6600.00
01026           -6600.00
01027           -6800.00
01028           -7400.00
01029           -7400.00
01030           -7600.00
01031           -8200.00
01032           -8200.00
01033           -8600.00
01034           -9000.00
01035           -9200.00
01036           -9400.00
01037           -9400.00
01038           -9800.00
01039          -10000.00
01040          -10200.00
01041          -10400.00
01042          -10600.00
01043          -11000.00
01044          -11200.00
01045          -11400.00
01046          -11600.00
01047          -12000.00
01048          -12200.00
01049          -12400.00
01050          -12600.00
01051          -12600.00
01052          -12600.00
01053          -13000.00
01054          -13200.00
01055          -13400.00
01056          -13600.00
01057          -13800.00
01058          -13800.00
01059          -14000.00
01060          -14200.00
01061          -14400.00
01062          -14600.00
01063          -14600.00
01064          -14800.00
01065          -14800.00
01066          -15000.00
01067          -15000.00
01068          -15400.00
01069          -15400.00
01070          -15400.00
01071          -15600.00
01072          -15600.00
01073          -15600.00
01074          -15800.00
01075          -15800.00
01076          -16000.00
01077          -16000.00
01078          -16200.00
01079          -15800.00
01080          -16200.00
01081          -16200.00
01082          -16200.00
01083          -16200.00
01084          -16400.00
01085          -16400.00
01086          -16400.00
01087          -16200.00
01088          -16200.00
01089          -16400.00
01090          -16200.00
01091          -16000.00
01092          -16200.00
01093          -16200.00
01094          -16200.00
01095          -16200.00
01096          -15800.00
01097          -15800.00
01098          -15800.00
01099          -15800.00
01100          -15800.00
01101          -15600.00
01102          -15400.00
01103          -15400.00
01104          -15400.00
01105          -15000.00
01106          -15000.00
01107          -15000.00
01108          -15000.00
01109          -14800.00
01110          -14800.00
01111          -14600.00
01112          -14200.00
01113          -14000.00
01114          -14000.00
01115          -13800.00
01116          -13600.00
01117          -13400.00
01118          -13400.00
01119          -13400.00
01120          -13000.00
01121          -12800.00
01122          -12600.00
01123          -12400.00
01124          -12400.00
01125          -12000.00
01126          -11800.00
01127          -11600.00
01128          -11400.00
01129          -11200.00
01130          -10800.00
01131          -10600.00
01132          -10600.00
01133          -10200.00
01134          -10000.00
01135           -9800.00
01136           -9400.00
01137           -9400.00
01138           -9000.00
01139           -8800.00
01140           -8400.00
01141           -8400.00
01142           -8000.00
01143           -7800.00
01144           -7400.00
01145           -7200.00
01146           -7000.00
01147           -6800.00
01148           -6200.00
01149           -6000.00
01150           -5800.00
01151           -5400.00
01152           -5200.00
01153           -4600.00
01154           -4600.00
01155           -4400.00
01156           -4200.00
01157           -3800.00
01158           -3600.00
01159           -3000.00
01160           -2800.00
01161           -2600.00
01162           -2200.00
01163           -2000.00
01164           -1400.00
01165           -1400.00
01166           -1000.00
01167            -600.00
01168            -600.00
01169            -200.00
01170             200.00
01171             400.00
01172            1000.00
01173            1000.00
01174            1400.00
01175            1400.00
01176            1800.00
01177            2200.00
01178            2400.00
01179            2800.00
01180            3000.00
01181            3600.00
01182            3800.00
01183            4200.00
01184            4200.00
01185            4400.00
01186            5000.00
01187            5200.00
01188            5600.00
01189            5800.00
01190            6000.00
01191            6600.00
01192            6600.00
01193            6800.00
01194            7000.00
01195            7600.00
01196            7800.00
01197            8000.00
01198            8200.00
01199            8400.00
01200            9000.00
01201            9200.00
01202            9200.00
01203            9400.00
01204            9800.00
01205           10000.00
01206           10000.00
01207           10600.00
01208           10600.00
01209           10800.00
01210           11000.00
01211           11400.00
01212           11600.00
01213           11800.00
01214           12200.00
01215           12400.00
01216           12400.00
01217           12600.00
01218           13000.00
01219           13000.00
01220           13200.00
01221           13400.00
01222           13600.00
01223           13800.00
01224           14000.00
01225           14200.00
01226           14200.00
01227           14200.00
01228           14600.00
01229           14800.00
01230           14800.00
01231           15000.00
01232           15000.00
01233           15400.00
01234           15400.00
01235           15400.00
01236           15400.00
01237           15600.00
01238           15600.00
01239           15600.00
01240           15800.00
01241           15800.00
01242           16200.00
01243           16200.00
01244           16200.00
01245           16200.00
01246           16200.00
01247           16400.00
01248           16400.00
01249           16200.00
01250           16400.00
01251           16400.00
01252           16400.00
01253           16200.00
01254           16400.00
01255           16400.00
01256           16400.00
01257           16200.00
01258           16400.00
01259           16200.00
01260           16400.00
01261           16200.00
01262           16200.00
01263           16000.00
01264           15800.00
01265           15800.00
01266           15800.00
01267           15600.00
01268           15600.00
01269           15400.00
01270           15400.00
01271           15400.00
01272           15000.00
01273           15000.00
01274           15000.00
01275           14800.00
01276           14800.00
01277           14600.00
01278           14400.00
01279           14200.00
01280           14200.00
01281           14000.00
01282           13800.00
01283           13800.00
01284           13400.00
01285           13200.00
01286           13200.00
01287           12800.00
01288           12600.00
01289           12600.00
01290           12200.00
01291           12200.00
01292           11800.00
01293           11600.00
01294           11600.00
01295           11200.00
01296           11000.00
01297           10800.00
01298           10600.00
01299           10600.00
01300           10000.00
01301            9800.00
01302            9800.00
01303            9400.00
01304            9200.00
01305            9000.00
01306            8600.00
01307            8400.00
01308            8200.00
01309            7600.00
01310            7600.00
01311            7400.00
01312            7000.00
01313            6800.00
01314            6600.00
01315            6200.00
01316            6000.00
01317            5600.00
01318            5400.00
01319            5200.00
01320            5000.00
01321            4400.00
01322            4200.00
01323            3800.00
01324            3600.00
01325            3400.00
01326            3000.00
01327            2600.00
01328            2600.00
01329            2000.00
01330            1800.00
01331            1400.00
01332            1000.00
01333            1000.00
01334             600.00
01335             200.00
01336               0.00
01337            -400.00
01338            -600.00
01339           -1000.00
01340           -1200.00
01341           -1400.00
01342           -1800.00
01343           -2000.00
01344           -2200.00
01345           -2800.00
01346           -3200.00
01347           -3600.00
01348           -3800.00
01349           -3800.00
01350           -3800.00
01351           -4600.00
01352           -4800.00
01353           -5000.00
01354           -5400.00
01355           -5800.00
01356           -5800.00
01357           -6200.00
01358           -6600.00
01359           -7000.00
01360           -7400.00
01361           -7400.00
01362           -7600.00
01363           -8000.00
01364           -8000.00
01365           -8400.00
01366           -8600.00
01367           -9000.00
01368           -9200.00
01369           -9400.00
01370           -9600.00
01371          -10000.00
01372          -10200.00
01373          -10400.00
01374          -10600.00
01375          -11000.00
01376          -11000.00
01377          -11400.00
01378          -11600.00
01379          -11800.00
01380          -11800.00
01381          -12200.00
01382          -12400.00
01383          -12600.00
01384          -12800.00
01385          -13000.00
01386          -13200.00
01387          -13200.00
01388          -13400.00
01389          -13800.00
01390          -13800.00
01391          -14000.00
01392          -14200.00
01393          -14200.00
01394          -14400.00
01395          -14600.00
01396          -14800.00
01397          -14800.00
01398          -14800.00
01399          -15000.00
01400          -15000.00
01401          -15400.00
01402          -15400.00
01403          -15600.00
01404          -15600.00
01405          -15600.00
01406          -15800.00
01407          -15800.00
01408          -15800.00
01409          -16000.00
01410          -15800.00
01411          -16200.00
01412          -16200.00
01413          -16200.00
01414          -16200.00
01415          -16200.00
01416          -16200.00
01417          -16200.00
01418          -16200.00
01419          -16200.00
01420          -16200.00
01421          -16200.00
01422          -16200.00
01423          -16200.00
01424          -16200.00
01425          -16000.00
01426          -16200.00
01427          -15800.00
01428          -15800.00
01429          -15800.00
01430          -15800.00
01431          -15800.00
01432          -15600.00
01433          -15600.00
01434          -15600.00
01435          -15600.00
01436          -15400.00
01437          -15200.00
01438          -15000.00
01439          -15000.00
01440          -15000.00
01441          -14800.00
01442          -14800.00
01443          -14600.00
01444          -14200.00
01445          -14200.00
01446          -14000.00
01447          -13800.00
01448          -13800.00
01449          -13400.00
01450          -13400.00
01451          -13200.00
01452          -13000.00
01453          -12800.00
01454          -12600.00
01455          -12400.00
01456          -12200.00
01457          -12000.00
01458          -11800.00
01459          -11600.00
01460          -11600.00
01461          -11400.00
01462          -11000.00
01463          -10800.00
01464          -10600.00
01465          -10200.00
01466          -10200.00
01467           -9800.00
01468           -9400.00
01469           -9400.00
01470           -9200.00
01471           -8800.00
01472           -8600.00
01473           -8400.00
01474           -8200.00
01475           -7800.00
01476           -7600.00
01477           -7400.00
01478           -7000.00
01479           -6800.00
01480           -6600.00
01481           -6200.00
01482           -6000.00
01483           -5600.00
01484           -5200.00
01485           -5000.00
01486           -4600.00
01487           -4400.00
01488           -4200.00
01489           -3800.00
01490           -3600.00
01491           -3200.00
01492           -2800.00
01493           -2800.00
01494           -2200.00
01495           -2000.00
01496           -1800.00
01497           -1400.00
01498           -1000.00
01499            -600.00
01500            -600.00
01501            -400.00
01502             200.00
01503             400.00
01504             600.00
01505            1000.00
01506            1200.00
01507            1800.00
01508            1800.00
01509            2000.00
01510            2400.00
01511            2600.00
01512            3000.00
01513            3600.00
01514            3800.00
01515            4200.00
01516            4200.00
01517            4400.00
01518            4600.00
01519            5200.00
01520            5400.00
01521            5800.00
01522            6000.00
01523            6200.00
01524            6600.00
01525            6800.00
01526            7200.00
01527            7200.00
01528            7800.00
01529            7800.00
01530            8200.00
01531            8400.00
01532            8600.00
01533            9000.00
01534            9000.00
01535            9400.00
01536            9800.00
01537           10000.00
01538           10000.00
01539           10600.00
01540           10600.00
01541           10800.00
01542           11000.00
01543           11400.00
01544           11600.00
01545           11600.00
01546           12000.00
01547           12200.00
01548           12400.00
01549           12600.00
01550           12800.00
01551           13000.00
01552           13200.00
01553           13200.00
01554           13400.00
01555           13800.00
01556           13800.00
01557           14000.00
01558           14200.00
01559           14200.00
01560           14600.00
01561           14600.00
01562           14800.00
01563           14800.00
01564           15000.00
01565           15000.00
01566           15400.00
01567           15400.00
01568           15400.00
01569           15600.00
01570           15800.00
01571           15800.00
01572           15800.00
01573           16000.00
01574           16000.00
01575           16200.00
01576           16200.00
01577           16200.00
01578           16200.00
01579           16200.00
01580           16400.00
01581           16400.00
01582           16400.00
01583           16400.00
01584           16400.00
01585           16400.00
01586           16400.00
01587           16400.00
01588           16400.00
01589           16400.00
01590           16400.00
01591           16400.00
01592           16200.00
01593           16200.00
01594           16200.00
01595           16200.00
01596           15800.00
01597           15800.00
01598           15800.00
01599           15800.00
01600           15600.00
01601           15600.00
01602           15400.00
01603           15400.00
01604           15200.00
01605           15000.00
01606           15000.00
01607           14800.00
01608           14800.00
01609           14600.00
01610           14600.00
01611           14200.00
01612           14000.00
01613           14200.00
01614           13800.00
01615           13600.00
01616           13400.00
01617           13200.00
01618           13000.00
01619           13000.00
01620           12800.00
01621           12600.00
01622           12400.00
01623           12200.00
01624           12000.00
01625           11800.00
01626           11600.00
01627           11400.00
01628           11200.00
01629           11000.00
01630           10600.00
01631           10400.00
01632           10200.00
01633            9800.00
01634            9800.00
01635            9600.00
01636            9200.00
01637            9000.00
01638            8600.00
01639            8400.00
01640            8200.00
01641            7800.00
01642            7600.00
01643            7400.00
01644            7200.00
01645            6800.00
01646            6600.00
01647            6200.00
01648            6000.00
01649            5800.00
01650            5600.00
01651            5200.00
01652            4800.00
01653            4400.00
01654            4200.00
01655            4200.00
01656            3600.00
01657            3400.00
01658            3000.00
01659            2800.00
01660            2400.00
01661            2200.00
01662            1800.00
01663            1400.00
01664            1200.00
01665            1000.00
01666             600.00
01667             400.00
01668            -200.00
01669            -400.00
01670            -600.00
01671           -1000.00
01672           -1200.00
01673           -1400.00
01674           -1800.00
01675           -2000.00
01676           -2200.00
01677           -2400.00
01678           -3000.00
01679           -3600.00
01680           -3800.00
01681           -3800.00
01682           -3800.00
01683           -4400.00
01684           -4600.00
01685           -4800.00
01686           -5400.00
01687           -5800.00
01688           -5800.00
01689           -6000.00
01690           -6400.00
01691           -6800.00
01692           -7000.00
01693           -7200.00
01694           -7600.00
01695           -7800.00
01696           -8000.00
01697           -8200.00
01698           -8600.00
01699           -9000.00
01700           -9200.00
01701           -9400.00
01702           -9400.00
01703          -10000.00
01704          -10000.00
01705          -10200.00
01706          -10600.00
01707          -10800.00
01708          -11000.00
01709          -11000.00
01710          -11600.00
01711          -11800.00
01712          -11800.00
01713          -12200.00
01714          -12400.00
01715          -12600.00
01716          -12600.00
01717          -13000.00
01718          -13000.00
01719          -13200.00
01720          -13400.00
01721          -13800.00
01722          -13800.00
01723          -13800.00
01724          -14000.00
01725          -14000.00
01726          -14600.00
01727          -14600.00
01728          -14800.00
01729          -14800.00
01730          -15000.00
01731          -15000.00
01732          -15200.00
01733          -15400.00
01734          -15400.00
01735          -15600.00
01736          -15600.00
01737          -15600.00
01738          -15800.00
01739          -15800.00
01740          -15800.00
01741          -16000.00
01742          -15800.00
01743          -16200.00
01744          -16200.00
01745          -16200.00
01746          -16200.00
01747          -16200.00
01748          -16000.00
01749          -16200.00
01750          -16200.00
01751          -16400.00
01752          -16200.00
01753          -16200.00
01754          -16200.00
01755          -16200.00
01756          -16000.00
01757          -16000.00
01758          -15800.00
01759          -15800.00
01760          -16000.00
01761          -16000.00
01762          -15800.00
01763          -15800.00
01764          -15800.00
01765          -15600.00
01766          -15600.00
01767          -15400.00
01768          -15400.00
01769          -15200.00
01770          -15000.00
01771          -15000.00
01772          -14800.00
01773          -14800.00
01774          -14800.00
01775          -14600.00
01776          -14200.00
01777          -14200.00
01778          -14000.00
01779          -14000.00
01780          -13800.00
01781          -13600.00
01782          -13400.00
01783          -13200.00
01784          -13200.00
01785          -13000.00
01786          -12800.00
01787          -12400.00
01788          -12400.00
01789          -12200.00
01790          -11800.00
01791          -11600.00
01792          -11600.00
01793          -11200.00
01794          -11000.00
01795          -10800.00
01796          -10600.00
01797          -10400.00
01798          -10200.00
01799          -10000.00
01800           -9600.00
01801           -9400.00
01802           -9200.00
01803           -9000.00
01804           -8600.00
01805           -8400.00
01806           -8200.00
01807           -7800.00
01808           -7600.00
01809           -7400.00
01810           -7000.00
01811           -6800.00
01812           -6600.00
01813           -6200.00
01814           -6000.00
01815           -5800.00
01816           -5400.00
01817           -5200.00
01818           -4600.00
01819           -4400.00
01820           -4200.00
01821           -3800.00
01822           -3600.00
01823           -3200.00
01824           -2800.00
01825           -2800.00
01826           -2200.00
01827           -2000.00
01828           -2000.00
01829           -1400.00
01830           -1200.00
01831           -1000.00
01832            -600.00
01833            -400.00
01834             200.00
01835             400.00
01836             600.00
01837            1000.00
01838            1200.00
01839            1400.00
01840            1800.00
01841            2000.00
01842            2400.00
01843            2600.00
01844            3000.00
01845            3400.00
01846            3600.00
01847            3800.00
01848            4200.00
01849            4400.00
01850            4600.00
01851            5200.00
01852            5400.00
01853            5800.00
01854            5800.00
01855            6200.00
01856            6600.00
01857            6600.00
01858            6800.00
01859            7400.00
01860            7400.00
01861            7800.00
01862            7800.00
01863            8200.00
01864            8600.00
01865            9000.00
01866            9000.00
01867            9200.00
01868            9600.00
01869            9800.00
01870           10200.00
01871           10200.00
01872           10600.00
01873           10800.00
01874           11000.00
01875           11400.00
01876           11600.00
01877           11800.00
01878           11800.00
01879           12200.00
01880           12400.00
01881           12600.00
01882           12600.00
01883           13000.00
01884           13200.00
01885           13200.00
01886           13400.00
01887           13800.00
01888           14000.00
01889           14000.00
01890           14200.00
01891           14200.00
01892           14400.00
01893           14600.00
01894           14800.00
01895           14800.00
01896           15000.00
01897           15000.00
01898           15400.00
01899           15400.00
01900           15600.00
01901           15600.00
01902           15600.00
01903           15800.00
01904           15800.00
01905           16000.00
01906           16000.00
01907           16200.00
01908           16200.00
01909           16200.00
01910           16200.00
01911           16200.00
01912           16200.00
01913           16400.00
01914           16400.00
01915           16400.00
01916           16200.00
01917           16400.00
01918           16400.00
01919           16400.00
01920           16400.00
01921           16400.00
01922           16400.00
01923           16200.00
01924           16200.00
01925           16200.00
01926           16200.00
01927           16000.00
01928           16000.00
01929           15800.00
01930           15800.00
01931           15600.00
01932           15600.00
01933           15600.00
01934           15400.00
01935           15400.00
01936           15200.00
01937           15000.00
01938           15000.00
01939           14800.00
01940           14800.00
01941           14600.00
01942           14600.00
01943           14200.00
01944           14200.00
01945           14000.00
01946           13800.00
01947           13800.00
01948           13400.00
01949           13200.00
01950           13200.00
01951           13000.00
01952           12800.00
01953           12600.00
01954           12400.00
01955           12200.00
01956           12200.00
01957           11800.00
01958           11600.00
01959           11600.00
01960           11000.00
01961           10800.00
01962           10800.00
01963           10600.00
01964           10400.00
01965           10200.00
01966            9800.00
01967            9600.00
01968            9200.00
01969            9000.00
01970            8600.00
01971            8600.00
01972            8200.00
01973            7800.00
01974            7800.00
01975            7400.00
01976            7200.00
01977            6800.00
01978            6800.00
01979            6200.00
01980            6000.00
01981            5800.00
01982            5400.00
01983            5200.00
01984            5000.00
01985            4600.00
01986            4200.00
01987            4000.00
01988            3600.00
01989            3400.00
01990            3000.00
01991            2800.00
01992            2600.00
01993            2200.00
01994            1800.00
01995            1400.00
01996            1200.00
01997            1000.00
01998             600.00
01999             400.00
02000             200.00
02001            -400.00
02002            -600.00
02003            -600.00
02004           -1200.00
02005           -1200.00
02006           -1800.00
02007           -2000.00
02008           -2200.00
02009           -2600.00
02010           -3000.00
02011           -3400.00
02012           -3800.00
02013           -3800.00
02014           -3800.00
02015           -4400.00
02016           -4600.00
02017           -4600.00
02018           -5200.00
02019           -5400.00
02020           -5800.00
02021           -6000.00
02022           -6400.00
02023           -6600.00
02024           -7000.00
02025           -7000.00
02026           -7400.00
02027           -7800.00
02028           -8000.00
02029           -8200.00
02030           -8400.00
02031           -9000.00
02032           -9000.00
02033           -9200.00
02034           -9400.00
02035           -9800.00
02036          -10000.00
02037          -10200.00
02038          -10600.00
02039          -10800.00
02040          -10800.00
02041          -11400.00
02042          -11400.00
02043          -11800.00
02044          -11800.00
02045          -12200.00
02046          -12200.00
02047          -12400.00
02048          -12600.00
02049          -12600.00
02050          -13000.00
02051          -13200.00
02052          -13400.00
02053          -13600.00
02054          -13800.00
02055          -14000.00
02056          -14000.00
02057          -14200.00
02058          -14600.00
02059          -14600.00
02060          -14800.00
02061          -15000.00
02062          -15000.00
02063          -15000.00
02064          -15000.00
02065          -15400.00
02066          -15400.00
02067          -15400.00
02068          -15600.00
02069          -15800.00
02070          -15600.00
02071          -15800.00
02072          -15800.00
02073          -15800.00
02074          -16200.00
02075          -16000.00
02076          -16200.00
02077          -16200.00
02078          -16200.00
02079          -16200.00
02080          -16200.00
02081          -16200.00
02082          -16200.00
02083          -16400.00
02084          -16400.00
02085          -16200.00
02086          -16200.00
02087          -16200.00
02088          -16200.00
02089          -16200.00
02090          -16000.00
02091          -15800.00
02092          -15800.00
02093          -15800.00
02094          -15800.00
02095          -15800.00
02096          -15600.00
02097          -15600.00
02098          -15600.00
02099          -15600.00
02100          -15400.00
02101          -15400.00
02102          -15000.00
02103          -15000.00
02104          -15000.00
02105          -14800.00
02106          -14600.00
02107          -14600.00
02108          -14600.00
02109          -14200.00
02110          -14200.00
02111          -14000.00
02112          -13800.00
02113          -13600.00
02114          -13400.00
02115          -13400.00
02116          -13000.00
02117          -13000.00
02118          -12800.00
02119          -12600.00
02120          -12400.00
02121          -12200.00
02122          -11800.00
02123          -11800.00
02124          -11600.00
02125          -11400.00
02126          -11000.00
02127          -10800.00
02128          -10800.00
02129          -10600.00
02130          -10200.00
02131          -10000.00
02132          -10000.00
02133           -9400.00
02134           -9200.00
02135           -9000.00
02136           -8600.00
02137           -8400.00
02138           -8400.00
02139           -8200.00
02140           -7800.00
02141           -7400.00
02142           -7200.00
02143           -6800.00
02144           -6800.00
02145           -6200.00
02146           -6000.00
02147           -5800.00
02148           -5400.00
02149           -5200.00
02150           -5000.00
02151           -4400.00
02152           -4400.00
02153           -4200.00
02154           -3800.00
02155           -3200.00
02156           -3000.00
02157           -2800.00
02158           -2200.00
02159           -2200.00
02160           -1800.00
02161           -1400.00
02162           -1200.00
02163           -1000.00
02164            -600.00
02165            -400.00
02166             200.00
02167             200.00
02168             600.00
02169            1000.00
02170            1000.00
02171            1400.00
02172            1800.00
02173            2000.00
02174            2200.00
02175            2600.00
02176            2800.00
02177            3400.00
02178            3600.00
02179            3800.00
02180            4200.00
02181            4200.00
02182            4600.00
02183            4600.00
02184            5200.00
02185            5400.00
02186            5600.00
02187            5800.00
02188            6200.00
02189            6600.00
02190            6800.00
02191            7200.00
02192            7400.00
02193            7800.00
02194            8200.00
02195            8200.00
02196            8400.00
02197            8600.00
02198            9200.00
02199            9200.00
02200            9600.00
02201            9800.00
02202           10000.00
02203           10200.00
02204           10600.00
02205           10800.00
02206           11000.00
02207           11000.00
02208           11400.00
02209           11600.00
02210           11800.00
02211           12000.00
02212           12400.00
02213           12600.00
02214           12600.00
02215           13000.00
02216           13200.00
02217           13200.00
02218           13400.00
02219           13800.00
02220           13800.00
02221           14000.00
02222           14000.00
02223           14200.00
02224           14600.00
02225           14600.00
02226           14800.00
02227           14800.00
02228           15000.00
02229           15000.00
02230           15400.00
02231           15400.00
02232           15600.00
02233           15400.00
02234           15800.00
02235           15600.00
02236           15800.00
02237           15800.00
02238           16000.00
02239           16000.00
02240           16200.00
02241           16200.00
02242           16200.00
02243           16200.00
02244           16400.00
02245           16200.00
02246           16400.00
02247           16400.00
02248           16200.00
02249           16200.00
02250           16200.00
02251           16400.00
02252           16200.00
02253           16400.00
02254           16400.00
02255           16200.00
02256           16200.00
02257           16200.00
02258           16200.00
02259           15800.00
02260           15800.00
02261           16000.00
02262           15600.00
02263           15600.00
02264           15600.00
02265           15600.00
02266           15400.00
02267           15400.00
02268           15400.00
02269           15200.00
02270           15000.00
02271           14800.00
02272           14800.00
02273           14800.00
02274           14600.00
02275           14400.00
02276           14000.00
02277           14000.00
02278           14000.00
02279           13800.00
02280           13800.00
02281           13400.00
02282           13200.00
02283           13000.00
02284           13000.00
02285           12600.00
02286           12400.00
02287           12400.00
02288           12200.00
02289           11800.00
02290           11600.00
02291           11600.00
02292           11400.00
02293           11000.00
02294           10800.00
02295           10600.00
02296           10200.00
02297           10000.00
02298           10000.00
02299            9600.00
02300            9400.00
02301            9200.00
02302            9000.00
02303            8600.00
02304            8400.00
02305            8200.00
02306            7800.00
02307            7600.00
02308            7400.00
02309            6800.00
02310            6800.00
02311            6600.00
02312            6200.00
02313            5800.00
02314            5600.00
02315            5200.00
02316            5000.00
02317            4600.00
02318            4400.00
02319            4200.00
02320            3600.00
02321            3400.00
02322            3000.00
02323            2800.00
02324            2600.00
02325            2200.00
02326            2000.00
02327            1800.00
02328            1400.00
02329            1200.00
02330            1000.00
02331             400.00
02332             200.00
02333            -200.00
02334            -400.00
02335            -600.00
02336           -1200.00
02337           -1200.00
02338           -1400.00
02339           -1800.00
02340           -2200.00
02341           -2200.00
02342           -2800.00
02343           -3400.00
02344           -3600.00
02345           -3800.00
02346           -3600.00
02347           -3800.00
02348           -4600.00
02349           -4600.00
02350           -5000.00
02351           -5400.00
02352           -5600.00
02353           -6000.00
02354           -6400.00
02355           -6600.00
02356           -6800.00
02357           -7000.00
02358           -7200.00
02359           -7600.00
02360           -7800.00
02361           -8000.00
02362           -8600.00
02363           -8600.00
02364           -9000.00
02365           -9200.00
02366           -9400.00
02367           -9800.00
02368          -10000.00
02369          -10000.00
02370          -10400.00
02371          -10600.00
02372          -11000.00
02373          -11000.00
02374          -11400.00
02375          -11800.00
02376          -11800.00
02377          -11800.00
02378          -12400.00
02379          -12600.00
02380          -12600.00
02381          -13000.00
02382          -13200.00
02383          -13400.00
02384          -13400.00
02385          -13600.00
02386          -13800.00
02387          -14000.00
02388          -14000.00
02389          -14200.00
02390          -14200.00
02391          -14600.00
02392          -14800.00
02393          -14800.00
02394          -15000.00
02395          -15000.00
02396          -15200.00
02397          -15400.00
02398          -15400.00
02399          -15400.00
02400          -15600.00
02401          -15600.00
02402          -15600.00
02403          -15800.00
02404          -15800.00
02405          -15800.00
02406          -16200.00
02407          -16000.00
02408          -15800.00
02409          -16200.00
02410          -16200.00
02411          -16200.00
02412          -16200.00
02413          -16400.00
02414          -16200.00
02415          -16400.00
02416          -16200.00
02417          -16200.00
02418          -16200.00
02419          -16200.00
02420          -16200.00
02421          -16000.00
02422          -15800.00
02423          -16200.00
02424          -15800.00
02425          -16000.00
02426          -15800.00
02427          -15800.00
02428          -15800.00
02429          -15600.00
02430          -15600.00
02431          -15600.00
02432          -15400.00
02433          -15400.00
02434          -15200.00
02435          -15000.00
02436          -15000.00
02437          -15000.00
02438          -14800.00
02439          -14600.00
02440          -14400.00
02441          -14400.00
02442          -14000.00
02443          -14000.00
02444          -13800.00
02445          -13800.00
02446          -13600.00
02447          -13400.00
02448          -13200.00
02449          -13200.00
02450          -13000.00
02451          -12600.00
02452          -12400.00
02453          -12400.00
02454          -12200.00
02455          -11800.00
02456          -11600.00
02457          -11400.00
02458          -11200.00
02459          -11000.00
02460          -10800.00
02461          -10600.00
02462          -10200.00
02463          -10200.00
02464           -9800.00
02465           -9400.00
02466           -9400.00
02467           -9000.00
02468           -8600.00
02469           -8600.00
02470           -8400.00
02471           -8200.00
02472           -7800.00
02473           -7600.00
02474           -7000.00
02475           -7000.00
02476           -6600.00
02477           -6400.00
02478           -6000.00
02479           -5800.00
02480           -5400.00
02481           -5200.00
02482           -5000.00
02483           -4600.00
02484           -4400.00
02485           -4000.00
02486           -3600.00
02487           -3400.00
02488           -3000.00
02489           -2800.00
02490           -2600.00
02491           -2200.00
02492           -2000.00
02493           -1400.00
02494           -1200.00
02495           -1000.00
02496            -600.00
02497            -400.00
02498               0.00
02499             200.00
02500             400.00
02501             800.00
02502            1000.00
02503            1400.00
02504            1600.00
02505            2000.00
02506            2200.00
02507            2600.00
02508            2800.00
02509            3000.00
02510            3600.00
02511            3800.00
02512            4000.00
02513            4200.00
02514            4400.00
02515            4800.00
02516            5200.00
02517            5400.00
02518            5800.00
02519            6000.00
02520            6200.00
02521            6600.00
02522            6800.00
02523            7000.00
02524            7400.00
02525            7800.00
02526            8000.00
02527            8200.00
02528            8400.00
02529            8600.00
02530            9000.00
02531            9200.00
02532            9600.00
02533            9800.00
02534           10000.00
02535           10200.00
02536           10600.00
02537           10600.00
02538           11000.00
02539           11200.00
02540           11400.00
02541           11600.00
02542           11800.00
02543           12200.00
02544           12200.00
02545           12400.00
02546           12600.00
02547           13000.00
02548           13000.00
02549           13400.00
02550           13400.00
02551           13800.00
02552           13800.00
02553           14000.00
02554           14200.00
02555           14200.00
02556           14400.00
02557           14600.00
02558           14800.00
02559           14800.00
02560           15000.00
02561           15000.00
02562           15400.00
02563           15400.00
02564           15400.00
02565           15600.00
02566           15600.00
02567           15600.00
02568           15800.00
02569           15800.00
02570           16200.00
02571           15800.00
02572           16200.00
02573           16200.00
02574           16200.00
02575           16200.00
02576           16200.00
02577           16400.00
02578           16400.00
02579           16200.00
02580           16200.00
02581           16400.00
02582           16200.00
02583           16200.00
02584           16400.00
02585           16200.00
02586           16400.00
02587           16200.00
02588           16200.00
02589           16200.00
02590           16200.00
02591           16000.00
02592           16000.00
02593           15800.00
02594           15800.00
02595           15800.00
02596           15600.00
02597           15600.00
02598           15600.00
02599           15600.00
02600           15400.00
02601           15000.00
02602           15000.00
02603           14800.00
02604           14800.00
02605           14800.00
02606           14600.00
02607           14600.00
02608           14200.00
02609           14200.00
02610           14000.00
02611           13800.00
02612           13600.00
02613           13600.00
02614           13200.00
02615           13200.00
02616           13000.00
02617           12800.00
02618           12600.00
02619           12400.00
02620           12200.00
02621           12000.00
02622           11600.00
02623           11600.00
02624           11600.00
02625           11000.00
02626           10800.00
02627           10600.00
02628           10600.00
02629           10000.00
02630           10000.00
02631            9800.00
02632            9400.00
02633            9200.00
02634            9000.00
02635            9000.00
02636            8400.00
02637            8200.00
02638            7800.00
02639            7800.00
02640            7400.00
02641            7000.00
02642            6800.00
02643            6600.00
02644            6000.00
02645            6000.00
02646            5800.00
02647            5400.00
02648            5200.00
02649            4600.00
02650            4400.00
02651            4200.00
02652            3800.00
02653            3600.00
02654            3400.00
02655            2800.00
02656            2600.00
02657            2600.00
02658            2000.00
02659            1800.00
02660            1400.00
02661            1400.00
02662             800.00
02663             400.00
02664             200.00
02665            -200.00
02666            -200.00
02667            -600.00
02668           -1000.00
02669           -1200.00
02670           -1400.00
02671           -1800.00
02672           -2000.00
02673           -2200.00
02674           -2600.00
02675           -3000.00
02676           -3600.00
02677           -3800.00
02678           -3800.00
02679           -3800.00
02680           -4400.00
02681           -4600.00
02682           -5000.00
02683           -5200.00
02684           -5400.00
02685           -5800.00
02686           -6200.00
02687           -6600.00
02688           -6600.00
02689           -7000.00
02690           -7200.00
02691           -7600.00
02692           -8000.00
02693           -7800.00
02694           -8400.00
02695           -8600.00
02696           -8600.00
02697           -9200.00
02698           -9200.00
02699           -9400.00
02700          -10000.00
02701          -10200.00
02702          -10400.00
02703          -10600.00
02704          -11000.00
02705          -11000.00
02706          -11400.00
02707          -11600.00
02708          -11800.00
02709          -12200.00
02710          -12400.00
02711          -12400.00
02712          -12600.00
02713          -13000.00
02714          -13000.00
02715          -13200.00
02716          -13400.00
02717          -13400.00
02718          -13800.00
02719          -14000.00
02720          -14000.00
02721          -14000.00
02722          -14200.00
02723          -14600.00
02724          -14600.00
02725          -14800.00
02726          -14800.00
02727          -15000.00
02728          -15000.00
02729          -15000.00
02730          -15400.00
02731          -15600.00
02732          -15600.00
02733          -15600.00
02734          -15600.00
02735          -15600.00
02736          -15800.00
02737          -15800.00
02738          -15800.00
02739          -15800.00
02740          -16000.00
02741          -16200.00
02742          -16200.00
02743          -16200.00
02744          -16200.00
02745          -16200.00
02746          -16200.00
02747          -16200.00
02748          -16200.00
02749          -16200.00
02750          -16400.00
02751          -16200.00
02752          -16200.00
02753          -16000.00
02754          -16200.00
02755          -16200.00
02756          -16000.00
02757          -16000.00
02758          -15800.00
02759          -15800.00
02760          -15800.00
02761          -15600.00
02762          -15600.00
02763          -15600.00
02764          -15600.00
02765          -15400.00
02766          -15200.00
02767          -15000.00
02768          -15000.00
02769          -15000.00
02770          -14800.00
02771          -14800.00
02772          -14600.00
02773          -14200.00
02774          -14200.00
02775          -14000.00
02776          -14000.00
02777          -14000.00
02778          -13800.00
02779          -13400.00
02780          -13200.00
02781          -13200.00
02782          -13000.00
02783          -12600.00
02784          -12600.00
02785          -12200.00
02786          -12200.00
02787          -11800.00
02788          -11600.00
02789          -11400.00
02790          -11400.00
02791          -11000.00
02792          -10800.00
02793          -10600.00
02794          -10200.00
02795          -10000.00
02796          -10000.00
02797           -9800.00
02798           -9400.00
02799           -9200.00
02800           -8800.00
02801           -8600.00
02802           -8400.00
02803           -8200.00
02804           -7600.00
02805           -7600.00
02806           -7400.00
02807           -7000.00
02808           -6800.00
02809           -6200.00
02810           -6000.00
02811           -5800.00
02812           -5400.00
02813           -5200.00
02814           -5000.00
02815           -4600.00
02816           -4400.00
02817           -4200.00
02818           -3800.00
02819           -3400.00
02820           -3000.00
02821           -3000.00
02822           -2600.00
02823           -2200.00
02824           -2000.00
02825           -1800.00
02826           -1200.00
02827           -1200.00
02828            -600.00
02829            -600.00
02830            -200.00
02831             200.00
02832             600.00
02833             600.00
02834            1000.00
02835            1000.00
02836            1400.00
02837            1800.00
02838            2000.00
02839            2200.00
02840            2800.00
02841            3000.00
02842            3400.00
02843            3600.00
02844            4000.00
02845            4200.00
02846            4400.00
02847            4800.00
02848            5000.00
02849            5200.00
02850            5800.00
02851            5800.00
02852            6200.00
02853            6400.00
02854            6600.00
02855            7000.00
02856            7400.00
02857            7600.00
02858            7800.00
02859            8200.00
02860            8400.00
02861            8400.00
02862            9000.00
02863            9000.00
02864            9400.00
02865            9800.00
02866           10000.00
02867           10200.00
02868           10400.00
02869           10800.00
02870           10800.00
02871           11000.00
02872           11600.00
02873           11600.00
02874           11800.00
02875           12000.00
02876           12200.00
02877           12400.00
02878           12600.00
02879           13000.00
02880           13000.00
02881           13200.00
02882           13200.00
02883           13800.00
02884           13800.00
02885           13800.00
02886           14000.00
02887           14200.00
02888           14600.00
02889           14600.00
02890           14600.00
02891           14800.00
02892           15000.00
02893           15000.00
02894           15200.00
02895           15400.00
02896           15400.00
02897           15400.00
02898           15600.00
02899           15600.00
02900           15600.00
02901           15800.00
02902           15800.00
02903           15800.00
02904           16200.00
02905           16200.00
02906           16200.00
02907           16200.00
02908           16200.00
02909           16400.00
02910           16200.00
02911           16400.00
02912           16400.00
02913           16400.00
02914           16400.00
02915           16200.00
02916           16400.00
02917           16400.00
02918           16400.00
02919           16200.00
02920           16200.00
02921           16200.00
02922           16200.00
02923           16200.00
02924           15800.00
02925           15800.00
02926           15800.00
02927           15800.00
02928           15600.00
02929           15600.00
02930           15600.00
02931           15600.00
02932           15400.00
02933           15200.00
02934           15000.00
02935           15000.00
02936           14800.00
02937           14800.00
02938           14800.00
02939           14600.00
02940           14200.00
02941           14200.00
02942           14000.00
02943           14000.00
02944           13800.00
02945           13600.00
02946           13200.00
02947           13200.00
02948           13000.00
02949           12600.00
02950           12600.00
02951           12400.00
02952           12200.00
02953           12000.00
02954           11800.00
02955           11600.00
02956           11600.00
02957           11200.00
02958           11000.00
02959           10800.00
02960           10600.00
02961           10200.00
02962           10000.00
02963            9800.00
02964            9400.00
02965            9200.00
02966            9000.00
02967            8600.00
02968            8400.00
02969            8200.00
02970            8000.00
02971            7800.00
02972            7400.00
02973            7200.00
02974            6800.00
02975            6600.00
02976            6200.00
02977            6000.00
02978            5800.00
02979            5400.00
02980            5000.00
02981            4800.00
02982            4400.00
02983            4200.00
02984            3800.00
02985            3600.00
02986            3400.00
02987            3000.00
02988            2800.00
02989            2200.00
02990            2200.00
02991            1800.00
02992            1600.00
02993            1200.00
02994            1000.00
02995             600.00
02996             200.00
02997             200.00
02998               0.00
02999            -600.00
03000           -1000.00
03001           -1200.00
03002           -1400.00
03003           -1600.00
03004           -2000.00
03005           -2200.00
03006           -2600.00
03007           -2800.00
03008           -3400.00
03009           -3800.00
03010           -3800.00
03011           -3800.00
03012           -4200.00
03013           -4600.00
03014           -4800.00
03015           -5200.00
03016           -5400.00
03017           -5600.00
03018           -6000.00
03019           -6600.00
03020           -6800.00
03021           -7000.00
03022           -7000.00
03023           -7400.00
03024           -7800.00
03025           -8200.00
03026           -8200.00
03027           -8600.00
03028           -8600.00
03029           -9200.00
03030           -9400.00
03031           -9800.00
03032          -10000.00
03033          -10000.00
03034          -10400.00
03035          -10600.00
03036          -10800.00
03037          -11000.00
03038          -11000.00
03039          -11600.00
03040          -11800.00
03041          -11800.00
03042          -12400.00
03043          -12400.00
03044          -12600.00
03045          -12800.00
03046          -13000.00
03047          -13200.00
03048          -13400.00
03049          -13400.00
03050          -13600.00
03051          -13800.00
03052          -14000.00
03053          -14200.00
03054          -14200.00
03055          -14400.00
03056          -14600.00
03057          -14800.00
03058          -14800.00
03059          -15000.00
03060          -15000.00
03061          -15200.00
03062          -15400.00
03063          -15400.00
03064          -15600.00
03065          -15600.00
03066          -15600.00
03067          -15800.00
03068          -15600.00
03069          -15800.00
03070          -15800.00
03071          -15800.00
03072          -15800.00
03073          -15800.00
03074          -16200.00
03075          -16000.00
03076          -16200.00
03077          -16200.00
03078          -16400.00
03079          -16200.00
03080          -16200.00
03081          -16200.00
03082          -16200.00
03083          -16400.00
03084          -15800.00
03085          -16200.00
03086          -16200.00
03087          -16000.00
03088          -15800.00
03089          -16000.00
03090          -15800.00
03091          -15800.00
03092          -15800.00
03093          -15600.00
03094          -15600.00
03095          -15400.00
03096          -15400.00
03097          -15400.00
03098          -15400.00
03099          -15000.00
03100          -15000.00
03101          -15000.00
03102          -14800.00
03103          -14800.00
03104          -14600.00
03105          -14400.00
03106          -14200.00
03107          -14000.00
03108          -14000.00
03109          -13800.00
03110          -13800.00
03111          -13600.00
03112          -13400.00
03113          -13200.00
03114          -13000.00
03115          -12600.00
03116          -12400.00
03117          -12400.00
03118          -12400.00
03119          -11800.00
03120          -11800.00
03121          -11800.00
03122          -11400.00
03123          -11000.00
03124          -10800.00
03125          -10600.00
03126          -10400.00
03127          -10200.00
03128          -10000.00
03129           -9600.00
03130           -9400.00
03131           -9200.00
03132           -9000.00
03133           -8600.00
03134           -8600.00
03135           -8400.00
03136           -7800.00
03137           -7600.00
03138           -7400.00
03139           -7000.00
03140           -6800.00
03141           -6600.00
03142           -6200.00
03143           -6000.00
03144           -5400.00
03145           -5400.00
03146           -5000.00
03147           -4600.00
03148           -4400.00
03149           -4200.00
03150           -3800.00
03151           -3600.00
03152           -3200.00
03153           -2800.00
03154           -2800.00
03155           -2200.00
03156           -2200.00
03157           -1800.00
03158           -1400.00
03159           -1200.00
03160           -1000.00
03161            -600.00
03162            -400.00
03163            -200.00
03164             200.00
03165             600.00
03166             600.00
03167            1200.00
03168            1400.00
03169            1800.00
03170            2000.00
03171            2200.00
03172            2600.00
03173            3000.00
03174            3400.00
03175            3600.00
03176            3800.00
03177            4200.00
03178            4200.00
03179            4600.00
03180            5000.00
03181            5200.00
03182            5800.00
03183            5800.00
03184            6000.00
03185            6400.00
03186            6600.00
03187            6800.00
03188            7400.00
03189            7600.00
03190            7800.00
03191            8200.00
03192            8400.00
03193            8600.00
03194            9000.00
03195            9000.00
03196            9400.00
03197            9800.00
03198           10000.00
03199           10200.00
03200           10600.00
03201           10600.00
03202           10800.00
03203           11000.00
03204           11400.00
03205           11600.00
03206           11800.00
03207           12200.00
03208           12200.00
03209           12400.00
03210           12600.00
03211           13000.00
03212           13000.00
03213           13200.00
03214           13400.00
03215           13400.00
03216           13800.00
03217           14000.00
03218           14000.00
03219           14200.00
03220           14600.00
03221           14600.00
03222           14600.00
03223           14800.00
03224           15000.00
03225           15000.00
03226           15000.00
03227           15400.00
03228           15400.00
03229           15400.00
03230           15400.00
03231           15600.00
03232           15800.00
03233           15800.00
03234           15800.00
03235           16200.00
03236           16000.00
03237           16200.00
03238           16200.00
03239           16200.00
03240           16200.00
03241           16400.00
03242           16200.00
03243           16400.00
03244           16200.00
03245           16400.00
03246           16200.00
03247           16400.00
03248           16400.00
03249           16200.00
03250           16200.00
03251           16200.00
03252           16200.00
03253           16200.00
03254           16200.00
03255           16000.00
03256           16000.00
03257           16000.00
03258           15800.00
03259           15800.00
03260           15800.00
03261           15600.00
03262           15600.00
03263           15400.00
03264           15400.00
03265           15400.00
03266           15200.00
03267           15000.00
03268           15000.00
03269           14800.00
03270           14800.00
03271           14600.00
03272           14600.00
03273           14200.00
03274           14000.00
03275           14000.00
03276           13800.00
03277           13800.00
03278           13400.00
03279           13200.00
03280           13000.00
03281           13000.00
03282           12600.00
03283           12400.00
03284           12400.00
03285           12200.00
03286           11800.00
03287           11600.00
03288           11600.00
03289           11200.00
03290           11000.00
03291           10600.00
03292           10600.00
03293           10200.00
03294           10000.00
03295            9800.00
03296            9400.00
03297            9200.00
03298            9000.00
03299            8800.00
03300            8600.00
03301            8200.00
03302            7800.00
03303            7600.00
03304            7400.00
03305            7000.00
03306            6800.00
03307            6600.00
03308            6200.00
03309            6000.00
03310            5800.00
03311            5400.00
03312            5200.00
03313            4600.00
03314            4600.00
03315            4200.00
03316            4200.00
03317            3600.00
03318            3600.00
03319            3000.00
03320            2800.00
03321            2600.00
03322            2200.00
03323            2000.00
03324            1800.00
03325            1200.00
03326            1000.00
03327             600.00
03328             400.00
03329             200.00
03330            -200.00
03331            -400.00
03332            -600.00
03333           -1000.00
03334           -1200.00
03335           -1600.00
03336           -1800.00
03337           -2200.00
03338           -2200.00
03339           -2800.00
03340           -3400.00
03341           -3600.00
03342           -3800.00
03343           -3600.00
03344           -4200.00
03345           -4600.00
03346           -5000.00
03347           -5000.00
03348           -5400.00
03349           -5600.00
03350           -6000.00
03351           -6200.00
03352           -6600.00
03353           -7000.00
03354           -7000.00
03355           -7400.00
03356           -7800.00
03357           -8000.00
03358           -8200.00
03359           -8400.00
03360           -8600.00
03361           -9200.00
03362           -9200.00
03363           -9400.00
03364           -9800.00
03365          -10200.00
03366          -10200.00
03367          -10600.00
03368          -10800.00
03369          -11000.00
03370          -11400.00
03371          -11400.00
03372          -11600.00
03373          -11800.00
03374          -12200.00
03375          -12200.00
03376          -12600.00
03377          -12600.00
03378          -13000.00
03379          -13200.00
03380          -13200.00
03381          -13400.00
03382          -13800.00
03383          -13800.00
03384          -14000.00
03385          -14000.00
03386          -14000.00
03387          -14400.00
03388          -14600.00
03389          -14600.00
03390          -14800.00
03391          -14800.00
03392          -15000.00
03393          -15000.00
03394          -15200.00
03395          -15400.00
03396          -15400.00
03397          -15400.00
03398          -15600.00
03399          -15600.00
03400          -15800.00
03401          -15800.00
03402          -15800.00
03403          -15800.00
03404          -16200.00
03405          -16000.00
03406          -16200.00
03407          -16200.00
03408          -16200.00
03409          -16200.00
03410          -16200.00
03411          -16200.00
03412          -16200.00
03413          -16200.00
03414          -16200.00
03415          -16200.00
03416          -16200.00
03417          -16200.00
03418          -16200.00
03419          -16000.00
03420          -16200.00
03421          -16000.00
03422          -15800.00
03423          -15800.00
03424          -15800.00
03425          -15600.00
03426          -15800.00
03427          -15600.00
03428          -15600.00
03429          -15600.00
03430          -15200.00
03431          -15400.00
03432          -15000.00
03433          -15000.00
03434          -14800.00
03435          -14800.00
03436          -14600.00
03437          -14600.00
03438          -14400.00
03439          -14200.00
03440          -14000.00
03441          -14000.00
03442          -13800.00
03443          -13800.00
03444          -13400.00
03445          -13200.00
03446          -13200.00
03447          -12600.00
03448          -12600.00
03449          -12400.00
03450          -12200.00
03451          -11800.00
03452          -11800.00
03453          -11600.00
03454          -11400.00
03455          -11200.00
03456          -11000.00
03457          -10800.00
03458          -10600.00
03459          -10200.00
03460          -10000.00
03461           -9800.00
03462           -9400.00
03463           -9200.00
03464           -9000.00
03465           -8600.00
03466           -8600.00
03467           -8200.00
03468           -8200.00
03469           -7600.00
03470           -7600.00
03471           -7000.00
03472           -6800.00
03473           -6600.00
03474           -6200.00
03475           -6000.00
03476           -5800.00
03477           -5400.00
03478           -5200.00
03479           -5000.00
03480           -4400.00
03481           -4400.00
03482           -3800.00
03483           -3600.00
03484           -3400.00
03485           -3000.00
03486           -2800.00
03487           -2200.00
03488           -2200.00
03489           -2000.00
03490           -1600.00
03491           -1200.00
03492           -1000.00
03493            -600.00
03494            -600.00
03495            -200.00
03496             200.00
03497             400.00
03498             800.00
03499            1000.00
03500            1200.00
03501            1800.00
03502            2000.00
03503            2200.00
03504            2400.00
03505            2800.00
03506            3000.00
03507            3600.00
03508            3800.00
03509            3800.00
03510            4200.00
03511            4400.00
03512            4800.00
03513            5200.00
03514            5400.00
03515            5800.00
03516            6000.00
03517            6200.00
03518            6600.00
03519            6800.00
03520            7400.00
03521            7400.00
03522            7600.00
03523            8200.00
03524            8200.00
03525            8400.00
03526            9000.00
03527            9000.00
03528            9200.00
03529            9400.00
03530            9800.00
03531           10000.00
03532           10200.00
03533           10600.00
03534           10800.00
03535           11000.00
03536           11400.00
03537           11400.00
03538           11600.00
03539           11800.00
03540           12200.00
03541           12400.00
03542           12600.00
03543           13000.00
03544           13000.00
03545           13200.00
03546           13200.00
03547           13600.00
03548           13800.00
03549           13800.00
03550           14000.00
03551           14200.00
03552           14200.00
03553           14200.00
03554           14600.00
03555           14800.00
03556           14800.00
03557           14800.00
03558           15000.00
03559           15000.00
03560           15200.00
03561           15400.00
03562           15400.00
03563           15600.00
03564           15600.00
03565           15600.00
03566           15800.00
03567           15800.00
03568           15800.00
03569           16200.00
03570           16200.00
03571           16200.00
03572           16200.00
03573           16200.00
03574           16200.00
03575           16400.00
03576           16200.00
03577           16200.00
03578           16200.00
03579           16200.00
03580           16400.00
03581           16400.00
03582           16200.00
03583           16400.00
03584           16200.00
03585           16200.00
03586           16200.00
03587           16200.00
03588           16000.00
03589           16200.00
03590           16000.00
03591           15800.00
03592           15800.00
03593           15800.00
03594           15600.00
03595           15600.00
03596           15400.00
03597           15400.00
03598           15200.00
03599           15000.00
03600           14800.00
03601           14800.00
03602           14800.00
03603           14600.00
03604           14600.00
03605           14200.00
03606           14200.00
03607           14000.00
03608           13800.00
03609           13800.00
03610           13600.00
03611           13200.00
03612           13200.00
03613           13000.00
03614           12800.00
03615           12400.00
03616           12400.00
03617           12200.00
03618           12000.00
03619           11600.00
03620           11400.00
03621           11200.00
03622           11000.00
03623           10600.00
03624           10600.00
03625           10200.00
03626           10000.00
03627            9800.00
03628            9600.00
03629            9200.00
03630            9000.00
03631            8600.00
03632            8600.00
03633            8400.00
03634            8200.00
03635            7600.00
03636            7600.00
03637            7000.00
03638            6800.00
03639            6600.00
03640            6600.00
03641            6000.00
03642            5800.00
03643            5600.00
03644            5200.00
03645            5000.00
03646            4600.00
03647            4200.00
03648            4200.00
03649            3600.00
03650            3600.00
03651            3400.00
03652            2800.00
03653            2600.00
03654            2200.00
03655            2000.00
03656            1800.00
03657            1400.00
03658            1200.00
03659            1000.00
03660             600.00
03661             200.00
03662            -200.00
03663            -400.00
03664            -600.00
03665           -1000.00
03666           -1200.00
03667           -1400.00
03668           -1800.00
03669           -2000.00
03670           -2200.00
03671           -2600.00
03672           -3000.00
03673           -3600.00
03674           -3800.00
03675           -3800.00
03676           -3800.00
03677           -4600.00
03678           -4600.00
03679           -5000.00
03680           -5400.00
03681           -5400.00
03682           -6000.00
03683           -6200.00
03684           -6600.00
03685           -6800.00
03686           -7000.00
03687           -7400.00
03688           -7600.00
03689           -7800.00
03690           -8200.00
03691           -8600.00
03692           -8600.00
03693           -9000.00
03694           -9400.00
03695           -9400.00
03696           -9800.00
03697          -10000.00
03698          -10200.00
03699          -10600.00
03700          -10800.00
03701          -10800.00
03702          -11000.00
03703          -11400.00
03704          -11600.00
03705          -11800.00
03706          -12200.00
03707          -12400.00
03708          -12400.00
03709          -12600.00
03710          -12600.00
03711          -13200.00
03712          -13200.00
03713          -13400.00
03714          -13400.00
03715          -13800.00
03716          -14000.00
03717          -14000.00
03718          -14200.00
03719          -14200.00
03720          -14200.00
03721          -14600.00
03722          -14800.00
03723          -14800.00
03724          -15000.00
03725          -15000.00
03726          -15200.00
03727          -15000.00
03728          -15400.00
03729          -15400.00
03730          -15600.00
03731          -15600.00
03732          -15600.00
03733          -15800.00
03734          -15800.00
03735          -15800.00
03736          -16200.00
03737          -16000.00
03738          -15800.00
03739          -16200.00
03740          -16200.00
03741          -16200.00
03742          -16200.00
03743          -16200.00
03744          -16200.00
03745          -16400.00
03746          -16200.00
03747          -16200.00
03748          -16200.00
03749          -16200.00
03750          -16200.00
03751          -16200.00
03752          -16200.00
03753          -16000.00
03754          -15800.00
03755          -15800.00
03756          -15800.00
03757          -15800.00
03758          -15600.00
03759          -15600.00
03760          -15600.00
03761          -15400.00
03762          -15400.00
03763          -15200.00
03764          -15200.00
03765          -15000.00
03766          -15000.00
03767          -14800.00
03768          -14800.00
03769          -14600.00
03770          -14400.00
03771          -14200.00
03772          -14000.00
03773          -14000.00
03774          -13800.00
03775          -13400.00
03776          -13400.00
03777          -13200.00
03778          -13000.00
03779          -13000.00
03780          -12400.00
03781          -12400.00
03782          -12200.00
03783          -12000.00
03784          -11800.00
03785          -11600.00
03786          -11400.00
03787          -11200.00
03788          -10800.00
03789          -10800.00
03790          -10600.00
03791          -10200.00
03792          -10200.00
03793           -9800.00
03794           -9600.00
03795           -9400.00
03796           -9000.00
03797           -8800.00
03798           -8600.00
03799           -8200.00
03800           -8200.00
03801           -7600.00
03802           -7400.00
03803           -7400.00
03804           -7000.00
03805           -6800.00
03806           -6400.00
03807           -6200.00
03808           -5800.00
03809           -5400.00
03810           -5200.00
03811           -5000.00
03812           -4600.00
03813           -4400.00
03814           -4200.00
03815           -3800.00
03816           -3600.00
03817           -3000.00
03818           -2800.00
03819           -2600.00
03820           -2200.00
03821           -2000.00
03822           -1800.00
03823           -1400.00
03824           -1200.00
03825            -800.00
03826            -600.00
03827            -200.00
03828             200.00
03829             400.00
03830             600.00
03831            1000.00
03832            1200.00
03833            1600.00
03834            1800.00
03835            2000.00
03836            2600.00
03837            2600.00
03838            3000.00
03839            3400.00
03840            3800.00
03841            4000.00
03842            4200.00
03843            4400.00
03844            5000.00
03845            5000.00
03846            5200.00
03847            5800.00
03848            6000.00
03849            6200.00
03850            6600.00
03851            6800.00
03852            7000.00
03853            7400.00
03854            7600.00
03855            8200.00
03856            8200.00
03857            8400.00
03858            8600.00
03859            9000.00
03860            9200.00
03861            9400.00
03862            9800.00
03863           10000.00
03864           10200.00
03865           10600.00
03866           10600.00
03867           11000.00
03868           11000.00
03869           11600.00
03870           11600.00
03871           11800.00
03872           12200.00
03873           12200.00
03874           12400.00
03875           12800.00
03876           13000.00
03877           13200.00
03878           13200.00
03879           13200.00
03880           13400.00
03881           13800.00
03882           13800.00
03883           14200.00
03884           14200.00
03885           14200.00
03886           14600.00
03887           14600.00
03888           14800.00
03889           14800.00
03890           15000.00
03891           15400.00
03892           15200.00
03893           15400.00
03894           15400.00
03895           15600.00
03896           15800.00
03897           15600.00
03898           15600.00
03899           15800.00
03900           16200.00
03901           15800.00
03902           16200.00
03903           16200.00
03904           16200.00
03905           16200.00
03906           16400.00
03907           16400.00
03908           16200.00
03909           16400.00
03910           16400.00
03911           16400.00
03912           16400.00
03913           16400.00
03914           16200.00
03915           16400.00
03916           16200.00
03917           16200.00
03918           16200.00
03919           16200.00
03920           16200.00
03921           15800.00
03922           16200.00
03923           15800.00
03924           15800.00
03925           15600.00
03926           15600.00
03927           15600.00
03928           15600.00
03929           15400.00
03930           15400.00
03931           15200.00
03932           15000.00
03933           15000.00
03934           14600.00
03935           14600.00
03936           14600.00
03937           14200.00
03938           14200.00
03939           14000.00
03940           14000.00
03941           13800.00
03942           13400.00
03943           13400.00
03944           13000.00
03945           13000.00
03946           12800.00
03947           12400.00
03948           12200.00
03949           12200.00
03950           11800.00
03951           11600.00
03952           11600.00
03953           11400.00
03954           11000.00
03955           10800.00
03956           10600.00
03957           10400.00
03958           10200.00
03959            9800.00
03960            9800.00
03961            9400.00
03962            9200.00
03963            9000.00
03964            8600.00
03965            8400.00
03966            8000.00
03967            7800.00
03968            7600.00
03969            7400.00
03970            7000.00
03971            6800.00
03972            6600.00
03973            6200.00
03974            6000.00
03975            5800.00
03976            5400.00
03977            5200.00
03978            4600.00
03979            4200.00
03980            4200.00
03981            3800.00
03982            3600.00
03983            3400.00
03984            3000.00
03985            2600.00
03986            2400.00
03987            2200.00
03988            1800.00
03989            1600.00
03990            1200.00
03991             800.00
03992             600.00
03993             400.00
03994             200.00
03995            -200.00
03996            -600.00
03997            -600.00
03998           -1200.00
03999           -1400.00
04000           -1600.00
04001           -2200.00
04002           -2200.00
04003           -2600.00
04004           -3000.00
04005           -3600.00
04006           -3800.00
04007           -3800.00
04008           -3800.00
04009           -4400.00
04010           -5000.00
04011           -5000.00
04012           -5400.00
04013           -5600.00
04014           -5600.00
04015           -6200.00
04016           -6600.00
04017           -6800.00
04018           -7000.00
04019           -7200.00
04020           -7600.00
04021           -8000.00
04022           -8200.00
04023           -8400.00
04024           -8600.00
04025           -9000.00
04026           -9200.00
04027           -9400.00
04028           -9400.00
04029          -10000.00
04030          -10200.00
04031          -10200.00
04032          -10800.00
04033          -10800.00
04034          -11200.00
04035          -11400.00
04036          -11600.00
04037          -11600.00
04038          -11800.00
04039          -12200.00
04040          -12400.00
04041          -12600.00
04042          -12600.00
04043          -13000.00
04044          -13200.00
04045          -13400.00
04046          -13400.00
04047          -13600.00
04048          -13800.00
04049          -14000.00
04050          -14000.00
04051          -14200.00
04052          -14600.00
04053          -14600.00
04054          -14600.00
04055          -14800.00
04056          -14800.00
04057          -15000.00
04058          -15000.00
04059          -15400.00
04060          -15400.00
04061          -15400.00
04062          -15600.00
04063          -15600.00
04064          -15600.00
04065          -15800.00
04066          -15800.00
04067          -15800.00
04068          -15800.00
04069          -16000.00
04070          -15800.00
04071          -16200.00
04072          -16200.00
04073          -16200.00
04074          -16200.00
04075          -16200.00
04076          -16200.00
04077          -16200.00
04078          -16200.00
04079          -16200.00
04080          -16200.00
04081          -16200.00
04082          -16200.00
04083          -16200.00
04084          -15800.00
04085          -16000.00
04086          -16000.00
04087          -15800.00
04088          -15800.00
04089          -15800.00
04090          -15600.00
04091          -15600.00
04092          -15600.00
04093          -15400.00
04094          -15600.00
04095          -15400.00
04096          -15000.00
04097          -15000.00
04098          -15000.00
04099          -15000.00
04100          -14800.00
04101          -14600.00
04102          -14200.00
04103          -14200.00
04104          -14000.00
04105          -14000.00
04106          -13800.00
04107          -13600.00
04108          -13400.00
04109          -13400.00
04110          -13200.00
04111          -13000.00
04112          -12600.00
04113          -12600.00
04114          -12400.00
04115          -12000.00
04116          -11800.00
04117          -11800.00
04118          -11600.00
04119          -11200.00
04120          -11000.00
04121          -10800.00
04122          -10600.00
04123          -10200.00
04124          -10200.00
04125           -9800.00
04126           -9600.00
04127           -9400.00
04128           -9200.00
04129           -8600.00
04130           -8600.00
04131           -8400.00
04132           -8200.00
04133           -7800.00
04134           -7600.00
04135           -7000.00
04136           -7000.00
04137           -6800.00
04138           -6600.00
04139           -6200.00
04140           -6000.00
04141           -5800.00
04142           -5400.00
04143           -5000.00
04144           -4600.00
04145           -4400.00
04146           -4200.00
04147           -3800.00
04148           -3600.00
04149           -3200.00
04150           -3000.00
04151           -2600.00
04152           -2200.00
04153           -2000.00
04154           -1800.00
04155           -1800.00
04156           -1200.00
04157           -1000.00
04158            -600.00
04159            -200.00
04160            -200.00
04161             400.00
04162             600.00
04163            1000.00
04164            1200.00
04165            1400.00
04166            1800.00
04167            2000.00
04168            2200.00
04169            2600.00
04170            3000.00
04171            3400.00
04172            3800.00
04173            3800.00
04174            4200.00
04175            4400.00
04176            4800.00
04177            5000.00
04178            5200.00
04179            5800.00
04180            6000.00
04181            6200.00
04182            6600.00
04183            6800.00
04184            7000.00
04185            7400.00
04186            7600.00
04187            7800.00
04188            8200.00
04189            8400.00
04190            8600.00
04191            9000.00
04192            9200.00
04193            9400.00
04194            9800.00
04195           10000.00
04196           10200.00
04197           10600.00
04198           10600.00
04199           11000.00
04200           11000.00
04201           11600.00
04202           11600.00
04203           11600.00
04204           12000.00
04205           12200.00
04206           12400.00
04207           12600.00
04208           12600.00
04209           13000.00
04210           13200.00
04211           13200.00
04212           13400.00
04213           13800.00
04214           13800.00
04215           14000.00
04216           14000.00
04217           14200.00
04218           14200.00
04219           14800.00
04220           14800.00
04221           14800.00
04222           14800.00
04223           15000.00
04224           15400.00
04225           15400.00
04226           15400.00
04227           15400.00
04228           15600.00
04229           15800.00
04230           15800.00
04231           15800.00
04232           15800.00
04233           16200.00
04234           16200.00
04235           16200.00
04236           16200.00
04237           16200.00
04238           16200.00
04239           16400.00
04240           16400.00
04241           16400.00
04242           16400.00
04243           16400.00
04244           16400.00
04245           16400.00
04246           16400.00
04247           16200.00
04248           16400.00
04249           16200.00
04250           16400.00
04251           16200.00
04252           16200.00
04253           16000.00
04254           16200.00
04255           15800.00
04256           15800.00
04257           15800.00
04258           15600.00
04259           15600.00
04260           15600.00
04261           15400.00
04262           15400.00
04263           15000.00
04264           15000.00
04265           15000.00
04266           14800.00
04267           14800.00
04268           14600.00
04269           14200.00
04270           14000.00
04271           14000.00
04272           13800.00
04273           13800.00
04274           13400.00
04275           13200.00
04276           13200.00
04277           13000.00
04278           12800.00
04279           12600.00
04280           12200.00
04281           12200.00
04282           12000.00
04283           11800.00
04284           11600.00
04285           11600.00
04286           11000.00
04287           11000.00
04288           10600.00
04289           10600.00
04290           10200.00
04291           10000.00
04292            9800.00
04293            9800.00
04294            9200.00
04295            9000.00
04296            8600.00
04297            8400.00
04298            8400.00
04299            8200.00
04300            7600.00
04301            7400.00
04302            7200.00
04303            6800.00
04304            6600.00
04305            6200.00
04306            6000.00
04307            5800.00
04308            5400.00
04309            5200.00
04310            5000.00
04311            4600.00
04312            4200.00
04313            3800.00
04314            3600.00
04315            3400.00
04316            3000.00
04317            2800.00
04318            2600.00
04319            2200.00
04320            2000.00
04321            1600.00
04322            1200.00
04323            1000.00
04324             800.00
04325             400.00
04326             200.00
04327            -200.00
04328            -600.00
04329            -800.00
04330           -1000.00
04331           -1200.00
04332           -1800.00
04333           -2000.00
04334           -2200.00
04335           -2600.00
04336           -3000.00
04337           -3600.00
04338           -3800.00
04339           -3800.00
04340           -3800.00
04341           -4200.00
04342           -4600.00
04343           -5000.00
04344           -5400.00
04345           -5400.00
04346           -5800.00
04347           -6200.00
04348           -6600.00
04349           -6600.00
04350           -7000.00
04351           -7000.00
04352           -7600.00
04353           -7800.00
04354           -8200.00
04355           -8400.00
04356           -8600.00
04357           -8800.00
04358           -9000.00
04359           -9400.00
04360           -9600.00
04361           -9800.00
04362          -10200.00
04363          -10200.00
04364          -10600.00
04365          -10800.00
04366          -11000.00
04367          -11400.00
04368          -11600.00
04369          -11600.00
04370          -11800.00
04371          -12200.00
04372          -12400.00
04373          -12600.00
04374          -12600.00
04375          -13000.00
04376          -13200.00
04377          -13400.00
04378          -13400.00
04379          -13400.00
04380          -13800.00
04381          -14000.00
04382          -14000.00
04383          -14200.00
04384          -14600.00
04385          -14600.00
04386          -14800.00
04387          -14800.00
04388          -14800.00
04389          -15000.00
04390          -15000.00
04391          -15400.00
04392          -15400.00
04393          -15400.00
04394          -15600.00
04395          -15600.00
04396          -15600.00
04397          -15800.00
04398          -15800.00
04399          -15800.00
04400          -16200.00
04401          -16000.00
04402          -16000.00
04403          -16200.00
04404          -16200.00
04405          -16200.00
04406          -16200.00
04407          -16400.00
04408          -16200.00
04409          -16200.00
04410          -16400.00
04411          -16400.00
04412          -16200.00
04413          -16200.00
04414          -16200.00
04415          -16200.00
04416          -15800.00
04417          -16000.00
04418          -15800.00
04419          -15800.00
04420          -15800.00
04421          -15800.00
04422          -15600.00
04423          -15600.00
04424          -15600.00
04425          -15600.00
04426          -15400.00
04427          -15400.00
04428          -15200.00
04429          -15000.00
04430          -15000.00
04431          -14800.00
04432          -14800.00
04433          -14600.00
04434          -14200.00
04435          -14600.00
04436          -14200.00
04437          -14000.00
04438          -13800.00
04439          -13400.00
04440          -13400.00
04441          -13400.00
04442          -13400.00
04443          -13000.00
04444          -12800.00
04445          -12600.00
04446          -12400.00
04447          -12200.00
04448          -12000.00
04449          -11600.00
04450          -11400.00
04451          -11400.00
04452          -11000.00
04453          -10800.00
04454          -10600.00
04455          -10200.00
04456          -10200.00
04457          -10000.00
04458           -9800.00
04459           -9400.00
04460           -9200.00
04461           -9000.00
04462           -8600.00
04463           -8400.00
04464           -8200.00
04465           -8000.00
04466           -7600.00
04467           -7400.00
04468           -7000.00
04469           -7000.00
04470           -6600.00
04471           -6200.00
04472           -6000.00
04473           -5800.00
04474           -5400.00
04475           -5200.00
04476           -4600.00
04477           -4600.00
04478           -4200.00
04479           -3800.00
04480           -3600.00
04481           -3400.00
04482           -3000.00
04483           -2800.00
04484           -2600.00
04485           -2000.00
04486           -1800.00
04487           -1400.00
04488           -1200.00
04489           -1000.00
04490            -600.00
04491            -400.00
04492            -200.00
04493             400.00
04494             400.00
04495            1000.00
04496            1200.00
04497            1400.00
04498            1800.00
04499            2000.00
04500            2200.00
04501            2600.00
04502            2800.00
04503            3200.00
04504            3600.00
04505            4000.00
04506            4200.00
04507            4200.00
04508            4600.00
04509            5000.00
04510            5000.00
04511            5800.00
04512            5800.00
04513            6000.00
04514            6400.00
04515            6600.00
04516            6800.00
04517            7400.00
04518            7600.00
04519            7800.00
04520            8200.00
04521            8400.00
04522            8600.00
04523            8800.00
04524            9200.00
04525            9400.00
04526            9800.00
04527            9800.00
04528           10000.00
04529           10200.00
04530           10600.00
04531           10800.00
04532           11000.00
04533           11200.00
04534           11600.00
04535           11600.00
04536           11800.00
04537           12200.00
04538           12400.00
04539           12600.00
04540           12600.00
04541           13000.00
04542           13200.00
04543           13200.00
04544           13400.00
04545           13800.00
04546           13800.00
04547           14000.00
04548           14200.00
04549           14200.00
04550           14400.00
04551           14600.00
04552           14800.00
04553           14800.00
04554           15000.00
04555           14800.00
04556           15000.00
04557           15400.00
04558           15400.00
04559           15600.00
04560           15600.00
04561           15800.00
04562           15600.00
04563           15800.00
04564           15800.00
04565           16200.00
04566           16200.00
04567           16200.00
04568           16200.00
04569           16200.00
04570           16400.00
04571           16200.00
04572           16200.00
04573           16200.00
04574           16400.00
04575           16400.00
04576           16400.00
04577           16200.00
04578           16400.00
04579           16400.00
04580           16400.00
04581           16200.00
04582           16200.00
04583           16200.00
04584           16200.00
04585           16200.00
04586           16000.00
04587           15800.00
04588           15800.00
04589           15600.00
04590           15600.00
04591           15600.00
04592           15400.00
04593           15400.00
04594           15400.00
04595           15200.00
04596           15000.00
04597           14800.00
04598           14800.00
04599           14600.00
04600           14600.00
04601           14200.00
04602           14200.00
04603           14000.00
04604           13800.00
04605           13800.00
04606           13400.00
04607           13200.00
04608           13200.00
04609           13000.00
04610           12800.00
04611           12600.00
04612           12400.00
04613           12200.00
04614           12000.00
04615           11800.00
04616           11600.00
04617           11600.00
04618           11200.00
04619           11000.00
04620           10800.00
04621           10600.00
04622           10200.00
04623           10000.00
04624            9800.00
04625            9400.00
04626            9400.00
04627            9000.00
04628            9000.00
04629            8400.00
04630            8400.00
04631            8200.00
04632            7800.00
04633            7600.00
04634            7400.00
04635            7000.00
04636            6800.00
04637            6600.00
04638            6200.00
04639            5800.00
04640            5800.00
04641            5200.00
04642            5000.00
04643            4600.00
04644            4400.00
04645            4200.00
04646            3800.00
04647            3400.00
04648            3000.00
04649            3000.00
04650            2600.00
04651            2600.00
04652            2000.00
04653            1800.00
04654            1400.00
04655            1000.00
04656             600.00
04657             400.00
04658             200.00
04659            -400.00
04660            -600.00
04661            -800.00
04662           -1200.00
04663           -1200.00
04664           -1600.00
04665           -2000.00
04666           -2000.00
04667           -2200.00
04668           -2800.00
04669           -3400.00
04670           -3800.00
04671           -4000.00
04672           -3800.00
04673           -4200.00
04674           -4600.00
04675           -4800.00
04676           -5200.00
04677           -5400.00
04678           -5800.00
04679           -6000.00
04680           -6400.00
04681           -6600.00
04682           -7000.00
04683           -7400.00
04684           -7400.00
04685           -7800.00
04686           -8200.00
04687           -8200.00
04688           -8600.00
04689           -8600.00
04690           -9000.00
04691           -9200.00
04692           -9400.00
04693           -9800.00
04694           -9800.00
04695          -10200.00
04696          -10600.00
04697          -10600.00
04698          -11000.00
04699          -11000.00
04700          -11400.00
04701          -11600.00
04702          -11800.00
04703          -12200.00
04704          -12200.00
04705          -12400.00
04706          -12600.00
04707          -12800.00
04708          -13200.00
04709          -13200.00
04710          -13400.00
04711          -13400.00
04712          -13800.00
04713          -14000.00
04714          -14000.00
04715          -14200.00
04716          -14400.00
04717          -14600.00
04718          -14600.00
04719          -14800.00
04720          -14800.00
04721          -15000.00
04722          -15000.00
04723          -15400.00
04724          -15600.00
04725          -15400.00
04726          -15600.00
04727          -15600.00
04728          -15800.00
04729          -15800.00
04730          -15800.00
04731          -15800.00
04732          -16000.00
04733          -16000.00
04734          -16200.00
04735          -16200.00
04736          -16400.00
04737          -16200.00
04738          -16200.00
04739          -16200.00
04740          -16200.00
04741          -16200.00
04742          -16400.00
04743          -16200.00
04744          -16200.00
04745          -16200.00
04746          -16200.00
04747          -16200.00
04748          -16200.00
04749          -15800.00
04750          -15800.00
04751          -16000.00
04752          -15800.00
04753          -15800.00
04754          -15600.00
04755          -15800.00
04756          -15600.00
04757          -15600.00
04758          -15400.00
04759          -15400.00
04760          -15200.00
04761          -15000.00
04762          -15000.00
04763          -15000.00
04764          -14800.00
04765          -14600.00
04766          -14200.00
04767          -14200.00
04768          -14200.00
04769          -14000.00
04770          -14000.00
04771          -13800.00
04772          -13400.00
04773          -13200.00
04774          -13200.00
04775          -13000.00
04776          -12800.00
04777          -12600.00
04778          -12400.00
04779          -12200.00
04780          -11800.00
04781          -11800.00
04782          -11600.00
04783          -11400.00
04784          -11000.00
04785          -10800.00
04786          -10600.00
04787          -10400.00
04788          -10200.00
04789          -10000.00
04790           -9800.00
04791           -9400.00
04792           -9200.00
04793           -9200.00
04794           -8800.00
04795           -8600.00
04796           -8400.00
04797           -8200.00
04798           -7800.00
04799           -7600.00
04800           -7400.00
04801           -7000.00
04802           -6600.00
04803           -6600.00
04804           -6000.00
04805           -5800.00
04806           -5600.00
04807           -5200.00
04808           -5000.00
04809           -4600.00
04810           -4400.00
04811           -4000.00
04812           -3800.00
04813           -3400.00
04814           -3000.00
04815           -2800.00
04816           -2600.00
04817           -2200.00
04818           -2000.00
04819           -1800.00
04820           -1200.00
04821           -1000.00
04822            -600.00
04823            -600.00
04824            -200.00
04825             200.00
04826             400.00
04827            1000.00
04828            1000.00
04829            1200.00
04830            1800.00
04831            2000.00
04832            2200.00
04833            2600.00
04834            2800.00
04835            3000.00
04836            3600.00
04837            3800.00
04838            4200.00
04839            4200.00
04840            4600.00
04841            5000.00
04842            5200.00
04843            5400.00
04844            5800.00
04845            6000.00
04846            6600.00
04847            6600.00
04848            6800.00
04849            7000.00
04850            7400.00
04851            7600.00
04852            8000.00
04853            8200.00
04854            8400.00
04855            8600.00
04856            9000.00
04857            9200.00
04858            9400.00
04859            9800.00
04860           10000.00
04861           10200.00
04862           10600.00
04863           10800.00
04864           10800.00
04865           11000.00
04866           11400.00
04867           11600.00
04868           11800.00
04869           12200.00
04870           12200.00
04871           12400.00
04872           12400.00
04873           13000.00
04874           13000.00
04875           13200.00
04876           13400.00
04877           13400.00
04878           13800.00
04879           14000.00
04880           14000.00
04881           14200.00
04882           14600.00
04883           14600.00
04884           14800.00
04885           14800.00
04886           15000.00
04887           15000.00
04888           15200.00
04889           15400.00
04890           15400.00
04891           15400.00
04892           15600.00
04893           15600.00
04894           15800.00
04895           15800.00
04896           16000.00
04897           16000.00
04898           16200.00
04899           16200.00
04900           16200.00
04901           16400.00
04902           16200.00
04903           16200.00
04904           16200.00
04905           16400.00
04906           16400.00
04907           16400.00
04908           16400.00
04909           16200.00
04910           16200.00
04911           16400.00
04912           16200.00
04913           16200.00
04914           16200.00
04915           16200.00
04916           16200.00
04917           16200.00
04918           16000.00
04919           15800.00
04920           15800.00
04921           15800.00
04922           15400.00
04923           15600.00
04924           15400.00
04925           15400.00
04926           15400.00
04927           15200.00
04928           15000.00
04929           15000.00
04930           14800.00
04931           14600.00
04932           14600.00
04933           14600.00
04934           14200.00
04935           14000.00
04936           14000.00
04937           13800.00
04938           13800.00
04939           13400.00
04940           13200.00
04941           13200.00
04942           13000.00
04943           12600.00
04944           12400.00
04945           12400.00
04946           12200.00
04947           11800.00
04948           11600.00
04949           11600.00
04950           11400.00
04951           11000.00
04952           10800.00
04953           10600.00
04954           10600.00
04955           10000.00
04956           10000.00
04957            9800.00
04958            9200.00
04959            9200.00
04960            9000.00
04961            8600.00
04962            8400.00
04963            8200.00
04964            7800.00
04965            7600.00
04966            7400.00
04967            7200.00
04968            6800.00
04969            6600.00
04970            6200.00
04971            6000.00
04972            5800.00
04973            5200.00
04974            5200.00
04975            4800.00
04976            4400.00
04977            4200.00
04978            3800.00
04979            3600.00
04980            3400.00
04981            2800.00
04982            2800.00
04983            2200.00
04984            2000.00
04985            1800.00
04986            1400.00
04987            1200.00
04988            1000.00
04989             400.00
04990             200.00
04991            -200.00
04992            -400.00
04993            -600.00
04994           -1000.00
04995           -1200.00
04996           -1400.00
04997           -1800.00
04998           -2000.00
04999           -2200.00
05000           -2800.00
