Unit:(mV)
                     CH2
Frequency    301.182 kHz
00001            2200.00
00002            2000.00
00003            1600.00
00004            1200.00
00005            1000.00
00006             800.00
00007             200.00
00008             200.00
00009            -200.00
00010            -400.00
00011            -800.00
00012           -1000.00
00013           -1200.00
00014           -1600.00
00015           -1800.00
00016           -2000.00
00017           -2400.00
00018           -2800.00
00019           -3200.00
00020           -3600.00
00021           -3800.00
00022           -4000.00
00023           -4000.00
00024           -4400.00
00025           -4800.00
00026           -4800.00
00027           -5000.00
00028           -5600.00
00029           -5600.00
00030           -6000.00
00031           -6600.00
00032           -6600.00
00033           -6800.00
00034           -7200.00
00035           -7200.00
00036           -8000.00
00037           -8200.00
00038           -8000.00
00039           -8600.00
00040           -8800.00
00041           -9000.00
00042           -9200.00
00043           -9400.00
00044           -9600.00
00045          -10000.00
00046          -10000.00
00047          -10400.00
00048          -10600.00
00049          -10600.00
00050          -11200.00
00051          -11200.00
00052          -11400.00
00053          -11600.00
00054          -12000.00
00055          -12200.00
00056          -12200.00
00057          -12400.00
00058          -12800.00
00059          -12800.00
00060          -13000.00
00061          -13200.00
00062          -13400.00
00063          -13400.00
00064          -13600.00
00065          -13600.00
00066          -14000.00
00067          -14000.00
00068          -14200.00
00069          -14400.00
00070          -14600.00
00071          -14600.00
00072          -14600.00
00073          -14800.00
00074          -14800.00
00075          -14800.00
00076          -15200.00
00077          -15200.00
00078          -15200.00
00079          -15400.00
00080          -15400.00
00081          -15200.00
00082          -15600.00
00083          -15600.00
00084          -15600.00
00085          -15600.00
00086          -15600.00
00087          -15800.00
00088          -15600.00
00089          -15600.00
00090          -15800.00
00091          -15800.00
00092          -15600.00
00093          -15600.00
00094          -15600.00
00095          -15600.00
00096          -15600.00
00097          -15600.00
00098          -15400.00
00099          -15600.00
00100          -15400.00
00101          -15400.00
00102          -15400.00
00103          -15400.00
00104          -15200.00
00105          -15200.00
00106          -15200.00
00107          -15000.00
00108          -14800.00
00109          -14800.00
00110          -14800.00
00111          -14600.00
00112          -14600.00
00113          -14400.00
00114          -14400.00
00115          -14200.00
00116          -13800.00
00117          -13800.00
00118          -13600.00
00119          -13600.00
00120          -13600.00
00121          -13200.00
00122          -13200.00
00123          -12800.00
00124          -12800.00
00125          -12600.00
00126          -12400.00
00127          -12200.00
00128          -12000.00
00129          -12000.00
00130          -11600.00
00131          -11400.00
00132          -11200.00
00133          -11000.00
00134          -10800.00
00135          -10400.00
00136          -10600.00
00137          -10000.00
00138           -9800.00
00139           -9800.00
00140           -9400.00
00141           -9200.00
00142           -9000.00
00143           -8800.00
00144           -8400.00
00145           -8400.00
00146           -8000.00
00147           -7600.00
00148           -7400.00
00149           -7200.00
00150           -6800.00
00151           -6600.00
00152           -6400.00
00153           -6000.00
00154           -5800.00
00155           -5600.00
00156           -5400.00
00157           -5000.00
00158           -4800.00
00159           -4400.00
00160           -4000.00
00161           -4000.00
00162           -3600.00
00163           -3400.00
00164           -2800.00
00165           -2600.00
00166           -2400.00
00167           -2000.00
00168           -1800.00
00169           -1600.00
00170           -1000.00
00171           -1000.00
00172            -400.00
00173            -400.00
00174               0.00
00175             200.00
00176             600.00
00177             800.00
00178            1000.00
00179            1400.00
00180            1600.00
00181            1800.00
00182            2200.00
00183            2400.00
00184            2800.00
00185            3200.00
00186            3400.00
00187            3800.00
00188            4000.00
00189            4200.00
00190            4400.00
00191            4800.00
00192            4800.00
00193            5400.00
00194            5800.00
00195            5800.00
00196            6200.00
00197            6400.00
00198            6800.00
00199            7000.00
00200            7200.00
00201            7600.00
00202            7800.00
00203            8000.00
00204            8400.00
00205            8600.00
00206            8800.00
00207            9200.00
00208            9400.00
00209            9400.00
00210           10000.00
00211            9800.00
00212           10200.00
00213           10400.00
00214           10600.00
00215           11000.00
00216           11200.00
00217           11400.00
00218           11600.00
00219           11800.00
00220           12000.00
00221           12000.00
00222           12400.00
00223           12600.00
00224           12800.00
00225           13000.00
00226           13200.00
00227           13200.00
00228           13400.00
00229           13600.00
00230           13600.00
00231           13800.00
00232           14000.00
00233           14200.00
00234           14200.00
00235           14600.00
00236           14800.00
00237           14600.00
00238           14800.00
00239           14800.00
00240           15000.00
00241           15200.00
00242           15200.00
00243           15200.00
00244           15200.00
00245           15200.00
00246           15600.00
00247           15600.00
00248           15600.00
00249           15800.00
00250           15600.00
00251           15800.00
00252           15800.00
00253           15800.00
00254           15800.00
00255           15800.00
00256           15800.00
00257           16000.00
00258           15800.00
00259           15800.00
00260           15800.00
00261           15800.00
00262           15600.00
00263           15800.00
00264           15800.00
00265           15600.00
00266           15600.00
00267           15600.00
00268           15600.00
00269           15600.00
00270           15400.00
00271           15400.00
00272           15200.00
00273           15200.00
00274           15000.00
00275           15000.00
00276           14800.00
00277           14800.00
00278           14800.00
00279           14400.00
00280           14400.00
00281           14400.00
00282           14200.00
00283           14200.00
00284           13800.00
00285           13800.00
00286           13400.00
00287           13400.00
00288           13200.00
00289           13000.00
00290           12800.00
00291           12800.00
00292           12400.00
00293           12400.00
00294           12200.00
00295           12000.00
00296           11800.00
00297           11600.00
00298           11200.00
00299           11200.00
00300           11000.00
00301           10800.00
00302           10400.00
00303           10200.00
00304            9800.00
00305            9800.00
00306            9600.00
00307            9400.00
00308            9200.00
00309            8800.00
00310            8600.00
00311            8400.00
00312            8000.00
00313            7800.00
00314            7600.00
00315            7200.00
00316            7000.00
00317            6800.00
00318            6400.00
00319            6400.00
00320            6000.00
00321            5600.00
00322            5400.00
00323            5200.00
00324            4800.00
00325            4400.00
00326            4200.00
00327            4000.00
00328            3600.00
00329            3400.00
00330            3000.00
00331            2800.00
00332            2600.00
00333            2200.00
00334            2000.00
00335            1600.00
00336            1400.00
00337            1000.00
00338             800.00
00339             400.00
00340             200.00
00341            -200.00
00342            -400.00
00343            -800.00
00344           -1000.00
00345           -1200.00
00346           -1600.00
00347           -1800.00
00348           -2000.00
00349           -2200.00
00350           -2600.00
00351           -3000.00
00352           -3600.00
00353           -4000.00
00354           -4000.00
00355           -3800.00
00356           -4400.00
00357           -4800.00
00358           -4800.00
00359           -5200.00
00360           -5600.00
00361           -5800.00
00362           -6000.00
00363           -6400.00
00364           -6600.00
00365           -6800.00
00366           -7200.00
00367           -7200.00
00368           -7600.00
00369           -8000.00
00370           -8000.00
00371           -8600.00
00372           -8800.00
00373           -9000.00
00374           -9400.00
00375           -9200.00
00376           -9600.00
00377          -10000.00
00378          -10000.00
00379          -10400.00
00380          -10600.00
00381          -10800.00
00382          -11200.00
00383          -11200.00
00384          -11400.00
00385          -11800.00
00386          -12000.00
00387          -12000.00
00388          -12400.00
00389          -12400.00
00390          -12800.00
00391          -12800.00
00392          -13000.00
00393          -13200.00
00394          -13200.00
00395          -13600.00
00396          -13600.00
00397          -13600.00
00398          -14000.00
00399          -14000.00
00400          -14400.00
00401          -14200.00
00402          -14400.00
00403          -14600.00
00404          -14800.00
00405          -14800.00
00406          -14800.00
00407          -15000.00
00408          -15000.00
00409          -15200.00
00410          -15200.00
00411          -15400.00
00412          -15400.00
00413          -15400.00
00414          -15600.00
00415          -15600.00
00416          -15600.00
00417          -15600.00
00418          -15600.00
00419          -15600.00
00420          -15600.00
00421          -15600.00
00422          -15600.00
00423          -15800.00
00424          -15800.00
00425          -15600.00
00426          -15600.00
00427          -15600.00
00428          -15600.00
00429          -15600.00
00430          -15600.00
00431          -15400.00
00432          -15400.00
00433          -15600.00
00434          -15400.00
00435          -15200.00
00436          -15200.00
00437          -15200.00
00438          -15200.00
00439          -15200.00
00440          -14800.00
00441          -14800.00
00442          -14600.00
00443          -14600.00
00444          -14600.00
00445          -14400.00
00446          -14200.00
00447          -14000.00
00448          -14000.00
00449          -13800.00
00450          -13600.00
00451          -13600.00
00452          -13400.00
00453          -13200.00
00454          -13200.00
00455          -13000.00
00456          -12800.00
00457          -12600.00
00458          -12400.00
00459          -12200.00
00460          -12000.00
00461          -11800.00
00462          -11600.00
00463          -11400.00
00464          -11200.00
00465          -11000.00
00466          -10800.00
00467          -10600.00
00468          -10400.00
00469          -10000.00
00470           -9800.00
00471           -9600.00
00472           -9600.00
00473           -9200.00
00474           -9000.00
00475           -8800.00
00476           -8600.00
00477           -8400.00
00478           -8000.00
00479           -7600.00
00480           -7400.00
00481           -7200.00
00482           -6800.00
00483           -6600.00
00484           -6400.00
00485           -6200.00
00486           -5800.00
00487           -5600.00
00488           -5200.00
00489           -5000.00
00490           -4600.00
00491           -4400.00
00492           -4000.00
00493           -3800.00
00494           -3600.00
00495           -3200.00
00496           -2800.00
00497           -2600.00
00498           -2400.00
00499           -2000.00
00500           -1800.00
00501           -1600.00
00502           -1200.00
00503            -800.00
00504            -600.00
00505            -400.00
00506               0.00
00507             200.00
00508             600.00
00509             800.00
00510            1200.00
00511            1400.00
00512            1800.00
00513            2000.00
00514            2200.00
00515            2400.00
00516            2800.00
00517            3200.00
00518            3600.00
00519            3800.00
00520            4000.00
00521            4000.00
00522            4400.00
00523            4800.00
00524            4800.00
00525            5400.00
00526            5800.00
00527            5600.00
00528            6200.00
00529            6400.00
00530            6800.00
00531            7000.00
00532            7200.00
00533            7600.00
00534            7800.00
00535            8200.00
00536            8400.00
00537            8600.00
00538            8800.00
00539            9200.00
00540            9400.00
00541            9400.00
00542            9800.00
00543           10000.00
00544           10200.00
00545           10400.00
00546           10800.00
00547           11000.00
00548           11200.00
00549           11400.00
00550           11600.00
00551           11800.00
00552           12000.00
00553           12200.00
00554           12400.00
00555           12600.00
00556           12800.00
00557           12800.00
00558           13200.00
00559           13200.00
00560           13400.00
00561           13600.00
00562           13600.00
00563           14000.00
00564           14000.00
00565           14200.00
00566           14200.00
00567           14600.00
00568           14600.00
00569           14600.00
00570           14800.00
00571           15000.00
00572           14800.00
00573           15000.00
00574           15200.00
00575           15200.00
00576           15600.00
00577           15400.00
00578           15600.00
00579           15400.00
00580           15600.00
00581           15600.00
00582           15600.00
00583           15800.00
00584           15800.00
00585           15800.00
00586           15800.00
00587           16000.00
00588           15800.00
00589           16000.00
00590           15800.00
00591           15800.00
00592           15800.00
00593           15800.00
00594           15800.00
00595           15800.00
00596           15800.00
00597           15600.00
00598           15800.00
00599           15600.00
00600           15600.00
00601           15600.00
00602           15400.00
00603           15400.00
00604           15200.00
00605           15200.00
00606           15000.00
00607           15000.00
00608           14800.00
00609           14800.00
00610           14800.00
00611           14400.00
00612           14400.00
00613           14400.00
00614           14200.00
00615           14000.00
00616           13800.00
00617           13800.00
00618           13600.00
00619           13400.00
00620           13200.00
00621           13200.00
00622           12800.00
00623           12800.00
00624           12600.00
00625           12400.00
00626           12400.00
00627           12000.00
00628           11800.00
00629           11600.00
00630           11200.00
00631           11000.00
00632           11000.00
00633           10800.00
00634           10400.00
00635           10200.00
00636           10000.00
00637            9800.00
00638            9600.00
00639            9400.00
00640            9200.00
00641            8800.00
00642            8600.00
00643            8400.00
00644            8000.00
00645            8000.00
00646            7600.00
00647            7200.00
00648            7000.00
00649            6800.00
00650            6400.00
00651            6200.00
00652            6000.00
00653            5600.00
00654            5400.00
00655            5200.00
00656            4800.00
00657            4400.00
00658            4200.00
00659            4000.00
00660            3600.00
00661            3200.00
00662            3200.00
00663            2800.00
00664            2400.00
00665            2200.00
00666            2000.00
00667            1600.00
00668            1400.00
00669            1000.00
00670             800.00
00671             400.00
00672               0.00
00673            -200.00
00674            -400.00
00675            -800.00
00676           -1000.00
00677           -1200.00
00678           -1600.00
00679           -1800.00
00680           -2000.00
00681           -2400.00
00682           -2600.00
00683           -2800.00
00684           -3600.00
00685           -3800.00
00686           -3800.00
00687           -3800.00
00688           -4200.00
00689           -4800.00
00690           -4600.00
00691           -5000.00
00692           -5800.00
00693           -5800.00
00694           -6000.00
00695           -6400.00
00696           -6600.00
00697           -6800.00
00698           -7200.00
00699           -7400.00
00700           -8000.00
00701           -8000.00
00702           -8000.00
00703           -8600.00
00704           -8800.00
00705           -9000.00
00706           -9400.00
00707           -9200.00
00708           -9800.00
00709           -9800.00
00710          -10000.00
00711          -10400.00
00712          -10600.00
00713          -10800.00
00714          -11000.00
00715          -11200.00
00716          -11400.00
00717          -11800.00
00718          -11800.00
00719          -12200.00
00720          -12200.00
00721          -12400.00
00722          -12600.00
00723          -13000.00
00724          -13000.00
00725          -13200.00
00726          -13200.00
00727          -13600.00
00728          -13600.00
00729          -13800.00
00730          -13800.00
00731          -14000.00
00732          -14200.00
00733          -14200.00
00734          -14400.00
00735          -14600.00
00736          -14600.00
00737          -14800.00
00738          -14800.00
00739          -14800.00
00740          -15200.00
00741          -15200.00
00742          -15200.00
00743          -15200.00
00744          -15400.00
00745          -15400.00
00746          -15400.00
00747          -15600.00
00748          -15600.00
00749          -15600.00
00750          -15600.00
00751          -15600.00
00752          -15600.00
00753          -15600.00
00754          -15600.00
00755          -15600.00
00756          -15800.00
00757          -15600.00
00758          -15600.00
00759          -15600.00
00760          -15600.00
00761          -15600.00
00762          -15600.00
00763          -15400.00
00764          -15400.00
00765          -15400.00
00766          -15200.00
00767          -15400.00
00768          -15200.00
00769          -15200.00
00770          -15200.00
00771          -15000.00
00772          -14800.00
00773          -14800.00
00774          -14800.00
00775          -14600.00
00776          -14600.00
00777          -14400.00
00778          -14400.00
00779          -14200.00
00780          -14000.00
00781          -13800.00
00782          -13800.00
00783          -13600.00
00784          -13600.00
00785          -13200.00
00786          -13000.00
00787          -13000.00
00788          -12800.00
00789          -12600.00
00790          -12400.00
00791          -12200.00
00792          -12200.00
00793          -11800.00
00794          -11800.00
00795          -11400.00
00796          -11200.00
00797          -11000.00
00798          -10800.00
00799          -10600.00
00800          -10400.00
00801          -10000.00
00802          -10000.00
00803           -9600.00
00804           -9400.00
00805           -9200.00
00806           -8800.00
00807           -8800.00
00808           -8400.00
00809           -8200.00
00810           -8200.00
00811           -7600.00
00812           -7400.00
00813           -7200.00
00814           -6800.00
00815           -6600.00
00816           -6400.00
00817           -6000.00
00818           -5800.00
00819           -5600.00
00820           -5200.00
00821           -5000.00
00822           -4600.00
00823           -4400.00
00824           -4200.00
00825           -4000.00
00826           -3600.00
00827           -3200.00
00828           -2800.00
00829           -2600.00
00830           -2400.00
00831           -2000.00
00832           -2000.00
00833           -1600.00
00834           -1200.00
00835           -1000.00
00836            -600.00
00837            -400.00
00838            -200.00
00839             400.00
00840             400.00
00841             800.00
00842            1000.00
00843            1400.00
00844            1600.00
00845            2000.00
00846            2200.00
00847            2400.00
00848            2800.00
00849            3000.00
00850            3400.00
00851            3800.00
00852            4000.00
00853            4000.00
00854            4400.00
00855            4800.00
00856            4800.00
00857            5200.00
00858            5800.00
00859            5800.00
00860            6000.00
00861            6400.00
00862            6600.00
00863            7000.00
00864            7200.00
00865            7600.00
00866            7800.00
00867            8200.00
00868            8400.00
00869            8600.00
00870            8600.00
00871            9200.00
00872            9400.00
00873            9400.00
00874           10000.00
00875           10000.00
00876           10200.00
00877           10400.00
00878           10600.00
00879           11000.00
00880           11200.00
00881           11200.00
00882           11600.00
00883           11800.00
00884           12000.00
00885           12200.00
00886           12400.00
00887           12600.00
00888           12600.00
00889           12800.00
00890           13200.00
00891           13200.00
00892           13200.00
00893           13600.00
00894           13600.00
00895           13800.00
00896           14000.00
00897           14000.00
00898           14400.00
00899           14600.00
00900           14800.00
00901           14600.00
00902           14800.00
00903           15000.00
00904           15000.00
00905           15000.00
00906           15200.00
00907           15200.00
00908           15200.00
00909           15600.00
00910           15600.00
00911           15600.00
00912           15600.00
00913           15600.00
00914           15800.00
00915           15600.00
00916           15800.00
00917           15800.00
00918           15800.00
00919           16000.00
00920           15800.00
00921           15600.00
00922           15800.00
00923           16000.00
00924           16000.00
00925           15800.00
00926           15800.00
00927           15800.00
00928           15600.00
00929           15800.00
00930           15800.00
00931           15600.00
00932           15600.00
00933           15600.00
00934           15400.00
00935           15200.00
00936           15200.00
00937           15200.00
00938           15000.00
00939           14800.00
00940           14800.00
00941           14800.00
00942           14600.00
00943           14600.00
00944           14400.00
00945           14200.00
00946           14200.00
00947           14000.00
00948           14000.00
00949           13600.00
00950           13600.00
00951           13400.00
00952           13200.00
00953           13200.00
00954           13000.00
00955           12800.00
00956           12600.00
00957           12400.00
00958           12000.00
00959           12000.00
00960           11800.00
00961           11600.00
00962           11400.00
00963           11200.00
00964           11000.00
00965           10800.00
00966           10400.00
00967           10200.00
00968           10000.00
00969            9600.00
00970            9600.00
00971            9400.00
00972            9200.00
00973            8800.00
00974            8600.00
00975            8400.00
00976            8000.00
00977            7800.00
00978            7600.00
00979            7200.00
00980            7000.00
00981            6800.00
00982            6600.00
00983            6200.00
00984            6000.00
00985            5800.00
00986            5400.00
00987            5200.00
00988            4800.00
00989            4600.00
00990            4400.00
00991            4000.00
00992            3800.00
00993            3600.00
00994            3200.00
00995            2800.00
00996            2600.00
00997            2200.00
00998            2000.00
00999            1600.00
01000            1200.00
01001            1000.00
01002             800.00
01003             400.00
01004             200.00
01005            -200.00
01006            -400.00
01007            -400.00
01008           -1000.00
01009           -1200.00
01010           -1600.00
01011           -1800.00
01012           -2000.00
01013           -2400.00
01014           -2600.00
01015           -3000.00
01016           -3600.00
01017           -3800.00
01018           -3800.00
01019           -3800.00
01020           -4200.00
01021           -4600.00
01022           -4800.00
01023           -5000.00
01024           -5600.00
01025           -5600.00
01026           -5800.00
01027           -6400.00
01028           -6600.00
01029           -6800.00
01030           -7200.00
01031           -7400.00
01032           -7800.00
01033           -8000.00
01034           -8000.00
01035           -8400.00
01036           -8800.00
01037           -8800.00
01038           -9400.00
01039           -9200.00
01040           -9600.00
01041          -10000.00
01042          -10000.00
01043          -10400.00
01044          -10600.00
01045          -10800.00
01046          -11000.00
01047          -11200.00
01048          -11400.00
01049          -11600.00
01050          -11600.00
01051          -12200.00
01052          -12200.00
01053          -12200.00
01054          -12800.00
01055          -12800.00
01056          -13000.00
01057          -13200.00
01058          -13200.00
01059          -13600.00
01060          -13600.00
01061          -13800.00
01062          -13800.00
01063          -14000.00
01064          -14000.00
01065          -14400.00
01066          -14400.00
01067          -14400.00
01068          -14600.00
01069          -14800.00
01070          -14800.00
01071          -14800.00
01072          -15000.00
01073          -15200.00
01074          -15200.00
01075          -15200.00
01076          -15400.00
01077          -15400.00
01078          -15600.00
01079          -15400.00
01080          -15600.00
01081          -15600.00
01082          -15600.00
01083          -15600.00
01084          -15600.00
01085          -15600.00
01086          -15600.00
01087          -15600.00
01088          -15600.00
01089          -15600.00
01090          -15800.00
01091          -15600.00
01092          -15600.00
01093          -15600.00
01094          -15600.00
01095          -15600.00
01096          -15600.00
01097          -15400.00
01098          -15400.00
01099          -15400.00
01100          -15400.00
01101          -15200.00
01102          -15200.00
01103          -15000.00
01104          -14800.00
01105          -14800.00
01106          -14800.00
01107          -14600.00
01108          -14600.00
01109          -14400.00
01110          -14400.00
01111          -14200.00
01112          -14000.00
01113          -13800.00
01114          -13800.00
01115          -13600.00
01116          -13400.00
01117          -13200.00
01118          -13000.00
01119          -13000.00
01120          -12800.00
01121          -12600.00
01122          -12400.00
01123          -12200.00
01124          -12000.00
01125          -12000.00
01126          -11600.00
01127          -11400.00
01128          -11200.00
01129          -11000.00
01130          -10800.00
01131          -10600.00
01132          -10400.00
01133          -10000.00
01134           -9800.00
01135           -9800.00
01136           -9600.00
01137           -9200.00
01138           -9000.00
01139           -8800.00
01140           -8600.00
01141           -8400.00
01142           -8000.00
01143           -7600.00
01144           -7400.00
01145           -7200.00
01146           -7000.00
01147           -6600.00
01148           -6400.00
01149           -6000.00
01150           -5800.00
01151           -5600.00
01152           -5200.00
01153           -5000.00
01154           -4600.00
01155           -4400.00
01156           -4200.00
01157           -4000.00
01158           -3600.00
01159           -3200.00
01160           -3200.00
01161           -2800.00
01162           -2400.00
01163           -2200.00
01164           -1800.00
01165           -1600.00
01166           -1200.00
01167           -1000.00
01168            -800.00
01169            -400.00
01170               0.00
01171             200.00
01172             400.00
01173             800.00
01174            1200.00
01175            1200.00
01176            1800.00
01177            1800.00
01178            2200.00
01179            2400.00
01180            2800.00
01181            3000.00
01182            3400.00
01183            3600.00
01184            4000.00
01185            4000.00
01186            4400.00
01187            4800.00
01188            4800.00
01189            5400.00
01190            5600.00
01191            5600.00
01192            6000.00
01193            6400.00
01194            6600.00
01195            7000.00
01196            7200.00
01197            7400.00
01198            8000.00
01199            8000.00
01200            8200.00
01201            8600.00
01202            8600.00
01203            9200.00
01204            9200.00
01205            9400.00
01206            9600.00
01207           10000.00
01208           10000.00
01209           10400.00
01210           10600.00
01211           10800.00
01212           11200.00
01213           11400.00
01214           11600.00
01215           11800.00
01216           12000.00
01217           12200.00
01218           12400.00
01219           12600.00
01220           12600.00
01221           12800.00
01222           13200.00
01223           13200.00
01224           13200.00
01225           13600.00
01226           13600.00
01227           13800.00
01228           14000.00
01229           14200.00
01230           14600.00
01231           14400.00
01232           14600.00
01233           14600.00
01234           14800.00
01235           14800.00
01236           15000.00
01237           15000.00
01238           15000.00
01239           15200.00
01240           15200.00
01241           15200.00
01242           15200.00
01243           15600.00
01244           15600.00
01245           15600.00
01246           15600.00
01247           15800.00
01248           15600.00
01249           15800.00
01250           15800.00
01251           15800.00
01252           15800.00
01253           15800.00
01254           15800.00
01255           16000.00
01256           15800.00
01257           15800.00
01258           15600.00
01259           15600.00
01260           15600.00
01261           15600.00
01262           15600.00
01263           15600.00
01264           15600.00
01265           15200.00
01266           15400.00
01267           15200.00
01268           15400.00
01269           15000.00
01270           15000.00
01271           15000.00
01272           14800.00
01273           14800.00
01274           14600.00
01275           14600.00
01276           14400.00
01277           14400.00
01278           14200.00
01279           14000.00
01280           14000.00
01281           13600.00
01282           13400.00
01283           13400.00
01284           13200.00
01285           13000.00
01286           12800.00
01287           12600.00
01288           12400.00
01289           12400.00
01290           12200.00
01291           12000.00
01292           11800.00
01293           11600.00
01294           11200.00
01295           11200.00
01296           10800.00
01297           10800.00
01298           10400.00
01299           10200.00
01300           10000.00
01301            9800.00
01302            9600.00
01303            9200.00
01304            9200.00
01305            8800.00
01306            8800.00
01307            8400.00
01308            8000.00
01309            7800.00
01310            7800.00
01311            7200.00
01312            7200.00
01313            6800.00
01314            6400.00
01315            6400.00
01316            6000.00
01317            5600.00
01318            5400.00
01319            5000.00
01320            4800.00
01321            4600.00
01322            4400.00
01323            4000.00
01324            3600.00
01325            3400.00
01326            3000.00
01327            2800.00
01328            2400.00
01329            2200.00
01330            2000.00
01331            1600.00
01332            1400.00
01333            1000.00
01334             800.00
01335             400.00
01336             200.00
01337            -200.00
01338            -400.00
01339            -600.00
01340           -1000.00
01341           -1200.00
01342           -1600.00
01343           -1800.00
01344           -2000.00
01345           -2400.00
01346           -2600.00
01347           -3200.00
01348           -3400.00
01349           -3800.00
01350           -4000.00
01351           -3800.00
01352           -4200.00
01353           -4800.00
01354           -4800.00
01355           -5000.00
01356           -5600.00
01357           -5800.00
01358           -6000.00
01359           -6400.00
01360           -6600.00
01361           -6800.00
01362           -7200.00
01363           -7400.00
01364           -7600.00
01365           -8000.00
01366           -8000.00
01367           -8400.00
01368           -8800.00
01369           -9000.00
01370           -9200.00
01371           -9200.00
01372           -9600.00
01373          -10000.00
01374          -10000.00
01375          -10400.00
01376          -10600.00
01377          -10800.00
01378          -11000.00
01379          -11200.00
01380          -11400.00
01381          -11600.00
01382          -12000.00
01383          -12200.00
01384          -12400.00
01385          -12400.00
01386          -12600.00
01387          -12800.00
01388          -13000.00
01389          -13200.00
01390          -13200.00
01391          -13600.00
01392          -13600.00
01393          -13800.00
01394          -14000.00
01395          -14000.00
01396          -14400.00
01397          -14400.00
01398          -14400.00
01399          -14600.00
01400          -14600.00
01401          -14600.00
01402          -14800.00
01403          -14800.00
01404          -15000.00
01405          -15200.00
01406          -15200.00
01407          -15200.00
01408          -15400.00
01409          -15400.00
01410          -15400.00
01411          -15600.00
01412          -15400.00
01413          -15800.00
01414          -15600.00
01415          -15600.00
01416          -15600.00
01417          -15600.00
01418          -15600.00
01419          -15600.00
01420          -15800.00
01421          -15600.00
01422          -15600.00
01423          -15600.00
01424          -15600.00
01425          -15600.00
01426          -15400.00
01427          -15600.00
01428          -15600.00
01429          -15400.00
01430          -15400.00
01431          -15200.00
01432          -15200.00
01433          -15200.00
01434          -15000.00
01435          -15200.00
01436          -15000.00
01437          -14800.00
01438          -14800.00
01439          -14800.00
01440          -14400.00
01441          -14400.00
01442          -14400.00
01443          -14200.00
01444          -14000.00
01445          -13800.00
01446          -13600.00
01447          -13600.00
01448          -13600.00
01449          -13200.00
01450          -13200.00
01451          -13000.00
01452          -12800.00
01453          -12600.00
01454          -12400.00
01455          -12200.00
01456          -12200.00
01457          -12000.00
01458          -11600.00
01459          -11400.00
01460          -11200.00
01461          -11000.00
01462          -10800.00
01463          -10600.00
01464          -10400.00
01465          -10000.00
01466          -10000.00
01467           -9800.00
01468           -9600.00
01469           -9200.00
01470           -9000.00
01471           -8800.00
01472           -8400.00
01473           -8200.00
01474           -8000.00
01475           -7600.00
01476           -7600.00
01477           -7200.00
01478           -6800.00
01479           -6600.00
01480           -6400.00
01481           -6000.00
01482           -5800.00
01483           -5600.00
01484           -5400.00
01485           -5000.00
01486           -4600.00
01487           -4400.00
01488           -4000.00
01489           -3800.00
01490           -3600.00
01491           -3200.00
01492           -2800.00
01493           -2800.00
01494           -2400.00
01495           -2000.00
01496           -2000.00
01497           -1600.00
01498           -1400.00
01499           -1000.00
01500            -400.00
01501            -400.00
01502               0.00
01503             200.00
01504             600.00
01505             800.00
01506            1000.00
01507            1200.00
01508            1800.00
01509            1800.00
01510            2200.00
01511            2200.00
01512            2800.00
01513            3000.00
01514            3400.00
01515            3800.00
01516            3800.00
01517            4000.00
01518            4400.00
01519            4600.00
01520            4800.00
01521            5400.00
01522            5600.00
01523            5600.00
01524            6200.00
01525            6400.00
01526            6600.00
01527            7000.00
01528            7200.00
01529            7400.00
01530            7800.00
01531            8000.00
01532            8200.00
01533            8600.00
01534            8800.00
01535            9000.00
01536            9200.00
01537            9400.00
01538           10000.00
01539           10000.00
01540           10200.00
01541           10400.00
01542           10800.00
01543           11000.00
01544           11000.00
01545           11200.00
01546           11600.00
01547           11800.00
01548           12000.00
01549           12200.00
01550           12400.00
01551           12400.00
01552           12800.00
01553           12800.00
01554           12800.00
01555           13200.00
01556           13400.00
01557           13600.00
01558           13600.00
01559           13600.00
01560           14000.00
01561           14200.00
01562           14200.00
01563           14600.00
01564           14600.00
01565           14600.00
01566           14800.00
01567           14800.00
01568           15000.00
01569           15000.00
01570           15200.00
01571           15200.00
01572           15200.00
01573           15400.00
01574           15400.00
01575           15600.00
01576           15600.00
01577           15600.00
01578           15600.00
01579           15800.00
01580           15600.00
01581           15800.00
01582           15800.00
01583           15800.00
01584           15800.00
01585           15800.00
01586           15800.00
01587           15800.00
01588           15800.00
01589           15800.00
01590           15800.00
01591           15800.00
01592           15600.00
01593           15600.00
01594           15600.00
01595           15600.00
01596           15600.00
01597           15400.00
01598           15600.00
01599           15200.00
01600           15200.00
01601           15000.00
01602           15000.00
01603           15000.00
01604           14800.00
01605           14800.00
01606           14800.00
01607           14400.00
01608           14600.00
01609           14400.00
01610           14200.00
01611           14000.00
01612           13800.00
01613           13800.00
01614           13400.00
01615           13400.00
01616           13200.00
01617           13000.00
01618           13000.00
01619           12600.00
01620           12600.00
01621           12400.00
01622           12000.00
01623           12000.00
01624           11800.00
01625           11600.00
01626           11400.00
01627           11200.00
01628           11000.00
01629           10800.00
01630           10600.00
01631           10200.00
01632           10200.00
01633           10000.00
01634            9600.00
01635            9200.00
01636            9000.00
01637            8800.00
01638            8600.00
01639            8400.00
01640            8000.00
01641            8000.00
01642            7800.00
01643            7400.00
01644            7000.00
01645            6800.00
01646            6600.00
01647            6200.00
01648            6000.00
01649            5600.00
01650            5600.00
01651            5000.00
01652            4800.00
01653            4600.00
01654            4200.00
01655            3800.00
01656            3600.00
01657            3400.00
01658            3200.00
01659            2800.00
01660            2400.00
01661            2200.00
01662            2000.00
01663            1600.00
01664            1400.00
01665            1200.00
01666             800.00
01667             400.00
01668             200.00
01669               0.00
01670            -400.00
01671            -600.00
01672           -1000.00
01673           -1200.00
01674           -1600.00
01675           -1600.00
01676           -2000.00
01677           -2400.00
01678           -2600.00
01679           -3200.00
01680           -3400.00
01681           -3800.00
01682           -3600.00
01683           -3600.00
01684           -4200.00
01685           -4800.00
01686           -4800.00
01687           -5000.00
01688           -5600.00
01689           -5800.00
01690           -6000.00
01691           -6400.00
01692           -6600.00
01693           -6800.00
01694           -7200.00
01695           -7200.00
01696           -7800.00
01697           -8000.00
01698           -8000.00
01699           -8400.00
01700           -8800.00
01701           -8800.00
01702           -9200.00
01703           -9200.00
01704           -9600.00
01705          -10000.00
01706          -10000.00
01707          -10400.00
01708          -10400.00
01709          -10800.00
01710          -11000.00
01711          -11200.00
01712          -11400.00
01713          -11600.00
01714          -11800.00
01715          -12000.00
01716          -12200.00
01717          -12400.00
01718          -12400.00
01719          -12800.00
01720          -12800.00
01721          -13200.00
01722          -13200.00
01723          -13600.00
01724          -13600.00
01725          -13800.00
01726          -14000.00
01727          -14000.00
01728          -14200.00
01729          -14200.00
01730          -14400.00
01731          -14600.00
01732          -14800.00
01733          -14800.00
01734          -14800.00
01735          -14800.00
01736          -15000.00
01737          -15200.00
01738          -15200.00
01739          -15200.00
01740          -15400.00
01741          -15400.00
01742          -15400.00
01743          -15600.00
01744          -15600.00
01745          -15600.00
01746          -15600.00
01747          -15600.00
01748          -15600.00
01749          -15800.00
01750          -15600.00
01751          -15600.00
01752          -15600.00
01753          -15600.00
01754          -15600.00
01755          -15600.00
01756          -15600.00
01757          -15600.00
01758          -15600.00
01759          -15400.00
01760          -15600.00
01761          -15400.00
01762          -15200.00
01763          -15400.00
01764          -15200.00
01765          -15200.00
01766          -15200.00
01767          -15000.00
01768          -15000.00
01769          -14800.00
01770          -14800.00
01771          -14600.00
01772          -14600.00
01773          -14400.00
01774          -14400.00
01775          -14200.00
01776          -14000.00
01777          -14000.00
01778          -13600.00
01779          -13800.00
01780          -13600.00
01781          -13200.00
01782          -13200.00
01783          -13000.00
01784          -12800.00
01785          -12600.00
01786          -12400.00
01787          -12200.00
01788          -12200.00
01789          -12000.00
01790          -11600.00
01791          -11400.00
01792          -11200.00
01793          -11200.00
01794          -10800.00
01795          -10600.00
01796          -10400.00
01797          -10200.00
01798          -10000.00
01799           -9800.00
01800           -9600.00
01801           -9200.00
01802           -9000.00
01803           -8800.00
01804           -8400.00
01805           -8400.00
01806           -8000.00
01807           -7800.00
01808           -7600.00
01809           -7200.00
01810           -7000.00
01811           -6800.00
01812           -6400.00
01813           -6000.00
01814           -5800.00
01815           -5600.00
01816           -5400.00
01817           -5000.00
01818           -4800.00
01819           -4400.00
01820           -4200.00
01821           -4000.00
01822           -3600.00
01823           -3400.00
01824           -2800.00
01825           -2800.00
01826           -2400.00
01827           -2200.00
01828           -1800.00
01829           -1600.00
01830           -1200.00
01831           -1000.00
01832            -600.00
01833            -400.00
01834               0.00
01835             200.00
01836             400.00
01837             800.00
01838            1000.00
01839            1200.00
01840            1600.00
01841            2000.00
01842            2200.00
01843            2400.00
01844            2800.00
01845            3000.00
01846            3400.00
01847            3600.00
01848            4000.00
01849            4000.00
01850            4400.00
01851            4800.00
01852            4800.00
01853            5200.00
01854            5800.00
01855            5600.00
01856            6000.00
01857            6400.00
01858            6600.00
01859            7000.00
01860            7200.00
01861            7400.00
01862            7800.00
01863            8000.00
01864            8400.00
01865            8600.00
01866            8800.00
01867            9000.00
01868            9200.00
01869            9400.00
01870            9800.00
01871           10000.00
01872           10200.00
01873           10400.00
01874           10600.00
01875           10800.00
01876           11000.00
01877           11200.00
01878           11600.00
01879           11600.00
01880           12000.00
01881           12200.00
01882           12400.00
01883           12600.00
01884           12800.00
01885           12800.00
01886           13000.00
01887           13200.00
01888           13400.00
01889           13400.00
01890           13600.00
01891           13800.00
01892           14000.00
01893           14200.00
01894           14400.00
01895           14400.00
01896           14600.00
01897           14800.00
01898           14800.00
01899           14800.00
01900           15000.00
01901           15000.00
01902           15200.00
01903           15200.00
01904           15200.00
01905           15400.00
01906           15400.00
01907           15600.00
01908           15600.00
01909           15600.00
01910           15800.00
01911           15600.00
01912           15800.00
01913           15800.00
01914           15800.00
01915           16000.00
01916           15800.00
01917           16000.00
01918           15800.00
01919           16000.00
01920           15800.00
01921           15800.00
01922           15800.00
01923           15800.00
01924           15800.00
01925           15800.00
01926           15600.00
01927           15600.00
01928           15600.00
01929           15600.00
01930           15600.00
01931           15200.00
01932           15400.00
01933           15200.00
01934           15000.00
01935           15000.00
01936           14800.00
01937           14800.00
01938           14800.00
01939           14400.00
01940           14600.00
01941           14200.00
01942           14200.00
01943           14000.00
01944           14000.00
01945           13800.00
01946           13600.00
01947           13400.00
01948           13200.00
01949           13200.00
01950           12800.00
01951           12800.00
01952           12600.00
01953           12400.00
01954           12200.00
01955           12000.00
01956           11800.00
01957           11600.00
01958           11400.00
01959           11000.00
01960           10800.00
01961           10800.00
01962           10400.00
01963           10200.00
01964           10000.00
01965           10000.00
01966            9600.00
01967            9400.00
01968            9200.00
01969            8800.00
01970            8800.00
01971            8400.00
01972            8400.00
01973            7800.00
01974            7600.00
01975            7400.00
01976            7000.00
01977            6800.00
01978            6400.00
01979            6200.00
01980            6000.00
01981            5800.00
01982            5400.00
01983            5200.00
01984            4800.00
01985            4600.00
01986            4200.00
01987            4000.00
01988            3600.00
01989            3400.00
01990            3000.00
01991            3000.00
01992            2400.00
01993            2200.00
01994            2000.00
01995            1800.00
01996            1400.00
01997            1000.00
01998             800.00
01999             400.00
02000             200.00
02001               0.00
02002            -400.00
02003            -600.00
02004           -1000.00
02005           -1200.00
02006           -1600.00
02007           -1800.00
02008           -2000.00
02009           -2400.00
02010           -2600.00
02011           -3200.00
02012           -3600.00
02013           -4000.00
02014           -4000.00
02015           -3800.00
02016           -4200.00
02017           -4800.00
02018           -4800.00
02019           -5000.00
02020           -5600.00
02021           -5800.00
02022           -6000.00
02023           -6400.00
02024           -6400.00
02025           -6800.00
02026           -7200.00
02027           -7400.00
02028           -7600.00
02029           -8000.00
02030           -8000.00
02031           -8400.00
02032           -8800.00
02033           -9000.00
02034           -9200.00
02035           -9400.00
02036           -9800.00
02037           -9800.00
02038          -10000.00
02039          -10400.00
02040          -10600.00
02041          -10800.00
02042          -11200.00
02043          -11200.00
02044          -11400.00
02045          -11600.00
02046          -11800.00
02047          -12000.00
02048          -12200.00
02049          -12600.00
02050          -12600.00
02051          -13000.00
02052          -13000.00
02053          -13200.00
02054          -13200.00
02055          -13600.00
02056          -13600.00
02057          -13600.00
02058          -13800.00
02059          -14000.00
02060          -14400.00
02061          -14400.00
02062          -14400.00
02063          -14400.00
02064          -14600.00
02065          -14800.00
02066          -14800.00
02067          -14800.00
02068          -15200.00
02069          -15200.00
02070          -15200.00
02071          -15200.00
02072          -15400.00
02073          -15400.00
02074          -15400.00
02075          -15400.00
02076          -15600.00
02077          -15600.00
02078          -15600.00
02079          -15600.00
02080          -15600.00
02081          -15600.00
02082          -15600.00
02083          -15800.00
02084          -15800.00
02085          -15600.00
02086          -15800.00
02087          -15600.00
02088          -15600.00
02089          -15600.00
02090          -15600.00
02091          -15600.00
02092          -15400.00
02093          -15400.00
02094          -15400.00
02095          -15400.00
02096          -15200.00
02097          -15200.00
02098          -15200.00
02099          -15200.00
02100          -15000.00
02101          -14800.00
02102          -14800.00
02103          -14600.00
02104          -14600.00
02105          -14400.00
02106          -14400.00
02107          -14200.00
02108          -14000.00
02109          -13800.00
02110          -13800.00
02111          -13600.00
02112          -13600.00
02113          -13200.00
02114          -13000.00
02115          -13000.00
02116          -12800.00
02117          -12800.00
02118          -12400.00
02119          -12200.00
02120          -12200.00
02121          -12000.00
02122          -11600.00
02123          -11400.00
02124          -11400.00
02125          -11000.00
02126          -10800.00
02127          -10600.00
02128          -10400.00
02129          -10200.00
02130           -9800.00
02131           -9600.00
02132           -9600.00
02133           -9200.00
02134           -9000.00
02135           -8800.00
02136           -8400.00
02137           -8200.00
02138           -8000.00
02139           -7800.00
02140           -7400.00
02141           -7200.00
02142           -6800.00
02143           -6600.00
02144           -6400.00
02145           -6200.00
02146           -5800.00
02147           -5600.00
02148           -5400.00
02149           -5000.00
02150           -4800.00
02151           -4400.00
02152           -4200.00
02153           -4000.00
02154           -3600.00
02155           -3200.00
02156           -3000.00
02157           -2800.00
02158           -2400.00
02159           -2200.00
02160           -1800.00
02161           -1600.00
02162           -1200.00
02163           -1000.00
02164            -800.00
02165            -400.00
02166               0.00
02167             200.00
02168             400.00
02169             600.00
02170            1000.00
02171            1400.00
02172            1600.00
02173            2000.00
02174            2000.00
02175            2400.00
02176            2600.00
02177            3000.00
02178            3200.00
02179            3600.00
02180            4000.00
02181            4000.00
02182            4400.00
02183            4600.00
02184            4800.00
02185            5200.00
02186            5600.00
02187            5800.00
02188            6000.00
02189            6400.00
02190            6600.00
02191            6800.00
02192            7200.00
02193            7400.00
02194            7800.00
02195            8000.00
02196            8200.00
02197            8600.00
02198            8800.00
02199            9000.00
02200            9200.00
02201            9400.00
02202            9600.00
02203           10000.00
02204           10200.00
02205           10400.00
02206           10400.00
02207           11000.00
02208           11000.00
02209           11200.00
02210           11600.00
02211           11800.00
02212           12000.00
02213           12000.00
02214           12400.00
02215           12400.00
02216           12800.00
02217           12800.00
02218           13000.00
02219           13200.00
02220           13400.00
02221           13400.00
02222           13600.00
02223           13800.00
02224           14000.00
02225           14000.00
02226           14400.00
02227           14400.00
02228           14600.00
02229           14600.00
02230           14800.00
02231           14800.00
02232           15000.00
02233           15000.00
02234           15200.00
02235           15200.00
02236           15400.00
02237           15200.00
02238           15600.00
02239           15400.00
02240           15600.00
02241           15600.00
02242           15600.00
02243           15800.00
02244           15600.00
02245           16000.00
02246           15800.00
02247           15800.00
02248           15800.00
02249           15800.00
02250           15800.00
02251           15800.00
02252           15800.00
02253           15800.00
02254           15800.00
02255           15800.00
02256           15800.00
02257           15600.00
02258           15600.00
02259           15600.00
02260           15600.00
02261           15400.00
02262           15600.00
02263           15200.00
02264           15200.00
02265           15200.00
02266           15000.00
02267           15000.00
02268           14800.00
02269           14800.00
02270           14600.00
02271           14400.00
02272           14400.00
02273           14400.00
02274           14200.00
02275           14000.00
02276           13600.00
02277           13600.00
02278           13600.00
02279           13400.00
02280           13200.00
02281           13000.00
02282           12800.00
02283           12800.00
02284           12600.00
02285           12400.00
02286           12200.00
02287           12000.00
02288           11800.00
02289           11600.00
02290           11400.00
02291           11000.00
02292           11000.00
02293           10800.00
02294           10400.00
02295           10200.00
02296           10200.00
02297           10000.00
02298            9600.00
02299            9400.00
02300            9200.00
02301            8800.00
02302            8600.00
02303            8400.00
02304            8400.00
02305            8000.00
02306            7600.00
02307            7200.00
02308            7000.00
02309            6800.00
02310            6600.00
02311            6200.00
02312            6000.00
02313            5600.00
02314            5600.00
02315            5200.00
02316            4800.00
02317            4600.00
02318            4400.00
02319            4000.00
02320            3600.00
02321            3400.00
02322            3200.00
02323            2800.00
02324            2400.00
02325            2400.00
02326            2000.00
02327            1800.00
02328            1400.00
02329            1200.00
02330             800.00
02331             400.00
02332             200.00
02333               0.00
02334            -400.00
02335            -600.00
02336           -1000.00
02337           -1200.00
02338           -1600.00
02339           -1600.00
02340           -2000.00
02341           -2200.00
02342           -2600.00
02343           -3000.00
02344           -3400.00
02345           -3800.00
02346           -4000.00
02347           -3800.00
02348           -4200.00
02349           -4800.00
02350           -4800.00
02351           -5000.00
02352           -5600.00
02353           -5600.00
02354           -5800.00
02355           -6400.00
02356           -6400.00
02357           -6800.00
02358           -7200.00
02359           -7400.00
02360           -7600.00
02361           -8000.00
02362           -8000.00
02363           -8400.00
02364           -8800.00
02365           -8800.00
02366           -9200.00
02367           -9200.00
02368           -9600.00
02369          -10000.00
02370          -10000.00
02371          -10400.00
02372          -10600.00
02373          -10800.00
02374          -11000.00
02375          -11200.00
02376          -11400.00
02377          -11600.00
02378          -11800.00
02379          -12000.00
02380          -12200.00
02381          -12400.00
02382          -12600.00
02383          -12800.00
02384          -13000.00
02385          -13200.00
02386          -13200.00
02387          -13400.00
02388          -13600.00
02389          -13600.00
02390          -14000.00
02391          -14000.00
02392          -14200.00
02393          -14400.00
02394          -14400.00
02395          -14400.00
02396          -14600.00
02397          -14800.00
02398          -14800.00
02399          -15000.00
02400          -15200.00
02401          -15200.00
02402          -15200.00
02403          -15200.00
02404          -15400.00
02405          -15400.00
02406          -15600.00
02407          -15400.00
02408          -15600.00
02409          -15600.00
02410          -15600.00
02411          -15600.00
02412          -15800.00
02413          -15600.00
02414          -15600.00
02415          -15600.00
02416          -15800.00
02417          -15800.00
02418          -15800.00
02419          -15600.00
02420          -15600.00
02421          -15800.00
02422          -15600.00
02423          -15600.00
02424          -15600.00
02425          -15400.00
02426          -15400.00
02427          -15400.00
02428          -15200.00
02429          -15200.00
02430          -15200.00
02431          -15000.00
02432          -15000.00
02433          -14800.00
02434          -14800.00
02435          -14600.00
02436          -14400.00
02437          -14600.00
02438          -14400.00
02439          -14400.00
02440          -14000.00
02441          -13800.00
02442          -13800.00
02443          -13600.00
02444          -13600.00
02445          -13200.00
02446          -13000.00
02447          -13000.00
02448          -12800.00
02449          -12400.00
02450          -12400.00
02451          -12200.00
02452          -12200.00
02453          -12000.00
02454          -11600.00
02455          -11400.00
02456          -11200.00
02457          -11000.00
02458          -10800.00
02459          -10600.00
02460          -10400.00
02461          -10400.00
02462          -10000.00
02463           -9800.00
02464           -9600.00
02465           -9200.00
02466           -9000.00
02467           -8800.00
02468           -8400.00
02469           -8400.00
02470           -8000.00
02471           -8000.00
02472           -7600.00
02473           -7200.00
02474           -7000.00
02475           -6800.00
02476           -6400.00
02477           -6200.00
02478           -6000.00
02479           -5600.00
02480           -5200.00
02481           -5000.00
02482           -4600.00
02483           -4400.00
02484           -4000.00
02485           -4000.00
02486           -3600.00
02487           -3400.00
02488           -3000.00
02489           -2600.00
02490           -2400.00
02491           -2200.00
02492           -1800.00
02493           -1600.00
02494           -1200.00
02495           -1000.00
02496            -600.00
02497            -400.00
02498               0.00
02499             200.00
02500             400.00
02501             800.00
02502            1000.00
02503            1400.00
02504            1800.00
02505            1800.00
02506            2200.00
02507            2200.00
02508            2800.00
02509            3200.00
02510            3600.00
02511            3800.00
02512            4000.00
02513            4000.00
02514            4400.00
02515            4600.00
02516            4800.00
02517            5400.00
02518            5600.00
02519            5600.00
02520            6000.00
02521            6400.00
02522            6800.00
02523            6800.00
02524            7000.00
02525            7400.00
02526            7800.00
02527            8000.00
02528            8200.00
02529            8600.00
02530            8800.00
02531            8800.00
02532            9200.00
02533            9400.00
02534            9600.00
02535           10000.00
02536           10200.00
02537           10400.00
02538           10800.00
02539           10800.00
02540           11000.00
02541           11200.00
02542           11600.00
02543           11800.00
02544           12000.00
02545           12200.00
02546           12200.00
02547           12400.00
02548           12800.00
02549           12800.00
02550           13000.00
02551           13200.00
02552           13400.00
02553           13600.00
02554           13600.00
02555           13800.00
02556           13800.00
02557           14000.00
02558           14400.00
02559           14400.00
02560           14600.00
02561           14600.00
02562           14800.00
02563           14800.00
02564           15000.00
02565           15000.00
02566           15200.00
02567           15200.00
02568           15200.00
02569           15200.00
02570           15600.00
02571           15600.00
02572           15600.00
02573           15800.00
02574           15600.00
02575           15800.00
02576           15800.00
02577           15800.00
02578           15800.00
02579           15800.00
02580           15800.00
02581           16000.00
02582           16000.00
02583           15800.00
02584           15800.00
02585           15800.00
02586           15600.00
02587           15600.00
02588           15800.00
02589           15600.00
02590           15600.00
02591           15600.00
02592           15600.00
02593           15600.00
02594           15400.00
02595           15200.00
02596           15200.00
02597           15000.00
02598           15000.00
02599           15000.00
02600           14800.00
02601           14800.00
02602           14800.00
02603           14400.00
02604           14600.00
02605           14400.00
02606           14000.00
02607           14200.00
02608           13800.00
02609           13600.00
02610           13600.00
02611           13400.00
02612           13400.00
02613           13000.00
02614           12800.00
02615           12800.00
02616           12600.00
02617           12400.00
02618           12400.00
02619           12000.00
02620           11800.00
02621           11600.00
02622           11200.00
02623           11200.00
02624           11000.00
02625           10800.00
02626           10600.00
02627           10400.00
02628           10000.00
02629           10000.00
02630            9600.00
02631            9400.00
02632            9200.00
02633            8800.00
02634            8600.00
02635            8600.00
02636            8000.00
02637            8000.00
02638            7600.00
02639            7600.00
02640            7000.00
02641            6800.00
02642            6600.00
02643            6200.00
02644            6000.00
02645            6000.00
02646            5400.00
02647            5400.00
02648            4800.00
02649            4600.00
02650            4400.00
02651            4000.00
02652            3800.00
02653            3600.00
02654            3200.00
02655            2800.00
02656            2400.00
02657            2200.00
02658            2000.00
02659            1800.00
02660            1400.00
02661            1000.00
02662             800.00
02663             400.00
02664             200.00
02665            -200.00
02666            -400.00
02667            -800.00
02668           -1000.00
02669           -1200.00
02670           -1600.00
02671           -1600.00
02672           -2000.00
02673           -2200.00
02674           -2400.00
02675           -2800.00
02676           -3400.00
02677           -3800.00
02678           -4000.00
02679           -3800.00
02680           -4200.00
02681           -4800.00
02682           -4800.00
02683           -5000.00
02684           -5600.00
02685           -5800.00
02686           -5800.00
02687           -6400.00
02688           -6600.00
02689           -6800.00
02690           -7200.00
02691           -7400.00
02692           -7600.00
02693           -8000.00
02694           -8000.00
02695           -8400.00
02696           -8800.00
02697           -9000.00
02698           -9200.00
02699           -9200.00
02700           -9600.00
02701          -10000.00
02702          -10000.00
02703          -10200.00
02704          -10600.00
02705          -10800.00
02706          -11000.00
02707          -11200.00
02708          -11400.00
02709          -11600.00
02710          -11800.00
02711          -12000.00
02712          -12200.00
02713          -12400.00
02714          -12600.00
02715          -12800.00
02716          -13000.00
02717          -13200.00
02718          -13200.00
02719          -13400.00
02720          -13600.00
02721          -13600.00
02722          -13800.00
02723          -14000.00
02724          -14200.00
02725          -14400.00
02726          -14200.00
02727          -14600.00
02728          -14600.00
02729          -14800.00
02730          -14800.00
02731          -14800.00
02732          -15200.00
02733          -15200.00
02734          -15200.00
02735          -15400.00
02736          -15200.00
02737          -15200.00
02738          -15600.00
02739          -15400.00
02740          -15600.00
02741          -15400.00
02742          -15600.00
02743          -15600.00
02744          -15600.00
02745          -15800.00
02746          -15600.00
02747          -15800.00
02748          -15600.00
02749          -16000.00
02750          -15600.00
02751          -15600.00
02752          -15600.00
02753          -15600.00
02754          -15400.00
02755          -15600.00
02756          -15600.00
02757          -15600.00
02758          -15400.00
02759          -15400.00
02760          -15200.00
02761          -15200.00
02762          -15200.00
02763          -15200.00
02764          -15000.00
02765          -14800.00
02766          -14800.00
02767          -14600.00
02768          -14600.00
02769          -14400.00
02770          -14400.00
02771          -14400.00
02772          -14000.00
02773          -13800.00
02774          -13800.00
02775          -13600.00
02776          -13600.00
02777          -13200.00
02778          -13200.00
02779          -13000.00
02780          -12800.00
02781          -12400.00
02782          -12400.00
02783          -12200.00
02784          -12200.00
02785          -12000.00
02786          -11600.00
02787          -11400.00
02788          -11200.00
02789          -11200.00
02790          -10800.00
02791          -10600.00
02792          -10400.00
02793          -10000.00
02794          -10000.00
02795           -9800.00
02796           -9600.00
02797           -9200.00
02798           -9000.00
02799           -8800.00
02800           -8600.00
02801           -8400.00
02802           -8000.00
02803           -7600.00
02804           -7400.00
02805           -7200.00
02806           -7200.00
02807           -6800.00
02808           -6400.00
02809           -6400.00
02810           -6000.00
02811           -5600.00
02812           -5200.00
02813           -5000.00
02814           -4800.00
02815           -4600.00
02816           -4200.00
02817           -4000.00
02818           -3600.00
02819           -3200.00
02820           -3000.00
02821           -2600.00
02822           -2400.00
02823           -2200.00
02824           -2000.00
02825           -1600.00
02826           -1200.00
02827           -1000.00
02828            -600.00
02829            -400.00
02830            -200.00
02831             200.00
02832             600.00
02833             800.00
02834            1000.00
02835            1400.00
02836            1400.00
02837            1800.00
02838            2200.00
02839            2400.00
02840            2600.00
02841            3000.00
02842            3400.00
02843            3800.00
02844            3800.00
02845            4000.00
02846            4600.00
02847            4600.00
02848            5000.00
02849            5400.00
02850            5600.00
02851            5800.00
02852            6000.00
02853            6400.00
02854            6600.00
02855            7000.00
02856            7200.00
02857            7400.00
02858            7800.00
02859            8200.00
02860            8400.00
02861            8600.00
02862            8600.00
02863            8800.00
02864            9400.00
02865            9400.00
02866            9800.00
02867           10000.00
02868           10200.00
02869           10400.00
02870           10800.00
02871           10800.00
02872           11000.00
02873           11400.00
02874           11600.00
02875           11800.00
02876           12000.00
02877           12200.00
02878           12400.00
02879           12600.00
02880           12800.00
02881           12800.00
02882           13000.00
02883           13200.00
02884           13400.00
02885           13600.00
02886           13600.00
02887           13600.00
02888           14000.00
02889           14200.00
02890           14200.00
02891           14400.00
02892           14600.00
02893           14600.00
02894           14800.00
02895           14800.00
02896           15000.00
02897           15000.00
02898           15200.00
02899           15200.00
02900           15200.00
02901           15600.00
02902           15600.00
02903           15600.00
02904           15600.00
02905           15800.00
02906           15600.00
02907           15600.00
02908           15800.00
02909           15800.00
02910           15800.00
02911           15800.00
02912           16000.00
02913           15800.00
02914           15800.00
02915           15800.00
02916           16000.00
02917           15800.00
02918           15800.00
02919           15800.00
02920           15800.00
02921           15800.00
02922           15600.00
02923           15600.00
02924           15600.00
02925           15600.00
02926           15600.00
02927           15200.00
02928           15200.00
02929           15200.00
02930           15000.00
02931           15000.00
02932           14800.00
02933           14800.00
02934           14800.00
02935           14400.00
02936           14400.00
02937           14600.00
02938           14200.00
02939           14000.00
02940           14000.00
02941           13800.00
02942           13400.00
02943           13400.00
02944           13200.00
02945           13000.00
02946           12800.00
02947           12800.00
02948           12600.00
02949           12400.00
02950           12200.00
02951           12000.00
02952           11800.00
02953           11600.00
02954           11600.00
02955           11000.00
02956           11000.00
02957           10800.00
02958           10800.00
02959           10200.00
02960           10200.00
02961           10000.00
02962            9600.00
02963            9400.00
02964            9200.00
02965            8800.00
02966            8600.00
02967            8400.00
02968            8200.00
02969            8000.00
02970            7800.00
02971            7400.00
02972            7200.00
02973            6800.00
02974            6600.00
02975            6200.00
02976            6200.00
02977            5600.00
02978            5600.00
02979            5400.00
02980            4800.00
02981            4600.00
02982            4400.00
02983            4000.00
02984            3800.00
02985            3400.00
02986            3200.00
02987            2800.00
02988            2800.00
02989            2400.00
02990            2000.00
02991            1800.00
02992            1400.00
02993            1200.00
02994             800.00
02995             600.00
02996             400.00
02997            -200.00
02998            -400.00
02999            -600.00
03000           -1000.00
03001           -1200.00
03002           -1400.00
03003           -1800.00
03004           -2000.00
03005           -2200.00
03006           -2400.00
03007           -2800.00
03008           -3400.00
03009           -3800.00
03010           -4000.00
03011           -3800.00
03012           -4200.00
03013           -4800.00
03014           -4800.00
03015           -5000.00
03016           -5600.00
03017           -5800.00
03018           -6000.00
03019           -6400.00
03020           -6400.00
03021           -6800.00
03022           -7200.00
03023           -7200.00
03024           -7600.00
03025           -8000.00
03026           -8000.00
03027           -8400.00
03028           -8800.00
03029           -8800.00
03030           -9200.00
03031           -9200.00
03032           -9600.00
03033           -9800.00
03034          -10000.00
03035          -10200.00
03036          -10600.00
03037          -10800.00
03038          -11000.00
03039          -11200.00
03040          -11400.00
03041          -11800.00
03042          -12000.00
03043          -12000.00
03044          -12400.00
03045          -12400.00
03046          -12800.00
03047          -12800.00
03048          -13000.00
03049          -13200.00
03050          -13200.00
03051          -13400.00
03052          -13600.00
03053          -13600.00
03054          -13800.00
03055          -14000.00
03056          -14400.00
03057          -14400.00
03058          -14400.00
03059          -14600.00
03060          -14600.00
03061          -14600.00
03062          -14800.00
03063          -15000.00
03064          -14800.00
03065          -15200.00
03066          -15200.00
03067          -15400.00
03068          -15200.00
03069          -15400.00
03070          -15400.00
03071          -15600.00
03072          -15600.00
03073          -15400.00
03074          -15600.00
03075          -15600.00
03076          -15800.00
03077          -15600.00
03078          -15600.00
03079          -15800.00
03080          -15600.00
03081          -15600.00
03082          -15600.00
03083          -15800.00
03084          -15600.00
03085          -15600.00
03086          -15600.00
03087          -15400.00
03088          -15400.00
03089          -15400.00
03090          -15200.00
03091          -15400.00
03092          -15400.00
03093          -15200.00
03094          -15200.00
03095          -15200.00
03096          -15000.00
03097          -14800.00
03098          -14800.00
03099          -14800.00
03100          -14600.00
03101          -14400.00
03102          -14400.00
03103          -14400.00
03104          -14000.00
03105          -13800.00
03106          -13600.00
03107          -13600.00
03108          -13400.00
03109          -13200.00
03110          -13000.00
03111          -13000.00
03112          -12800.00
03113          -12600.00
03114          -12400.00
03115          -12200.00
03116          -12000.00
03117          -12000.00
03118          -11600.00
03119          -11400.00
03120          -11200.00
03121          -10800.00
03122          -10800.00
03123          -10600.00
03124          -10400.00
03125          -10000.00
03126          -10000.00
03127           -9800.00
03128           -9600.00
03129           -9400.00
03130           -9000.00
03131           -8800.00
03132           -8400.00
03133           -8400.00
03134           -8200.00
03135           -7600.00
03136           -7600.00
03137           -7200.00
03138           -7200.00
03139           -6600.00
03140           -6400.00
03141           -6200.00
03142           -5800.00
03143           -5600.00
03144           -5400.00
03145           -5000.00
03146           -4600.00
03147           -4400.00
03148           -4200.00
03149           -4000.00
03150           -3600.00
03151           -3400.00
03152           -3000.00
03153           -2800.00
03154           -2400.00
03155           -2200.00
03156           -2000.00
03157           -1600.00
03158           -1200.00
03159           -1000.00
03160            -800.00
03161            -400.00
03162               0.00
03163             400.00
03164             600.00
03165             600.00
03166            1000.00
03167            1200.00
03168            1600.00
03169            2000.00
03170            2000.00
03171            2400.00
03172            2800.00
03173            3000.00
03174            3200.00
03175            3600.00
03176            4000.00
03177            4000.00
03178            4400.00
03179            4800.00
03180            5200.00
03181            5200.00
03182            5800.00
03183            5600.00
03184            6000.00
03185            6400.00
03186            6600.00
03187            7000.00
03188            7200.00
03189            7400.00
03190            7800.00
03191            8000.00
03192            8200.00
03193            8600.00
03194            8800.00
03195            9000.00
03196            9400.00
03197            9400.00
03198            9600.00
03199           10000.00
03200           10000.00
03201           10400.00
03202           10800.00
03203           10800.00
03204           11200.00
03205           11200.00
03206           11600.00
03207           11800.00
03208           12000.00
03209           12400.00
03210           12400.00
03211           12400.00
03212           12800.00
03213           13000.00
03214           13200.00
03215           13200.00
03216           13600.00
03217           13400.00
03218           13600.00
03219           14000.00
03220           14000.00
03221           14000.00
03222           14200.00
03223           14400.00
03224           14600.00
03225           14800.00
03226           14800.00
03227           14800.00
03228           15000.00
03229           15000.00
03230           15200.00
03231           15200.00
03232           15200.00
03233           15400.00
03234           15400.00
03235           15600.00
03236           15600.00
03237           15600.00
03238           15600.00
03239           15600.00
03240           15800.00
03241           15800.00
03242           15800.00
03243           15800.00
03244           15800.00
03245           16000.00
03246           15800.00
03247           15800.00
03248           15800.00
03249           16000.00
03250           15800.00
03251           15800.00
03252           15600.00
03253           15800.00
03254           15600.00
03255           15600.00
03256           15600.00
03257           15600.00
03258           15600.00
03259           15200.00
03260           15200.00
03261           15200.00
03262           15000.00
03263           15000.00
03264           14800.00
03265           14800.00
03266           14600.00
03267           14400.00
03268           14600.00
03269           14400.00
03270           14200.00
03271           14200.00
03272           14000.00
03273           13800.00
03274           13600.00
03275           13400.00
03276           13400.00
03277           13000.00
03278           13000.00
03279           12800.00
03280           12600.00
03281           12400.00
03282           12400.00
03283           12000.00
03284           11800.00
03285           11600.00
03286           11400.00
03287           11200.00
03288           11000.00
03289           10800.00
03290           10600.00
03291           10200.00
03292           10000.00
03293           10000.00
03294            9600.00
03295            9400.00
03296            9200.00
03297            9000.00
03298            8600.00
03299            8400.00
03300            8200.00
03301            8000.00
03302            7800.00
03303            7400.00
03304            7200.00
03305            7000.00
03306            6400.00
03307            6200.00
03308            6000.00
03309            5800.00
03310            5600.00
03311            5400.00
03312            4800.00
03313            4400.00
03314            4400.00
03315            4000.00
03316            3600.00
03317            3600.00
03318            3200.00
03319            2800.00
03320            2400.00
03321            2200.00
03322            2000.00
03323            1800.00
03324            1400.00
03325            1200.00
03326             800.00
03327             600.00
03328               0.00
03329               0.00
03330            -400.00
03331            -600.00
03332            -800.00
03333           -1200.00
03334           -1600.00
03335           -1800.00
03336           -2000.00
03337           -2200.00
03338           -2600.00
03339           -2800.00
03340           -3400.00
03341           -3800.00
03342           -3800.00
03343           -3800.00
03344           -4000.00
03345           -4800.00
03346           -4800.00
03347           -5000.00
03348           -5600.00
03349           -5800.00
03350           -6000.00
03351           -6400.00
03352           -6600.00
03353           -6600.00
03354           -7200.00
03355           -7400.00
03356           -7600.00
03357           -8000.00
03358           -8000.00
03359           -8400.00
03360           -8800.00
03361           -8800.00
03362           -9200.00
03363           -9400.00
03364           -9600.00
03365          -10000.00
03366          -10000.00
03367          -10400.00
03368          -10600.00
03369          -10800.00
03370          -10800.00
03371          -11200.00
03372          -11400.00
03373          -11600.00
03374          -11800.00
03375          -12000.00
03376          -12200.00
03377          -12400.00
03378          -12600.00
03379          -12800.00
03380          -13000.00
03381          -13200.00
03382          -13200.00
03383          -13400.00
03384          -13600.00
03385          -13800.00
03386          -14000.00
03387          -14000.00
03388          -14200.00
03389          -14400.00
03390          -14400.00
03391          -14400.00
03392          -14600.00
03393          -14800.00
03394          -14800.00
03395          -14800.00
03396          -15000.00
03397          -15200.00
03398          -15200.00
03399          -15400.00
03400          -15400.00
03401          -15400.00
03402          -15600.00
03403          -15600.00
03404          -15600.00
03405          -15600.00
03406          -15800.00
03407          -15600.00
03408          -15800.00
03409          -15600.00
03410          -15800.00
03411          -15600.00
03412          -15800.00
03413          -15600.00
03414          -15600.00
03415          -15800.00
03416          -15600.00
03417          -15600.00
03418          -15600.00
03419          -15600.00
03420          -15600.00
03421          -15400.00
03422          -15400.00
03423          -15400.00
03424          -15200.00
03425          -15200.00
03426          -15200.00
03427          -15000.00
03428          -14800.00
03429          -14800.00
03430          -14800.00
03431          -14600.00
03432          -14600.00
03433          -14400.00
03434          -14400.00
03435          -14200.00
03436          -14000.00
03437          -13800.00
03438          -13800.00
03439          -13600.00
03440          -13600.00
03441          -13200.00
03442          -13000.00
03443          -13200.00
03444          -12800.00
03445          -12600.00
03446          -12400.00
03447          -12200.00
03448          -12200.00
03449          -12000.00
03450          -11600.00
03451          -11400.00
03452          -11400.00
03453          -11000.00
03454          -10800.00
03455          -10600.00
03456          -10400.00
03457          -10000.00
03458          -10000.00
03459           -9800.00
03460           -9600.00
03461           -9200.00
03462           -9000.00
03463           -8800.00
03464           -8400.00
03465           -8200.00
03466           -8200.00
03467           -8000.00
03468           -7600.00
03469           -7200.00
03470           -6800.00
03471           -6800.00
03472           -6400.00
03473           -6000.00
03474           -5800.00
03475           -5600.00
03476           -5400.00
03477           -5000.00
03478           -4600.00
03479           -4400.00
03480           -4200.00
03481           -4000.00
03482           -3600.00
03483           -3400.00
03484           -3000.00
03485           -2800.00
03486           -2400.00
03487           -2200.00
03488           -2000.00
03489           -1600.00
03490           -1200.00
03491           -1000.00
03492            -600.00
03493            -400.00
03494               0.00
03495             200.00
03496             400.00
03497             600.00
03498            1200.00
03499            1200.00
03500            1800.00
03501            2000.00
03502            2000.00
03503            2400.00
03504            2600.00
03505            3000.00
03506            3400.00
03507            3800.00
03508            4000.00
03509            4000.00
03510            4400.00
03511            4800.00
03512            5000.00
03513            5200.00
03514            5600.00
03515            5800.00
03516            6000.00
03517            6400.00
03518            6600.00
03519            6800.00
03520            7200.00
03521            7200.00
03522            7800.00
03523            8000.00
03524            8400.00
03525            8400.00
03526            8600.00
03527            9000.00
03528            9200.00
03529            9400.00
03530            9600.00
03531           10000.00
03532           10200.00
03533           10400.00
03534           10800.00
03535           10800.00
03536           11200.00
03537           11200.00
03538           11400.00
03539           11800.00
03540           12000.00
03541           12200.00
03542           12400.00
03543           12600.00
03544           12600.00
03545           12800.00
03546           13000.00
03547           13200.00
03548           13400.00
03549           13600.00
03550           13600.00
03551           14000.00
03552           14000.00
03553           14200.00
03554           14400.00
03555           14600.00
03556           14400.00
03557           14600.00
03558           14800.00
03559           15000.00
03560           15000.00
03561           15200.00
03562           15000.00
03563           15200.00
03564           15200.00
03565           15400.00
03566           15400.00
03567           15600.00
03568           15600.00
03569           15800.00
03570           15800.00
03571           15800.00
03572           15800.00
03573           15800.00
03574           15800.00
03575           15800.00
03576           16000.00
03577           15800.00
03578           15800.00
03579           15800.00
03580           15800.00
03581           15800.00
03582           15600.00
03583           15600.00
03584           15800.00
03585           15600.00
03586           15600.00
03587           15800.00
03588           15600.00
03589           15600.00
03590           15600.00
03591           15400.00
03592           15200.00
03593           15200.00
03594           15000.00
03595           15000.00
03596           14800.00
03597           14800.00
03598           14800.00
03599           14400.00
03600           14600.00
03601           14400.00
03602           14400.00
03603           14200.00
03604           14000.00
03605           13800.00
03606           13600.00
03607           13400.00
03608           13200.00
03609           13200.00
03610           12800.00
03611           12800.00
03612           12600.00
03613           12400.00
03614           12400.00
03615           12000.00
03616           12000.00
03617           11600.00
03618           11200.00
03619           11200.00
03620           11000.00
03621           10800.00
03622           10600.00
03623           10200.00
03624           10200.00
03625           10000.00
03626            9600.00
03627            9400.00
03628            9200.00
03629            8800.00
03630            8800.00
03631            8400.00
03632            8200.00
03633            8000.00
03634            7800.00
03635            7400.00
03636            7200.00
03637            6800.00
03638            6600.00
03639            6200.00
03640            6000.00
03641            5800.00
03642            5400.00
03643            5200.00
03644            4800.00
03645            4600.00
03646            4400.00
03647            4000.00
03648            3600.00
03649            3400.00
03650            3200.00
03651            2800.00
03652            2600.00
03653            2200.00
03654            2000.00
03655            1600.00
03656            1600.00
03657            1200.00
03658             800.00
03659             400.00
03660             200.00
03661               0.00
03662            -400.00
03663            -400.00
03664            -800.00
03665           -1000.00
03666           -1400.00
03667           -1800.00
03668           -2000.00
03669           -2400.00
03670           -2400.00
03671           -2800.00
03672           -3400.00
03673           -3800.00
03674           -4000.00
03675           -3800.00
03676           -4000.00
03677           -4800.00
03678           -4800.00
03679           -5000.00
03680           -5600.00
03681           -5800.00
03682           -6000.00
03683           -6400.00
03684           -6400.00
03685           -6600.00
03686           -7200.00
03687           -7400.00
03688           -7600.00
03689           -8000.00
03690           -8000.00
03691           -8400.00
03692           -8600.00
03693           -9000.00
03694           -9200.00
03695           -9400.00
03696           -9600.00
03697          -10000.00
03698          -10000.00
03699          -10200.00
03700          -10600.00
03701          -10800.00
03702          -11200.00
03703          -11200.00
03704          -11200.00
03705          -11600.00
03706          -12000.00
03707          -12000.00
03708          -12200.00
03709          -12400.00
03710          -12600.00
03711          -12800.00
03712          -12800.00
03713          -13200.00
03714          -13200.00
03715          -13600.00
03716          -13600.00
03717          -13600.00
03718          -13800.00
03719          -14000.00
03720          -14000.00
03721          -14400.00
03722          -14400.00
03723          -14600.00
03724          -14600.00
03725          -14800.00
03726          -14800.00
03727          -15000.00
03728          -15000.00
03729          -15000.00
03730          -15200.00
03731          -15200.00
03732          -15400.00
03733          -15400.00
03734          -15400.00
03735          -15600.00
03736          -15600.00
03737          -15600.00
03738          -15600.00
03739          -15600.00
03740          -15600.00
03741          -15600.00
03742          -15600.00
03743          -15800.00
03744          -15800.00
03745          -15800.00
03746          -15600.00
03747          -15600.00
03748          -15600.00
03749          -15600.00
03750          -15600.00
03751          -15600.00
03752          -15400.00
03753          -15600.00
03754          -15400.00
03755          -15400.00
03756          -15400.00
03757          -15200.00
03758          -15200.00
03759          -15000.00
03760          -14800.00
03761          -14800.00
03762          -14800.00
03763          -14600.00
03764          -14600.00
03765          -14600.00
03766          -14400.00
03767          -14200.00
03768          -14000.00
03769          -13800.00
03770          -13800.00
03771          -13600.00
03772          -13600.00
03773          -13200.00
03774          -13200.00
03775          -13000.00
03776          -12800.00
03777          -12800.00
03778          -12400.00
03779          -12200.00
03780          -12200.00
03781          -12000.00
03782          -11600.00
03783          -11600.00
03784          -11200.00
03785          -11000.00
03786          -10800.00
03787          -10600.00
03788          -10600.00
03789          -10200.00
03790          -10000.00
03791           -9800.00
03792           -9600.00
03793           -9200.00
03794           -9000.00
03795           -8800.00
03796           -8600.00
03797           -8400.00
03798           -8200.00
03799           -7800.00
03800           -7600.00
03801           -7200.00
03802           -7000.00
03803           -6800.00
03804           -6400.00
03805           -6000.00
03806           -6000.00
03807           -5600.00
03808           -5200.00
03809           -5200.00
03810           -4600.00
03811           -4600.00
03812           -4200.00
03813           -4000.00
03814           -3600.00
03815           -3400.00
03816           -3200.00
03817           -2800.00
03818           -2400.00
03819           -2400.00
03820           -1800.00
03821           -1600.00
03822           -1200.00
03823           -1000.00
03824            -800.00
03825            -400.00
03826               0.00
03827               0.00
03828             400.00
03829             600.00
03830             800.00
03831            1200.00
03832            1400.00
03833            1800.00
03834            2000.00
03835            2200.00
03836            2600.00
03837            3000.00
03838            3400.00
03839            3800.00
03840            4000.00
03841            4000.00
03842            4400.00
03843            4800.00
03844            4800.00
03845            5200.00
03846            5600.00
03847            5600.00
03848            6000.00
03849            6200.00
03850            6400.00
03851            6800.00
03852            7200.00
03853            7200.00
03854            7800.00
03855            8000.00
03856            8200.00
03857            8600.00
03858            8600.00
03859            9000.00
03860            9400.00
03861            9400.00
03862            9600.00
03863           10000.00
03864           10000.00
03865           10400.00
03866           10800.00
03867           10800.00
03868           11000.00
03869           11200.00
03870           11600.00
03871           11600.00
03872           11800.00
03873           12000.00
03874           12400.00
03875           12600.00
03876           12600.00
03877           12800.00
03878           13000.00
03879           13200.00
03880           13400.00
03881           13600.00
03882           13600.00
03883           13600.00
03884           14000.00
03885           14000.00
03886           14200.00
03887           14400.00
03888           14600.00
03889           14600.00
03890           14600.00
03891           14800.00
03892           15000.00
03893           15000.00
03894           15200.00
03895           15200.00
03896           15400.00
03897           15600.00
03898           15600.00
03899           15600.00
03900           15600.00
03901           15600.00
03902           15800.00
03903           15800.00
03904           15800.00
03905           15800.00
03906           15800.00
03907           15800.00
03908           15800.00
03909           15800.00
03910           15800.00
03911           15800.00
03912           15800.00
03913           15800.00
03914           15800.00
03915           15800.00
03916           15800.00
03917           15600.00
03918           15600.00
03919           15600.00
03920           15600.00
03921           15600.00
03922           15400.00
03923           15400.00
03924           15200.00
03925           15000.00
03926           15200.00
03927           15200.00
03928           15000.00
03929           14800.00
03930           14800.00
03931           14400.00
03932           14600.00
03933           14200.00
03934           14200.00
03935           14000.00
03936           14000.00
03937           13600.00
03938           13600.00
03939           13400.00
03940           13200.00
03941           13200.00
03942           13000.00
03943           12800.00
03944           12600.00
03945           12400.00
03946           12200.00
03947           12000.00
03948           11800.00
03949           11600.00
03950           11400.00
03951           11200.00
03952           11000.00
03953           10800.00
03954           10400.00
03955           10400.00
03956           10200.00
03957            9800.00
03958            9600.00
03959            9400.00
03960            9200.00
03961            8800.00
03962            8800.00
03963            8400.00
03964            8200.00
03965            8000.00
03966            7800.00
03967            7400.00
03968            7200.00
03969            6800.00
03970            6600.00
03971            6200.00
03972            6000.00
03973            6000.00
03974            5600.00
03975            5200.00
03976            4800.00
03977            4600.00
03978            4400.00
03979            4000.00
03980            3800.00
03981            3400.00
03982            3200.00
03983            2800.00
03984            2600.00
03985            2200.00
03986            2000.00
03987            1800.00
03988            1400.00
03989            1200.00
03990             800.00
03991             400.00
03992             400.00
03993               0.00
03994            -400.00
03995            -600.00
03996            -800.00
03997           -1200.00
03998           -1200.00
03999           -1800.00
04000           -1800.00
04001           -2200.00
04002           -2400.00
04003           -2800.00
04004           -3600.00
04005           -3600.00
04006           -4000.00
04007           -3800.00
04008           -4000.00
04009           -4600.00
04010           -4800.00
04011           -4800.00
04012           -5600.00
04013           -5600.00
04014           -5800.00
04015           -6400.00
04016           -6600.00
04017           -6600.00
04018           -7200.00
04019           -7200.00
04020           -7600.00
04021           -8000.00
04022           -8000.00
04023           -8400.00
04024           -8800.00
04025           -8800.00
04026           -9000.00
04027           -9200.00
04028           -9600.00
04029          -10000.00
04030          -10000.00
04031          -10200.00
04032          -10600.00
04033          -10600.00
04034          -11000.00
04035          -11200.00
04036          -11400.00
04037          -11800.00
04038          -11800.00
04039          -12000.00
04040          -12200.00
04041          -12400.00
04042          -12400.00
04043          -12800.00
04044          -13000.00
04045          -13200.00
04046          -13200.00
04047          -13400.00
04048          -13600.00
04049          -13600.00
04050          -13800.00
04051          -14000.00
04052          -14200.00
04053          -14400.00
04054          -14400.00
04055          -14400.00
04056          -14600.00
04057          -14600.00
04058          -14800.00
04059          -14800.00
04060          -15000.00
04061          -15000.00
04062          -15200.00
04063          -15200.00
04064          -15400.00
04065          -15200.00
04066          -15400.00
04067          -15600.00
04068          -15600.00
04069          -15600.00
04070          -15600.00
04071          -15600.00
04072          -15600.00
04073          -15600.00
04074          -15800.00
04075          -15600.00
04076          -15600.00
04077          -15600.00
04078          -15600.00
04079          -15600.00
04080          -15600.00
04081          -15600.00
04082          -15600.00
04083          -15600.00
04084          -15600.00
04085          -15600.00
04086          -15400.00
04087          -15200.00
04088          -15400.00
04089          -15200.00
04090          -15200.00
04091          -15200.00
04092          -15000.00
04093          -14800.00
04094          -14800.00
04095          -14800.00
04096          -14600.00
04097          -14600.00
04098          -14400.00
04099          -14000.00
04100          -14000.00
04101          -13800.00
04102          -13600.00
04103          -13600.00
04104          -13600.00
04105          -13200.00
04106          -13200.00
04107          -13000.00
04108          -12800.00
04109          -12800.00
04110          -12400.00
04111          -12400.00
04112          -12000.00
04113          -12000.00
04114          -11800.00
04115          -11400.00
04116          -11400.00
04117          -11000.00
04118          -10800.00
04119          -10800.00
04120          -10400.00
04121          -10200.00
04122          -10000.00
04123           -9800.00
04124           -9600.00
04125           -9200.00
04126           -9000.00
04127           -8800.00
04128           -8600.00
04129           -8400.00
04130           -8000.00
04131           -7800.00
04132           -7600.00
04133           -7200.00
04134           -7000.00
04135           -6800.00
04136           -6400.00
04137           -6200.00
04138           -6000.00
04139           -5600.00
04140           -5400.00
04141           -5000.00
04142           -4800.00
04143           -4400.00
04144           -4200.00
04145           -4000.00
04146           -3600.00
04147           -3400.00
04148           -3200.00
04149           -2800.00
04150           -2600.00
04151           -2400.00
04152           -2000.00
04153           -1600.00
04154           -1400.00
04155           -1000.00
04156            -800.00
04157            -400.00
04158            -200.00
04159               0.00
04160             400.00
04161             600.00
04162             800.00
04163            1200.00
04164            1600.00
04165            1800.00
04166            2200.00
04167            2400.00
04168            2600.00
04169            3000.00
04170            3200.00
04171            3600.00
04172            4000.00
04173            4000.00
04174            4400.00
04175            4600.00
04176            4800.00
04177            5200.00
04178            5600.00
04179            5800.00
04180            6000.00
04181            6400.00
04182            6600.00
04183            6800.00
04184            7200.00
04185            7400.00
04186            7600.00
04187            8000.00
04188            8200.00
04189            8600.00
04190            8600.00
04191            9000.00
04192            9200.00
04193            9400.00
04194            9600.00
04195           10000.00
04196           10000.00
04197           10400.00
04198           10800.00
04199           10800.00
04200           11200.00
04201           11200.00
04202           11400.00
04203           11800.00
04204           12000.00
04205           12400.00
04206           12400.00
04207           12400.00
04208           12800.00
04209           12800.00
04210           13000.00
04211           13200.00
04212           13400.00
04213           13400.00
04214           13600.00
04215           13800.00
04216           13800.00
04217           14200.00
04218           14200.00
04219           14600.00
04220           14600.00
04221           14600.00
04222           14800.00
04223           14800.00
04224           15000.00
04225           15000.00
04226           15200.00
04227           15200.00
04228           15200.00
04229           15400.00
04230           15600.00
04231           15600.00
04232           15800.00
04233           15600.00
04234           15800.00
04235           15800.00
04236           15800.00
04237           15800.00
04238           15800.00
04239           16000.00
04240           16000.00
04241           15800.00
04242           15800.00
04243           16000.00
04244           15800.00
04245           15800.00
04246           15800.00
04247           15800.00
04248           15800.00
04249           15600.00
04250           15800.00
04251           15600.00
04252           15600.00
04253           15600.00
04254           15400.00
04255           15200.00
04256           15600.00
04257           15200.00
04258           15000.00
04259           15200.00
04260           14800.00
04261           14800.00
04262           14600.00
04263           14600.00
04264           14400.00
04265           14400.00
04266           14200.00
04267           14000.00
04268           14000.00
04269           13800.00
04270           13600.00
04271           13600.00
04272           13400.00
04273           13200.00
04274           12800.00
04275           12800.00
04276           12600.00
04277           12400.00
04278           12200.00
04279           12000.00
04280           11800.00
04281           11600.00
04282           11200.00
04283           11200.00
04284           11000.00
04285           10800.00
04286           10400.00
04287           10400.00
04288           10200.00
04289            9800.00
04290            9600.00
04291            9400.00
04292            9200.00
04293            8800.00
04294            8800.00
04295            8400.00
04296            8000.00
04297            8000.00
04298            7800.00
04299            7600.00
04300            7200.00
04301            6800.00
04302            6800.00
04303            6400.00
04304            6200.00
04305            5800.00
04306            5400.00
04307            5200.00
04308            4800.00
04309            4600.00
04310            4400.00
04311            4000.00
04312            3800.00
04313            3600.00
04314            3200.00
04315            2800.00
04316            2800.00
04317            2400.00
04318            2000.00
04319            1600.00
04320            1600.00
04321            1200.00
04322             800.00
04323             600.00
04324             400.00
04325               0.00
04326            -400.00
04327            -400.00
04328            -800.00
04329           -1000.00
04330           -1200.00
04331           -1800.00
04332           -1800.00
04333           -2200.00
04334           -2600.00
04335           -2800.00
04336           -3400.00
04337           -3600.00
04338           -3800.00
04339           -3800.00
04340           -4000.00
04341           -4400.00
04342           -4600.00
04343           -5000.00
04344           -5600.00
04345           -5800.00
04346           -5800.00
04347           -6200.00
04348           -6400.00
04349           -6600.00
04350           -7200.00
04351           -7200.00
04352           -7600.00
04353           -8000.00
04354           -8000.00
04355           -8200.00
04356           -8800.00
04357           -8800.00
04358           -9200.00
04359           -9200.00
04360           -9600.00
04361           -9800.00
04362          -10000.00
04363          -10200.00
04364          -10600.00
04365          -10600.00
04366          -10800.00
04367          -11000.00
04368          -11200.00
04369          -11400.00
04370          -11800.00
04371          -12000.00
04372          -12200.00
04373          -12400.00
04374          -12400.00
04375          -12800.00
04376          -13000.00
04377          -13200.00
04378          -13200.00
04379          -13400.00
04380          -13600.00
04381          -13800.00
04382          -13800.00
04383          -13800.00
04384          -14200.00
04385          -14400.00
04386          -14400.00
04387          -14400.00
04388          -14800.00
04389          -14800.00
04390          -14800.00
04391          -14800.00
04392          -15000.00
04393          -15200.00
04394          -15200.00
04395          -15200.00
04396          -15400.00
04397          -15400.00
04398          -15400.00
04399          -15600.00
04400          -15600.00
04401          -15600.00
04402          -15600.00
04403          -15600.00
04404          -15600.00
04405          -15600.00
04406          -15600.00
04407          -15600.00
04408          -15800.00
04409          -15800.00
04410          -15800.00
04411          -15800.00
04412          -15600.00
04413          -15600.00
04414          -15600.00
04415          -15600.00
04416          -15400.00
04417          -15400.00
04418          -15400.00
04419          -15400.00
04420          -15400.00
04421          -15200.00
04422          -15200.00
04423          -14800.00
04424          -14800.00
04425          -14800.00
04426          -14800.00
04427          -14600.00
04428          -14600.00
04429          -14400.00
04430          -14200.00
04431          -14200.00
04432          -14200.00
04433          -14000.00
04434          -13800.00
04435          -13600.00
04436          -13600.00
04437          -13200.00
04438          -13200.00
04439          -13000.00
04440          -13000.00
04441          -12600.00
04442          -12400.00
04443          -12400.00
04444          -12000.00
04445          -12000.00
04446          -11600.00
04447          -11400.00
04448          -11200.00
04449          -11000.00
04450          -10800.00
04451          -10600.00
04452          -10400.00
04453          -10000.00
04454          -10000.00
04455           -9600.00
04456           -9600.00
04457           -9200.00
04458           -9000.00
04459           -8800.00
04460           -8600.00
04461           -8200.00
04462           -8000.00
04463           -8000.00
04464           -7600.00
04465           -7200.00
04466           -7000.00
04467           -6600.00
04468           -6600.00
04469           -6200.00
04470           -6000.00
04471           -5800.00
04472           -5200.00
04473           -5000.00
04474           -4800.00
04475           -4600.00
04476           -4200.00
04477           -4000.00
04478           -3600.00
04479           -3400.00
04480           -3200.00
04481           -2800.00
04482           -2400.00
04483           -2400.00
04484           -2000.00
04485           -1600.00
04486           -1200.00
04487           -1000.00
04488            -800.00
04489            -400.00
04490            -200.00
04491               0.00
04492             400.00
04493             600.00
04494            1000.00
04495            1200.00
04496            1600.00
04497            1800.00
04498            2000.00
04499            2200.00
04500            2600.00
04501            3000.00
04502            3200.00
04503            3600.00
04504            3800.00
04505            4000.00
04506            4400.00
04507            4600.00
04508            4800.00
04509            5200.00
04510            5600.00
04511            5800.00
04512            6000.00
04513            6400.00
04514            6400.00
04515            6800.00
04516            7200.00
04517            7200.00
04518            7800.00
04519            8000.00
04520            8200.00
04521            8600.00
04522            8800.00
04523            9000.00
04524            9400.00
04525            9400.00
04526            9600.00
04527           10000.00
04528           10000.00
04529           10400.00
04530           10600.00
04531           10800.00
04532           11200.00
04533           11200.00
04534           11400.00
04535           11800.00
04536           12000.00
04537           12200.00
04538           12400.00
04539           12600.00
04540           12600.00
04541           12800.00
04542           13000.00
04543           13200.00
04544           13400.00
04545           13600.00
04546           13600.00
04547           13800.00
04548           13800.00
04549           14000.00
04550           14200.00
04551           14400.00
04552           14400.00
04553           14600.00
04554           14800.00
04555           14800.00
04556           15000.00
04557           15000.00
04558           15000.00
04559           15200.00
04560           15200.00
04561           15400.00
04562           15400.00
04563           15600.00
04564           15600.00
04565           15600.00
04566           15600.00
04567           15800.00
04568           15800.00
04569           15800.00
04570           15800.00
04571           15800.00
04572           15800.00
04573           15800.00
04574           15800.00
04575           16000.00
04576           15800.00
04577           15800.00
04578           15600.00
04579           15800.00
04580           15800.00
04581           15600.00
04582           15800.00
04583           15600.00
04584           15600.00
04585           15600.00
04586           15200.00
04587           15400.00
04588           15400.00
04589           15200.00
04590           15000.00
04591           15000.00
04592           14800.00
04593           14800.00
04594           14800.00
04595           14600.00
04596           14400.00
04597           14200.00
04598           14200.00
04599           14000.00
04600           14000.00
04601           13800.00
04602           13600.00
04603           13400.00
04604           13200.00
04605           13200.00
04606           13000.00
04607           12800.00
04608           12600.00
04609           12400.00
04610           12200.00
04611           12000.00
04612           11800.00
04613           11800.00
04614           11400.00
04615           11200.00
04616           11000.00
04617           10800.00
04618           10800.00
04619           10400.00
04620           10200.00
04621            9800.00
04622            9600.00
04623            9400.00
04624            9200.00
04625            9000.00
04626            8600.00
04627            8600.00
04628            8400.00
04629            8000.00
04630            7600.00
04631            7400.00
04632            7200.00
04633            6800.00
04634            6800.00
04635            6400.00
04636            6000.00
04637            5800.00
04638            5600.00
04639            5200.00
04640            4800.00
04641            4600.00
04642            4400.00
04643            4000.00
04644            3600.00
04645            3600.00
04646            3200.00
04647            3000.00
04648            2800.00
04649            2400.00
04650            2000.00
04651            1600.00
04652            1400.00
04653            1200.00
04654             800.00
04655             400.00
04656             200.00
04657             200.00
04658            -400.00
04659            -600.00
04660            -800.00
04661           -1000.00
04662           -1400.00
04663           -1600.00
04664           -2000.00
04665           -2000.00
04666           -2400.00
04667           -2800.00
04668           -3400.00
04669           -3600.00
04670           -4000.00
04671           -3600.00
04672           -4000.00
04673           -4600.00
04674           -4800.00
04675           -5000.00
04676           -5600.00
04677           -5800.00
04678           -5800.00
04679           -6400.00
04680           -6400.00
04681           -6800.00
04682           -7200.00
04683           -7200.00
04684           -7600.00
04685           -8000.00
04686           -8000.00
04687           -8200.00
04688           -8800.00
04689           -8800.00
04690           -9200.00
04691           -9200.00
04692           -9600.00
04693          -10000.00
04694          -10000.00
04695          -10200.00
04696          -10600.00
04697          -10600.00
04698          -10800.00
04699          -11200.00
04700          -11400.00
04701          -11600.00
04702          -12000.00
04703          -12000.00
04704          -12200.00
04705          -12400.00
04706          -12600.00
04707          -12800.00
04708          -13000.00
04709          -13000.00
04710          -13200.00
04711          -13400.00
04712          -13600.00
04713          -13800.00
04714          -13800.00
04715          -14000.00
04716          -14200.00
04717          -14400.00
04718          -14400.00
04719          -14600.00
04720          -14600.00
04721          -14800.00
04722          -14600.00
04723          -14800.00
04724          -15200.00
04725          -15000.00
04726          -15200.00
04727          -15400.00
04728          -15400.00
04729          -15400.00
04730          -15400.00
04731          -15400.00
04732          -15600.00
04733          -15600.00
04734          -15600.00
04735          -15600.00
04736          -15600.00
04737          -15600.00
04738          -15600.00
04739          -15600.00
04740          -15600.00
04741          -15600.00
04742          -15600.00
04743          -15600.00
04744          -15600.00
04745          -15600.00
04746          -15600.00
04747          -15600.00
04748          -15400.00
04749          -15400.00
04750          -15400.00
04751          -15400.00
04752          -15400.00
04753          -15200.00
04754          -15000.00
04755          -15000.00
04756          -15000.00
04757          -14800.00
04758          -14800.00
04759          -14600.00
04760          -14600.00
04761          -14400.00
04762          -14400.00
04763          -14400.00
04764          -14000.00
04765          -13800.00
04766          -13800.00
04767          -13600.00
04768          -13400.00
04769          -13200.00
04770          -13200.00
04771          -13000.00
04772          -12800.00
04773          -12800.00
04774          -12400.00
04775          -12400.00
04776          -12200.00
04777          -12000.00
04778          -11800.00
04779          -11400.00
04780          -11200.00
04781          -11000.00
04782          -10800.00
04783          -10800.00
04784          -10400.00
04785          -10400.00
04786          -10000.00
04787           -9800.00
04788           -9600.00
04789           -9200.00
04790           -9200.00
04791           -8800.00
04792           -8800.00
04793           -8400.00
04794           -8200.00
04795           -7800.00
04796           -7600.00
04797           -7200.00
04798           -6800.00
04799           -6800.00
04800           -6400.00
04801           -6200.00
04802           -6000.00
04803           -5600.00
04804           -5200.00
04805           -5200.00
04806           -5000.00
04807           -4400.00
04808           -4200.00
04809           -4000.00
04810           -3600.00
04811           -3400.00
04812           -3200.00
04813           -2800.00
04814           -2400.00
04815           -2400.00
04816           -2000.00
04817           -1600.00
04818           -1400.00
04819           -1000.00
04820            -800.00
04821            -400.00
04822            -200.00
04823               0.00
04824             400.00
04825             600.00
04826             800.00
04827            1200.00
04828            1600.00
04829            1800.00
04830            2000.00
04831            2200.00
04832            2600.00
04833            3000.00
04834            3200.00
04835            3600.00
04836            3800.00
04837            4000.00
04838            4400.00
04839            4600.00
04840            4800.00
04841            5000.00
04842            5600.00
04843            5600.00
04844            6000.00
04845            6400.00
04846            6400.00
04847            6800.00
04848            7200.00
04849            7200.00
04850            7800.00
04851            8000.00
04852            8200.00
04853            8600.00
04854            8800.00
04855            8800.00
04856            9200.00
04857            9400.00
04858            9600.00
04859           10000.00
04860           10000.00
04861           10400.00
04862           10400.00
04863           10800.00
04864           11000.00
04865           11200.00
04866           11600.00
04867           11600.00
04868           12000.00
04869           12200.00
04870           12400.00
04871           12400.00
04872           12800.00
04873           12800.00
04874           13200.00
04875           13200.00
04876           13400.00
04877           13400.00
04878           13600.00
04879           14000.00
04880           14000.00
04881           14000.00
04882           14200.00
04883           14400.00
04884           14600.00
04885           14600.00
04886           14800.00
04887           14800.00
04888           14800.00
04889           15000.00
04890           15000.00
04891           15200.00
04892           15200.00
04893           15400.00
04894           15600.00
04895           15600.00
04896           15600.00
04897           15600.00
04898           15600.00
04899           15800.00
04900           15600.00
04901           15800.00
04902           15800.00
04903           15800.00
04904           15800.00
04905           15800.00
04906           15800.00
04907           15800.00
04908           15800.00
04909           16000.00
04910           15800.00
04911           15800.00
04912           15800.00
04913           15600.00
04914           15600.00
04915           15600.00
04916           15600.00
04917           15600.00
04918           15600.00
04919           15400.00
04920           15200.00
04921           15200.00
04922           15000.00
04923           15200.00
04924           15000.00
04925           15000.00
04926           14800.00
04927           14600.00
04928           14400.00
04929           14400.00
04930           14400.00
04931           14000.00
04932           14000.00
04933           13800.00
04934           13600.00
04935           13400.00
04936           13400.00
04937           13200.00
04938           13000.00
04939           12800.00
04940           12600.00
04941           12400.00
04942           12000.00
04943           12000.00
04944           11800.00
04945           11800.00
04946           11600.00
04947           11200.00
04948           11000.00
04949           10800.00
04950           10600.00
04951           10200.00
04952           10200.00
04953            9800.00
04954            9600.00
04955            9400.00
04956            9200.00
04957            8800.00
04958            8800.00
04959            8400.00
04960            8200.00
04961            8000.00
04962            7600.00
04963            7400.00
04964            7200.00
04965            7000.00
04966            6800.00
04967            6400.00
04968            6000.00
04969            5800.00
04970            5600.00
04971            5200.00
04972            5000.00
04973            4600.00
04974            4400.00
04975            4200.00
04976            3800.00
04977            3600.00
04978            3200.00
04979            3000.00
04980            2800.00
04981            2400.00
04982            2000.00
04983            1800.00
04984            1400.00
04985            1200.00
04986             800.00
04987             600.00
04988             200.00
04989            -200.00
04990            -200.00
04991            -600.00
04992            -800.00
04993           -1200.00
04994           -1400.00
04995           -1800.00
04996           -1800.00
04997           -2000.00
04998           -2400.00
04999           -2800.00
05000           -3400.00
