Unit:(mV)
                     CH2
Frequency    301.213 kHz
00001            2400.00
00002            2000.00
00003            1600.00
00004            1400.00
00005             800.00
00006             600.00
00007             400.00
00008            -200.00
00009            -400.00
00010            -800.00
00011           -1000.00
00012           -1200.00
00013           -1800.00
00014           -1800.00
00015           -2200.00
00016           -2400.00
00017           -2800.00
00018           -3200.00
00019           -3600.00
00020           -4200.00
00021           -4400.00
00022           -4200.00
00023           -4400.00
00024           -5200.00
00025           -5600.00
00026           -5600.00
00027           -6000.00
00028           -6400.00
00029           -6600.00
00030           -7200.00
00031           -7200.00
00032           -7600.00
00033           -8000.00
00034           -8200.00
00035           -8400.00
00036           -9000.00
00037           -9000.00
00038           -9400.00
00039           -9600.00
00040           -9800.00
00041          -10200.00
00042          -10400.00
00043          -10800.00
00044          -11200.00
00045          -11200.00
00046          -11400.00
00047          -12000.00
00048          -12200.00
00049          -12200.00
00050          -12600.00
00051          -12600.00
00052          -13000.00
00053          -13200.00
00054          -13600.00
00055          -13800.00
00056          -13800.00
00057          -14200.00
00058          -14400.00
00059          -14600.00
00060          -14800.00
00061          -14800.00
00062          -15000.00
00063          -15200.00
00064          -15400.00
00065          -15600.00
00066          -15800.00
00067          -16000.00
00068          -16200.00
00069          -16200.00
00070          -16200.00
00071          -16400.00
00072          -16600.00
00073          -16800.00
00074          -16800.00
00075          -16800.00
00076          -17000.00
00077          -17000.00
00078          -17000.00
00079          -17200.00
00080          -17200.00
00081          -17400.00
00082          -17400.00
00083          -17400.00
00084          -17600.00
00085          -17400.00
00086          -17400.00
00087          -17600.00
00088          -17800.00
00089          -17800.00
00090          -17400.00
00091          -17800.00
00092          -17600.00
00093          -17600.00
00094          -17600.00
00095          -17400.00
00096          -17400.00
00097          -17400.00
00098          -17400.00
00099          -17200.00
00100          -17400.00
00101          -17200.00
00102          -17200.00
00103          -17200.00
00104          -17200.00
00105          -17000.00
00106          -16800.00
00107          -16800.00
00108          -16600.00
00109          -16600.00
00110          -16400.00
00111          -16200.00
00112          -16200.00
00113          -16000.00
00114          -16000.00
00115          -15800.00
00116          -15600.00
00117          -15600.00
00118          -15400.00
00119          -15000.00
00120          -15000.00
00121          -14800.00
00122          -14600.00
00123          -14400.00
00124          -14000.00
00125          -14000.00
00126          -13800.00
00127          -13800.00
00128          -13400.00
00129          -13200.00
00130          -12800.00
00131          -12600.00
00132          -12400.00
00133          -12400.00
00134          -12000.00
00135          -11600.00
00136          -11400.00
00137          -11200.00
00138          -10800.00
00139          -10600.00
00140          -10400.00
00141          -10000.00
00142          -10000.00
00143           -9600.00
00144           -9200.00
00145           -9000.00
00146           -8800.00
00147           -8400.00
00148           -8200.00
00149           -8000.00
00150           -7400.00
00151           -7200.00
00152           -7000.00
00153           -6600.00
00154           -6400.00
00155           -5800.00
00156           -5800.00
00157           -5400.00
00158           -5200.00
00159           -4800.00
00160           -4400.00
00161           -4000.00
00162           -3600.00
00163           -3400.00
00164           -3200.00
00165           -2800.00
00166           -2400.00
00167           -2200.00
00168           -1800.00
00169           -1600.00
00170           -1200.00
00171            -800.00
00172            -400.00
00173            -200.00
00174             200.00
00175             400.00
00176             800.00
00177            1200.00
00178            1600.00
00179            1800.00
00180            2000.00
00181            2400.00
00182            2600.00
00183            3000.00
00184            3200.00
00185            3800.00
00186            4000.00
00187            4400.00
00188            4600.00
00189            4800.00
00190            5200.00
00191            5600.00
00192            5800.00
00193            6200.00
00194            6400.00
00195            6800.00
00196            7200.00
00197            7400.00
00198            7800.00
00199            8000.00
00200            8400.00
00201            8600.00
00202            8800.00
00203            9200.00
00204            9400.00
00205            9600.00
00206           10000.00
00207           10400.00
00208           10600.00
00209           11000.00
00210           11200.00
00211           11200.00
00212           11800.00
00213           12000.00
00214           12200.00
00215           12600.00
00216           12600.00
00217           13000.00
00218           13200.00
00219           13400.00
00220           13600.00
00221           13800.00
00222           14000.00
00223           14400.00
00224           14600.00
00225           14800.00
00226           14800.00
00227           15000.00
00228           15200.00
00229           15200.00
00230           15600.00
00231           15800.00
00232           15800.00
00233           16000.00
00234           16200.00
00235           16400.00
00236           16400.00
00237           16600.00
00238           16600.00
00239           16800.00
00240           16800.00
00241           16800.00
00242           17000.00
00243           17200.00
00244           17200.00
00245           17400.00
00246           17400.00
00247           17600.00
00248           17600.00
00249           17600.00
00250           17600.00
00251           17600.00
00252           17800.00
00253           17800.00
00254           17800.00
00255           18000.00
00256           17600.00
00257           17600.00
00258           17600.00
00259           17600.00
00260           17800.00
00261           17600.00
00262           17600.00
00263           17600.00
00264           17600.00
00265           17600.00
00266           17400.00
00267           17400.00
00268           17400.00
00269           17200.00
00270           17200.00
00271           17200.00
00272           17200.00
00273           16800.00
00274           17000.00
00275           16600.00
00276           16400.00
00277           16400.00
00278           16400.00
00279           16200.00
00280           16000.00
00281           16000.00
00282           15800.00
00283           15800.00
00284           15600.00
00285           15200.00
00286           15200.00
00287           14800.00
00288           14800.00
00289           14600.00
00290           14400.00
00291           14200.00
00292           14000.00
00293           13600.00
00294           13400.00
00295           13400.00
00296           13200.00
00297           12800.00
00298           12600.00
00299           12400.00
00300           12200.00
00301           12000.00
00302           11600.00
00303           11200.00
00304           11000.00
00305           10800.00
00306           10800.00
00307           10400.00
00308           10000.00
00309            9600.00
00310            9400.00
00311            9200.00
00312            8800.00
00313            8600.00
00314            8400.00
00315            8000.00
00316            7600.00
00317            7600.00
00318            7000.00
00319            6800.00
00320            6400.00
00321            6200.00
00322            6000.00
00323            5600.00
00324            5200.00
00325            4800.00
00326            4600.00
00327            4200.00
00328            3800.00
00329            3600.00
00330            3200.00
00331            2800.00
00332            2600.00
00333            2400.00
00334            2000.00
00335            1800.00
00336            1200.00
00337             800.00
00338             600.00
00339             400.00
00340               0.00
00341            -400.00
00342            -600.00
00343           -1000.00
00344           -1200.00
00345           -1600.00
00346           -1800.00
00347           -2000.00
00348           -2400.00
00349           -2800.00
00350           -3200.00
00351           -3800.00
00352           -4200.00
00353           -4400.00
00354           -4200.00
00355           -4600.00
00356           -5200.00
00357           -5600.00
00358           -5600.00
00359           -6000.00
00360           -6400.00
00361           -6600.00
00362           -7200.00
00363           -7200.00
00364           -7600.00
00365           -8000.00
00366           -8200.00
00367           -8400.00
00368           -9000.00
00369           -9000.00
00370           -9400.00
00371           -9800.00
00372           -9800.00
00373          -10400.00
00374          -10400.00
00375          -10800.00
00376          -11200.00
00377          -11200.00
00378          -11400.00
00379          -12000.00
00380          -12200.00
00381          -12200.00
00382          -12800.00
00383          -12800.00
00384          -13000.00
00385          -13200.00
00386          -13400.00
00387          -13800.00
00388          -13800.00
00389          -14200.00
00390          -14400.00
00391          -14400.00
00392          -14600.00
00393          -14800.00
00394          -15000.00
00395          -15400.00
00396          -15400.00
00397          -15600.00
00398          -15600.00
00399          -15800.00
00400          -16000.00
00401          -16200.00
00402          -16200.00
00403          -16400.00
00404          -16400.00
00405          -16800.00
00406          -16800.00
00407          -16800.00
00408          -17000.00
00409          -17000.00
00410          -17000.00
00411          -17200.00
00412          -17200.00
00413          -17400.00
00414          -17600.00
00415          -17400.00
00416          -17400.00
00417          -17400.00
00418          -17600.00
00419          -17600.00
00420          -17600.00
00421          -17600.00
00422          -17400.00
00423          -17600.00
00424          -17600.00
00425          -17600.00
00426          -17400.00
00427          -17600.00
00428          -17600.00
00429          -17400.00
00430          -17200.00
00431          -17400.00
00432          -17200.00
00433          -17200.00
00434          -17200.00
00435          -17000.00
00436          -17000.00
00437          -17000.00
00438          -16800.00
00439          -16800.00
00440          -16600.00
00441          -16800.00
00442          -16400.00
00443          -16400.00
00444          -16200.00
00445          -16000.00
00446          -16000.00
00447          -15800.00
00448          -15800.00
00449          -15400.00
00450          -15200.00
00451          -15200.00
00452          -15000.00
00453          -14800.00
00454          -14600.00
00455          -14400.00
00456          -14400.00
00457          -14000.00
00458          -13800.00
00459          -13600.00
00460          -13400.00
00461          -13000.00
00462          -12800.00
00463          -12800.00
00464          -12400.00
00465          -12200.00
00466          -12000.00
00467          -11600.00
00468          -11400.00
00469          -11200.00
00470          -11000.00
00471          -10600.00
00472          -10400.00
00473          -10000.00
00474           -9800.00
00475           -9600.00
00476           -9200.00
00477           -9000.00
00478           -8800.00
00479           -8400.00
00480           -8000.00
00481           -8000.00
00482           -7600.00
00483           -7000.00
00484           -6800.00
00485           -6600.00
00486           -6400.00
00487           -6000.00
00488           -5800.00
00489           -5200.00
00490           -5000.00
00491           -4600.00
00492           -4200.00
00493           -4200.00
00494           -3600.00
00495           -3600.00
00496           -3200.00
00497           -2800.00
00498           -2400.00
00499           -2000.00
00500           -1800.00
00501           -1400.00
00502           -1200.00
00503            -800.00
00504            -400.00
00505               0.00
00506               0.00
00507             400.00
00508             800.00
00509            1200.00
00510            1400.00
00511            1800.00
00512            2000.00
00513            2200.00
00514            2600.00
00515            3000.00
00516            3200.00
00517            3800.00
00518            4000.00
00519            4400.00
00520            4600.00
00521            4800.00
00522            5200.00
00523            5600.00
00524            6000.00
00525            6400.00
00526            6400.00
00527            6800.00
00528            7200.00
00529            7400.00
00530            7800.00
00531            8200.00
00532            8400.00
00533            8600.00
00534            9000.00
00535            9200.00
00536            9600.00
00537            9800.00
00538           10000.00
00539           10400.00
00540           10600.00
00541           10800.00
00542           11200.00
00543           11400.00
00544           11800.00
00545           11800.00
00546           12200.00
00547           12600.00
00548           12800.00
00549           12800.00
00550           13200.00
00551           13400.00
00552           13600.00
00553           13800.00
00554           14200.00
00555           14400.00
00556           14400.00
00557           14600.00
00558           14800.00
00559           15000.00
00560           15200.00
00561           15400.00
00562           15600.00
00563           15600.00
00564           15800.00
00565           16000.00
00566           16000.00
00567           16400.00
00568           16400.00
00569           16400.00
00570           16600.00
00571           16800.00
00572           16800.00
00573           16800.00
00574           17200.00
00575           17200.00
00576           17400.00
00577           17400.00
00578           17400.00
00579           17600.00
00580           17600.00
00581           17600.00
00582           17600.00
00583           17600.00
00584           18000.00
00585           17800.00
00586           17800.00
00587           17600.00
00588           17600.00
00589           17800.00
00590           18000.00
00591           17800.00
00592           17800.00
00593           17600.00
00594           17800.00
00595           17600.00
00596           17600.00
00597           17600.00
00598           17400.00
00599           17600.00
00600           17400.00
00601           17400.00
00602           17200.00
00603           17200.00
00604           17200.00
00605           17000.00
00606           16800.00
00607           16800.00
00608           16600.00
00609           16600.00
00610           16400.00
00611           16400.00
00612           16200.00
00613           16000.00
00614           15800.00
00615           15800.00
00616           15600.00
00617           15200.00
00618           15000.00
00619           15000.00
00620           14800.00
00621           14600.00
00622           14400.00
00623           14000.00
00624           14000.00
00625           13600.00
00626           13400.00
00627           13200.00
00628           13000.00
00629           12800.00
00630           12600.00
00631           12400.00
00632           12200.00
00633           11800.00
00634           11800.00
00635           11200.00
00636           11200.00
00637           10800.00
00638           10800.00
00639           10400.00
00640           10000.00
00641            9800.00
00642            9400.00
00643            9200.00
00644            8800.00
00645            8600.00
00646            8400.00
00647            8000.00
00648            7800.00
00649            7400.00
00650            7200.00
00651            6800.00
00652            6600.00
00653            6200.00
00654            6000.00
00655            5600.00
00656            5200.00
00657            4800.00
00658            4600.00
00659            4200.00
00660            3800.00
00661            3600.00
00662            3200.00
00663            3000.00
00664            2600.00
00665            2400.00
00666            2000.00
00667            1600.00
00668            1400.00
00669            1000.00
00670             600.00
00671             400.00
00672               0.00
00673            -400.00
00674            -800.00
00675           -1000.00
00676           -1400.00
00677           -1600.00
00678           -2000.00
00679           -2000.00
00680           -2400.00
00681           -2800.00
00682           -3200.00
00683           -3800.00
00684           -4200.00
00685           -4400.00
00686           -4400.00
00687           -4400.00
00688           -5200.00
00689           -5400.00
00690           -5600.00
00691           -6000.00
00692           -6400.00
00693           -6600.00
00694           -7000.00
00695           -7200.00
00696           -7600.00
00697           -8000.00
00698           -8200.00
00699           -8600.00
00700           -9000.00
00701           -9000.00
00702           -9200.00
00703           -9800.00
00704           -9800.00
00705          -10200.00
00706          -10400.00
00707          -10600.00
00708          -11000.00
00709          -11200.00
00710          -11400.00
00711          -12000.00
00712          -12000.00
00713          -12400.00
00714          -12600.00
00715          -12800.00
00716          -13200.00
00717          -13200.00
00718          -13400.00
00719          -13600.00
00720          -13800.00
00721          -14200.00
00722          -14400.00
00723          -14600.00
00724          -14600.00
00725          -14800.00
00726          -15200.00
00727          -15200.00
00728          -15400.00
00729          -15400.00
00730          -15800.00
00731          -16000.00
00732          -16000.00
00733          -16200.00
00734          -16200.00
00735          -16400.00
00736          -16400.00
00737          -16800.00
00738          -16600.00
00739          -16800.00
00740          -17000.00
00741          -17000.00
00742          -17200.00
00743          -17200.00
00744          -17200.00
00745          -17400.00
00746          -17400.00
00747          -17200.00
00748          -17400.00
00749          -17400.00
00750          -17600.00
00751          -17600.00
00752          -17600.00
00753          -17800.00
00754          -17600.00
00755          -17400.00
00756          -17600.00
00757          -17600.00
00758          -17400.00
00759          -17600.00
00760          -17400.00
00761          -17400.00
00762          -17200.00
00763          -17600.00
00764          -17200.00
00765          -17200.00
00766          -17200.00
00767          -17200.00
00768          -16800.00
00769          -17000.00
00770          -16800.00
00771          -16800.00
00772          -16600.00
00773          -16600.00
00774          -16400.00
00775          -16400.00
00776          -16200.00
00777          -16000.00
00778          -15800.00
00779          -15800.00
00780          -15600.00
00781          -15600.00
00782          -15400.00
00783          -15200.00
00784          -15000.00
00785          -14800.00
00786          -14600.00
00787          -14400.00
00788          -14400.00
00789          -14000.00
00790          -13800.00
00791          -13600.00
00792          -13600.00
00793          -13200.00
00794          -12800.00
00795          -12800.00
00796          -12400.00
00797          -12200.00
00798          -12000.00
00799          -11600.00
00800          -11400.00
00801          -11000.00
00802          -10800.00
00803          -10800.00
00804          -10400.00
00805          -10000.00
00806           -9800.00
00807           -9600.00
00808           -9200.00
00809           -9000.00
00810           -8600.00
00811           -8400.00
00812           -8200.00
00813           -7800.00
00814           -7600.00
00815           -7200.00
00816           -6800.00
00817           -6600.00
00818           -6200.00
00819           -6000.00
00820           -5800.00
00821           -5400.00
00822           -5000.00
00823           -4600.00
00824           -4400.00
00825           -4000.00
00826           -3600.00
00827           -3400.00
00828           -3000.00
00829           -2800.00
00830           -2400.00
00831           -2000.00
00832           -1800.00
00833           -1600.00
00834           -1200.00
00835            -800.00
00836            -400.00
00837            -200.00
00838             200.00
00839             400.00
00840             800.00
00841            1200.00
00842            1400.00
00843            1800.00
00844            2000.00
00845            2400.00
00846            2600.00
00847            3000.00
00848            3400.00
00849            3800.00
00850            4000.00
00851            4400.00
00852            4800.00
00853            5000.00
00854            5200.00
00855            5600.00
00856            5800.00
00857            6200.00
00858            6400.00
00859            6800.00
00860            7200.00
00861            7400.00
00862            7800.00
00863            8200.00
00864            8400.00
00865            8800.00
00866            9200.00
00867            9200.00
00868            9400.00
00869            9800.00
00870           10000.00
00871           10400.00
00872           10400.00
00873           11000.00
00874           11200.00
00875           11200.00
00876           11600.00
00877           12000.00
00878           12200.00
00879           12600.00
00880           12800.00
00881           13000.00
00882           13200.00
00883           13400.00
00884           13600.00
00885           13800.00
00886           14000.00
00887           14200.00
00888           14400.00
00889           14800.00
00890           15000.00
00891           15000.00
00892           15400.00
00893           15200.00
00894           15600.00
00895           15800.00
00896           15800.00
00897           16000.00
00898           16200.00
00899           16400.00
00900           16400.00
00901           16600.00
00902           16600.00
00903           16800.00
00904           16800.00
00905           17000.00
00906           17200.00
00907           17200.00
00908           17200.00
00909           17400.00
00910           17400.00
00911           17600.00
00912           17600.00
00913           17600.00
00914           17600.00
00915           17600.00
00916           17600.00
00917           17800.00
00918           17800.00
00919           18000.00
00920           17800.00
00921           18000.00
00922           17600.00
00923           17600.00
00924           17800.00
00925           17600.00
00926           17600.00
00927           17600.00
00928           17600.00
00929           17600.00
00930           17400.00
00931           17400.00
00932           17400.00
00933           17400.00
00934           17200.00
00935           17200.00
00936           17200.00
00937           17000.00
00938           16800.00
00939           16800.00
00940           16600.00
00941           16400.00
00942           16400.00
00943           16200.00
00944           16000.00
00945           16000.00
00946           15800.00
00947           15600.00
00948           15400.00
00949           15200.00
00950           15000.00
00951           15000.00
00952           14800.00
00953           14600.00
00954           14400.00
00955           14200.00
00956           14000.00
00957           13600.00
00958           13600.00
00959           13200.00
00960           13200.00
00961           12800.00
00962           12600.00
00963           12400.00
00964           12200.00
00965           12000.00
00966           11600.00
00967           11400.00
00968           11000.00
00969           10800.00
00970           10600.00
00971           10400.00
00972           10000.00
00973            9800.00
00974            9400.00
00975            9200.00
00976            9200.00
00977            8600.00
00978            8400.00
00979            8200.00
00980            7800.00
00981            7400.00
00982            7200.00
00983            6800.00
00984            6400.00
00985            6400.00
00986            6000.00
00987            5400.00
00988            5200.00
00989            4800.00
00990            4400.00
00991            4200.00
00992            3800.00
00993            3600.00
00994            3200.00
00995            3000.00
00996            2800.00
00997            2400.00
00998            2000.00
00999            1600.00
01000            1400.00
01001             800.00
01002             600.00
01003             400.00
01004               0.00
01005            -200.00
01006            -800.00
01007            -800.00
01008           -1200.00
01009           -1600.00
01010           -2000.00
01011           -2200.00
01012           -2400.00
01013           -2800.00
01014           -3200.00
01015           -3800.00
01016           -4000.00
01017           -4400.00
01018           -4400.00
01019           -4800.00
01020           -5000.00
01021           -5600.00
01022           -5400.00
01023           -6000.00
01024           -6400.00
01025           -6600.00
01026           -7000.00
01027           -7200.00
01028           -7400.00
01029           -8200.00
01030           -8200.00
01031           -8400.00
01032           -9000.00
01033           -9000.00
01034           -9200.00
01035           -9800.00
01036           -9800.00
01037          -10200.00
01038          -10400.00
01039          -10800.00
01040          -11200.00
01041          -11200.00
01042          -11600.00
01043          -12000.00
01044          -12000.00
01045          -12400.00
01046          -12400.00
01047          -12800.00
01048          -13000.00
01049          -13200.00
01050          -13600.00
01051          -13800.00
01052          -13800.00
01053          -14000.00
01054          -14400.00
01055          -14600.00
01056          -14600.00
01057          -14800.00
01058          -15200.00
01059          -15200.00
01060          -15400.00
01061          -15400.00
01062          -15600.00
01063          -15800.00
01064          -16000.00
01065          -16200.00
01066          -16200.00
01067          -16400.00
01068          -16400.00
01069          -16800.00
01070          -16800.00
01071          -16800.00
01072          -17000.00
01073          -17000.00
01074          -17000.00
01075          -17200.00
01076          -17200.00
01077          -17200.00
01078          -17400.00
01079          -17600.00
01080          -17400.00
01081          -17600.00
01082          -17600.00
01083          -17600.00
01084          -17600.00
01085          -17600.00
01086          -17400.00
01087          -17600.00
01088          -17400.00
01089          -17600.00
01090          -17400.00
01091          -17600.00
01092          -17400.00
01093          -17400.00
01094          -17400.00
01095          -17400.00
01096          -17400.00
01097          -17200.00
01098          -17200.00
01099          -17000.00
01100          -17000.00
01101          -17000.00
01102          -17000.00
01103          -16800.00
01104          -16800.00
01105          -16800.00
01106          -16400.00
01107          -16200.00
01108          -16200.00
01109          -16000.00
01110          -16000.00
01111          -15600.00
01112          -15600.00
01113          -15600.00
01114          -15400.00
01115          -15200.00
01116          -15200.00
01117          -14800.00
01118          -14600.00
01119          -14400.00
01120          -14200.00
01121          -13800.00
01122          -13600.00
01123          -13600.00
01124          -13400.00
01125          -13200.00
01126          -12800.00
01127          -12800.00
01128          -12400.00
01129          -12200.00
01130          -12000.00
01131          -11600.00
01132          -11400.00
01133          -11000.00
01134          -10800.00
01135          -10600.00
01136          -10400.00
01137          -10200.00
01138           -9800.00
01139           -9600.00
01140           -9200.00
01141           -9000.00
01142           -8800.00
01143           -8400.00
01144           -8200.00
01145           -7800.00
01146           -7600.00
01147           -7200.00
01148           -7000.00
01149           -6600.00
01150           -6400.00
01151           -6000.00
01152           -5600.00
01153           -5200.00
01154           -5000.00
01155           -4600.00
01156           -4400.00
01157           -4000.00
01158           -3600.00
01159           -3600.00
01160           -3200.00
01161           -2800.00
01162           -2400.00
01163           -2200.00
01164           -1800.00
01165           -1600.00
01166           -1200.00
01167            -800.00
01168            -400.00
01169               0.00
01170             200.00
01171             400.00
01172             800.00
01173            1200.00
01174            1400.00
01175            1800.00
01176            2000.00
01177            2400.00
01178            2600.00
01179            3000.00
01180            3200.00
01181            3800.00
01182            4000.00
01183            4400.00
01184            4600.00
01185            4800.00
01186            5200.00
01187            5600.00
01188            6000.00
01189            6400.00
01190            6400.00
01191            6800.00
01192            7200.00
01193            7400.00
01194            7800.00
01195            8200.00
01196            8400.00
01197            8600.00
01198            9200.00
01199            9200.00
01200            9600.00
01201            9800.00
01202           10200.00
01203           10400.00
01204           10600.00
01205           10800.00
01206           11200.00
01207           11200.00
01208           11800.00
01209           12000.00
01210           12000.00
01211           12400.00
01212           12600.00
01213           12800.00
01214           13200.00
01215           13400.00
01216           13600.00
01217           14000.00
01218           14000.00
01219           14200.00
01220           14600.00
01221           14600.00
01222           14800.00
01223           15000.00
01224           15200.00
01225           15400.00
01226           15600.00
01227           15600.00
01228           15800.00
01229           16000.00
01230           16200.00
01231           16200.00
01232           16400.00
01233           16600.00
01234           16600.00
01235           16800.00
01236           16800.00
01237           16800.00
01238           17200.00
01239           17200.00
01240           17400.00
01241           17400.00
01242           17400.00
01243           17600.00
01244           17600.00
01245           17600.00
01246           17600.00
01247           17800.00
01248           17600.00
01249           17600.00
01250           18000.00
01251           17800.00
01252           17800.00
01253           18000.00
01254           18000.00
01255           17600.00
01256           17600.00
01257           17600.00
01258           17600.00
01259           17600.00
01260           17600.00
01261           17600.00
01262           17400.00
01263           17400.00
01264           17400.00
01265           17200.00
01266           17200.00
01267           17200.00
01268           17200.00
01269           17000.00
01270           16800.00
01271           16600.00
01272           16600.00
01273           16600.00
01274           16400.00
01275           16400.00
01276           16000.00
01277           16000.00
01278           15800.00
01279           15800.00
01280           15600.00
01281           15200.00
01282           15200.00
01283           14800.00
01284           14800.00
01285           14600.00
01286           14400.00
01287           14200.00
01288           14000.00
01289           13600.00
01290           13600.00
01291           13200.00
01292           13000.00
01293           12800.00
01294           12600.00
01295           12400.00
01296           12200.00
01297           11800.00
01298           11800.00
01299           11200.00
01300           11000.00
01301           10800.00
01302           10600.00
01303           10400.00
01304           10000.00
01305            9600.00
01306            9400.00
01307            9200.00
01308            8800.00
01309            8600.00
01310            8400.00
01311            8000.00
01312            7800.00
01313            7400.00
01314            7000.00
01315            6800.00
01316            6600.00
01317            6200.00
01318            6000.00
01319            5600.00
01320            5200.00
01321            4800.00
01322            4600.00
01323            4400.00
01324            3800.00
01325            3600.00
01326            3200.00
01327            2800.00
01328            2800.00
01329            2200.00
01330            2000.00
01331            1800.00
01332            1400.00
01333            1000.00
01334             600.00
01335             400.00
01336               0.00
01337            -200.00
01338            -600.00
01339           -1000.00
01340           -1400.00
01341           -1600.00
01342           -1800.00
01343           -2400.00
01344           -2400.00
01345           -2800.00
01346           -3200.00
01347           -3800.00
01348           -4200.00
01349           -4400.00
01350           -4200.00
01351           -4400.00
01352           -5000.00
01353           -5400.00
01354           -5600.00
01355           -6000.00
01356           -6400.00
01357           -6400.00
01358           -7200.00
01359           -7200.00
01360           -7400.00
01361           -8000.00
01362           -8200.00
01363           -8600.00
01364           -8800.00
01365           -9000.00
01366           -9200.00
01367           -9800.00
01368           -9800.00
01369          -10000.00
01370          -10400.00
01371          -10600.00
01372          -11200.00
01373          -11200.00
01374          -11400.00
01375          -12000.00
01376          -12000.00
01377          -12400.00
01378          -12400.00
01379          -12800.00
01380          -13000.00
01381          -13200.00
01382          -13400.00
01383          -13600.00
01384          -13800.00
01385          -14000.00
01386          -14400.00
01387          -14600.00
01388          -14800.00
01389          -14800.00
01390          -15200.00
01391          -15200.00
01392          -15200.00
01393          -15600.00
01394          -15800.00
01395          -16000.00
01396          -16000.00
01397          -16200.00
01398          -16000.00
01399          -16400.00
01400          -16400.00
01401          -16400.00
01402          -16800.00
01403          -16800.00
01404          -17000.00
01405          -17000.00
01406          -17200.00
01407          -17200.00
01408          -17200.00
01409          -17400.00
01410          -17400.00
01411          -17600.00
01412          -17400.00
01413          -17600.00
01414          -17600.00
01415          -17600.00
01416          -17400.00
01417          -17800.00
01418          -17600.00
01419          -17600.00
01420          -17600.00
01421          -17400.00
01422          -17600.00
01423          -17600.00
01424          -17400.00
01425          -17600.00
01426          -17400.00
01427          -17400.00
01428          -17400.00
01429          -17200.00
01430          -17200.00
01431          -17200.00
01432          -17000.00
01433          -17000.00
01434          -16800.00
01435          -16800.00
01436          -16800.00
01437          -16400.00
01438          -16400.00
01439          -16200.00
01440          -16200.00
01441          -16000.00
01442          -16000.00
01443          -15800.00
01444          -15600.00
01445          -15400.00
01446          -15200.00
01447          -15200.00
01448          -15000.00
01449          -14600.00
01450          -14600.00
01451          -14400.00
01452          -14200.00
01453          -14000.00
01454          -13800.00
01455          -13600.00
01456          -13600.00
01457          -13000.00
01458          -13000.00
01459          -12800.00
01460          -12400.00
01461          -12200.00
01462          -12000.00
01463          -11800.00
01464          -11400.00
01465          -11200.00
01466          -10800.00
01467          -10600.00
01468          -10400.00
01469          -10200.00
01470           -9800.00
01471           -9600.00
01472           -9200.00
01473           -9000.00
01474           -8800.00
01475           -8400.00
01476           -8200.00
01477           -8000.00
01478           -7400.00
01479           -7200.00
01480           -6800.00
01481           -6600.00
01482           -6200.00
01483           -6000.00
01484           -5800.00
01485           -5200.00
01486           -4800.00
01487           -4800.00
01488           -4200.00
01489           -4000.00
01490           -3800.00
01491           -3400.00
01492           -3200.00
01493           -2800.00
01494           -2400.00
01495           -2000.00
01496           -1800.00
01497           -1600.00
01498           -1000.00
01499            -800.00
01500            -400.00
01501            -200.00
01502             200.00
01503             600.00
01504             800.00
01505            1200.00
01506            1400.00
01507            1800.00
01508            2200.00
01509            2400.00
01510            2600.00
01511            3000.00
01512            3200.00
01513            3600.00
01514            4000.00
01515            4400.00
01516            4600.00
01517            4800.00
01518            5200.00
01519            5600.00
01520            6000.00
01521            6400.00
01522            6600.00
01523            6800.00
01524            7200.00
01525            7400.00
01526            7800.00
01527            8200.00
01528            8400.00
01529            8800.00
01530            9000.00
01531            9200.00
01532            9600.00
01533           10000.00
01534           10200.00
01535           10400.00
01536           10600.00
01537           10800.00
01538           11200.00
01539           11400.00
01540           11800.00
01541           12000.00
01542           12200.00
01543           12600.00
01544           12800.00
01545           13000.00
01546           13200.00
01547           13400.00
01548           13800.00
01549           14000.00
01550           14000.00
01551           14400.00
01552           14600.00
01553           14600.00
01554           15000.00
01555           15000.00
01556           15200.00
01557           15400.00
01558           15600.00
01559           15800.00
01560           15800.00
01561           16000.00
01562           16200.00
01563           16200.00
01564           16400.00
01565           16600.00
01566           16600.00
01567           16800.00
01568           16800.00
01569           17200.00
01570           17200.00
01571           17200.00
01572           17200.00
01573           17400.00
01574           17400.00
01575           17600.00
01576           17600.00
01577           17600.00
01578           17600.00
01579           17800.00
01580           17800.00
01581           17800.00
01582           17800.00
01583           17600.00
01584           17800.00
01585           17800.00
01586           17800.00
01587           17600.00
01588           17800.00
01589           17600.00
01590           17600.00
01591           17600.00
01592           17600.00
01593           17600.00
01594           17600.00
01595           17400.00
01596           17400.00
01597           17200.00
01598           17200.00
01599           17200.00
01600           17200.00
01601           17000.00
01602           16800.00
01603           16800.00
01604           16600.00
01605           16600.00
01606           16400.00
01607           16200.00
01608           16000.00
01609           16000.00
01610           15800.00
01611           15600.00
01612           15600.00
01613           15200.00
01614           15000.00
01615           15000.00
01616           14800.00
01617           14400.00
01618           14400.00
01619           14200.00
01620           14000.00
01621           13800.00
01622           13400.00
01623           13400.00
01624           13000.00
01625           12800.00
01626           12600.00
01627           12400.00
01628           12200.00
01629           12000.00
01630           11600.00
01631           11400.00
01632           11000.00
01633           11000.00
01634           10800.00
01635           10400.00
01636           10000.00
01637           10000.00
01638            9600.00
01639            9200.00
01640            9200.00
01641            8600.00
01642            8400.00
01643            8000.00
01644            7800.00
01645            7400.00
01646            7200.00
01647            6800.00
01648            6400.00
01649            6200.00
01650            6000.00
01651            5600.00
01652            5200.00
01653            4800.00
01654            4600.00
01655            4200.00
01656            3800.00
01657            3600.00
01658            3200.00
01659            3000.00
01660            2600.00
01661            2400.00
01662            2000.00
01663            1600.00
01664            1200.00
01665            1000.00
01666             600.00
01667             400.00
01668               0.00
01669            -400.00
01670            -600.00
01671           -1000.00
01672           -1200.00
01673           -1600.00
01674           -1800.00
01675           -2000.00
01676           -2400.00
01677           -2800.00
01678           -3200.00
01679           -3800.00
01680           -4200.00
01681           -4400.00
01682           -4400.00
01683           -4400.00
01684           -5200.00
01685           -5400.00
01686           -5600.00
01687           -6200.00
01688           -6400.00
01689           -6400.00
01690           -7200.00
01691           -7200.00
01692           -7600.00
01693           -8000.00
01694           -8200.00
01695           -8400.00
01696           -9000.00
01697           -9000.00
01698           -9400.00
01699           -9800.00
01700          -10000.00
01701          -10200.00
01702          -10400.00
01703          -10600.00
01704          -11000.00
01705          -11200.00
01706          -11400.00
01707          -12000.00
01708          -12000.00
01709          -12400.00
01710          -12600.00
01711          -12800.00
01712          -13000.00
01713          -13200.00
01714          -13200.00
01715          -13600.00
01716          -13800.00
01717          -14000.00
01718          -14400.00
01719          -14400.00
01720          -14800.00
01721          -14800.00
01722          -15000.00
01723          -15200.00
01724          -15400.00
01725          -15600.00
01726          -16000.00
01727          -16000.00
01728          -16000.00
01729          -16200.00
01730          -16400.00
01731          -16400.00
01732          -16600.00
01733          -16600.00
01734          -16800.00
01735          -16800.00
01736          -17000.00
01737          -17000.00
01738          -17200.00
01739          -17200.00
01740          -17200.00
01741          -17200.00
01742          -17600.00
01743          -17400.00
01744          -17400.00
01745          -17400.00
01746          -17600.00
01747          -17600.00
01748          -17600.00
01749          -17800.00
01750          -17400.00
01751          -17600.00
01752          -17600.00
01753          -17600.00
01754          -17600.00
01755          -17600.00
01756          -17400.00
01757          -17400.00
01758          -17400.00
01759          -17400.00
01760          -17400.00
01761          -17200.00
01762          -17200.00
01763          -17000.00
01764          -17200.00
01765          -17000.00
01766          -17000.00
01767          -16800.00
01768          -16800.00
01769          -16800.00
01770          -16400.00
01771          -16400.00
01772          -16200.00
01773          -16000.00
01774          -16000.00
01775          -15800.00
01776          -15600.00
01777          -15400.00
01778          -15200.00
01779          -15200.00
01780          -15200.00
01781          -14800.00
01782          -14600.00
01783          -14400.00
01784          -14200.00
01785          -14000.00
01786          -13800.00
01787          -13600.00
01788          -13400.00
01789          -13000.00
01790          -13000.00
01791          -12600.00
01792          -12600.00
01793          -12200.00
01794          -12000.00
01795          -11600.00
01796          -11400.00
01797          -11000.00
01798          -10800.00
01799          -10600.00
01800          -10400.00
01801          -10000.00
01802           -9800.00
01803           -9600.00
01804           -9400.00
01805           -9000.00
01806           -8800.00
01807           -8400.00
01808           -8200.00
01809           -8000.00
01810           -7600.00
01811           -7200.00
01812           -6800.00
01813           -6600.00
01814           -6400.00
01815           -6000.00
01816           -5600.00
01817           -5400.00
01818           -5000.00
01819           -4600.00
01820           -4200.00
01821           -4200.00
01822           -3600.00
01823           -3400.00
01824           -3200.00
01825           -2800.00
01826           -2400.00
01827           -2200.00
01828           -1800.00
01829           -1400.00
01830           -1200.00
01831            -800.00
01832            -400.00
01833               0.00
01834             200.00
01835             600.00
01836             800.00
01837            1200.00
01838            1400.00
01839            1800.00
01840            2000.00
01841            2400.00
01842            2600.00
01843            3000.00
01844            3400.00
01845            3800.00
01846            4000.00
01847            4400.00
01848            4600.00
01849            5000.00
01850            5400.00
01851            5600.00
01852            6000.00
01853            6200.00
01854            6600.00
01855            6800.00
01856            7200.00
01857            7200.00
01858            7800.00
01859            8200.00
01860            8400.00
01861            8600.00
01862            9000.00
01863            9200.00
01864            9600.00
01865            9800.00
01866           10000.00
01867           10400.00
01868           10800.00
01869           10800.00
01870           11200.00
01871           11200.00
01872           11600.00
01873           12000.00
01874           12200.00
01875           12400.00
01876           12600.00
01877           12800.00
01878           13200.00
01879           13400.00
01880           13600.00
01881           14000.00
01882           14000.00
01883           14200.00
01884           14600.00
01885           14800.00
01886           14800.00
01887           15000.00
01888           15200.00
01889           15400.00
01890           15600.00
01891           15600.00
01892           16000.00
01893           16000.00
01894           16200.00
01895           16400.00
01896           16400.00
01897           16600.00
01898           16600.00
01899           16800.00
01900           16800.00
01901           17000.00
01902           17200.00
01903           17200.00
01904           17200.00
01905           17400.00
01906           17400.00
01907           17600.00
01908           17600.00
01909           17600.00
01910           17600.00
01911           17600.00
01912           17600.00
01913           17800.00
01914           17800.00
01915           18000.00
01916           17800.00
01917           17600.00
01918           17600.00
01919           17600.00
01920           17800.00
01921           17600.00
01922           17600.00
01923           17600.00
01924           17600.00
01925           17600.00
01926           17600.00
01927           17400.00
01928           17400.00
01929           17200.00
01930           17200.00
01931           17200.00
01932           17200.00
01933           17000.00
01934           16800.00
01935           16800.00
01936           16600.00
01937           16400.00
01938           16400.00
01939           16400.00
01940           16000.00
01941           16000.00
01942           15800.00
01943           15600.00
01944           15600.00
01945           15200.00
01946           15200.00
01947           15000.00
01948           14800.00
01949           14800.00
01950           14400.00
01951           14200.00
01952           14000.00
01953           13800.00
01954           13400.00
01955           13400.00
01956           13200.00
01957           12800.00
01958           12600.00
01959           12400.00
01960           12000.00
01961           12000.00
01962           11600.00
01963           11400.00
01964           11000.00
01965           10800.00
01966           10600.00
01967           10200.00
01968           10000.00
01969           10000.00
01970            9400.00
01971            9200.00
01972            8800.00
01973            8600.00
01974            8400.00
01975            8000.00
01976            7800.00
01977            7400.00
01978            7200.00
01979            6800.00
01980            6400.00
01981            6000.00
01982            6000.00
01983            5600.00
01984            5400.00
01985            4800.00
01986            4400.00
01987            4200.00
01988            3800.00
01989            3600.00
01990            3200.00
01991            2800.00
01992            2800.00
01993            2400.00
01994            2000.00
01995            1600.00
01996            1400.00
01997            1000.00
01998             600.00
01999             200.00
02000               0.00
02001            -200.00
02002            -800.00
02003           -1000.00
02004           -1200.00
02005           -1600.00
02006           -1800.00
02007           -2200.00
02008           -2400.00
02009           -2800.00
02010           -3200.00
02011           -3600.00
02012           -4200.00
02013           -4400.00
02014           -4400.00
02015           -4400.00
02016           -5200.00
02017           -5400.00
02018           -5600.00
02019           -6000.00
02020           -6400.00
02021           -6400.00
02022           -7000.00
02023           -7200.00
02024           -7400.00
02025           -8000.00
02026           -8200.00
02027           -8400.00
02028           -9000.00
02029           -9000.00
02030           -9600.00
02031           -9600.00
02032          -10000.00
02033          -10400.00
02034          -10400.00
02035          -10600.00
02036          -11200.00
02037          -11000.00
02038          -11400.00
02039          -11800.00
02040          -12000.00
02041          -12400.00
02042          -12600.00
02043          -12800.00
02044          -13000.00
02045          -13200.00
02046          -13600.00
02047          -13600.00
02048          -13800.00
02049          -14000.00
02050          -14400.00
02051          -14600.00
02052          -14600.00
02053          -14800.00
02054          -15000.00
02055          -15200.00
02056          -15400.00
02057          -15600.00
02058          -15600.00
02059          -16000.00
02060          -16000.00
02061          -16200.00
02062          -16000.00
02063          -16400.00
02064          -16400.00
02065          -16800.00
02066          -16800.00
02067          -17000.00
02068          -17000.00
02069          -17000.00
02070          -17000.00
02071          -17200.00
02072          -17200.00
02073          -17400.00
02074          -17200.00
02075          -17400.00
02076          -17600.00
02077          -17600.00
02078          -17600.00
02079          -17400.00
02080          -17600.00
02081          -17600.00
02082          -17400.00
02083          -17600.00
02084          -17600.00
02085          -17400.00
02086          -17600.00
02087          -17600.00
02088          -17400.00
02089          -17400.00
02090          -17600.00
02091          -17200.00
02092          -17200.00
02093          -17200.00
02094          -17200.00
02095          -17000.00
02096          -17000.00
02097          -17000.00
02098          -17000.00
02099          -16800.00
02100          -16600.00
02101          -16800.00
02102          -16400.00
02103          -16400.00
02104          -16200.00
02105          -16200.00
02106          -16000.00
02107          -15600.00
02108          -15600.00
02109          -15600.00
02110          -15400.00
02111          -15000.00
02112          -14800.00
02113          -14800.00
02114          -14600.00
02115          -14400.00
02116          -14000.00
02117          -14000.00
02118          -13800.00
02119          -13600.00
02120          -13200.00
02121          -13000.00
02122          -12800.00
02123          -12800.00
02124          -12400.00
02125          -12200.00
02126          -12000.00
02127          -11600.00
02128          -11400.00
02129          -11200.00
02130          -11000.00
02131          -10600.00
02132          -10400.00
02133          -10000.00
02134           -9800.00
02135           -9600.00
02136           -9400.00
02137           -9000.00
02138           -8800.00
02139           -8400.00
02140           -8200.00
02141           -7800.00
02142           -7600.00
02143           -7200.00
02144           -6800.00
02145           -6800.00
02146           -6400.00
02147           -6000.00
02148           -5600.00
02149           -5400.00
02150           -5000.00
02151           -4600.00
02152           -4400.00
02153           -4000.00
02154           -4000.00
02155           -3400.00
02156           -3000.00
02157           -2800.00
02158           -2600.00
02159           -2000.00
02160           -1800.00
02161           -1400.00
02162           -1000.00
02163            -800.00
02164            -400.00
02165               0.00
02166             400.00
02167             600.00
02168             800.00
02169            1200.00
02170            1400.00
02171            1800.00
02172            2200.00
02173            2400.00
02174            2600.00
02175            3000.00
02176            3200.00
02177            3800.00
02178            4000.00
02179            4600.00
02180            4400.00
02181            5200.00
02182            5200.00
02183            5400.00
02184            6000.00
02185            6200.00
02186            6400.00
02187            6800.00
02188            7200.00
02189            7600.00
02190            7800.00
02191            8000.00
02192            8400.00
02193            8600.00
02194            9000.00
02195            9200.00
02196            9600.00
02197           10000.00
02198           10000.00
02199           10400.00
02200           10400.00
02201           10800.00
02202           11200.00
02203           11400.00
02204           11800.00
02205           12000.00
02206           12200.00
02207           12600.00
02208           12800.00
02209           12800.00
02210           13200.00
02211           13400.00
02212           13600.00
02213           13800.00
02214           14000.00
02215           14200.00
02216           14400.00
02217           14600.00
02218           14800.00
02219           15000.00
02220           15200.00
02221           15400.00
02222           15600.00
02223           15800.00
02224           15800.00
02225           16000.00
02226           16200.00
02227           16400.00
02228           16400.00
02229           16600.00
02230           16600.00
02231           16800.00
02232           17000.00
02233           17000.00
02234           17200.00
02235           17200.00
02236           17200.00
02237           17400.00
02238           17400.00
02239           17400.00
02240           17600.00
02241           17600.00
02242           17600.00
02243           17600.00
02244           17600.00
02245           18000.00
02246           17600.00
02247           17800.00
02248           18000.00
02249           17800.00
02250           17800.00
02251           17800.00
02252           17600.00
02253           18000.00
02254           17600.00
02255           17600.00
02256           17600.00
02257           17400.00
02258           17600.00
02259           17400.00
02260           17200.00
02261           17200.00
02262           17200.00
02263           17200.00
02264           17000.00
02265           16800.00
02266           16800.00
02267           16800.00
02268           16600.00
02269           16600.00
02270           16400.00
02271           16200.00
02272           16000.00
02273           16000.00
02274           15800.00
02275           15600.00
02276           15600.00
02277           15400.00
02278           15200.00
02279           15000.00
02280           14800.00
02281           14600.00
02282           14400.00
02283           14200.00
02284           14000.00
02285           13800.00
02286           13400.00
02287           13200.00
02288           13200.00
02289           12800.00
02290           12600.00
02291           12400.00
02292           12000.00
02293           11800.00
02294           11600.00
02295           11200.00
02296           11000.00
02297           10800.00
02298           10600.00
02299           10200.00
02300           10200.00
02301            9800.00
02302            9400.00
02303            9200.00
02304            8800.00
02305            8800.00
02306            8400.00
02307            8000.00
02308            7800.00
02309            7400.00
02310            7200.00
02311            6800.00
02312            6600.00
02313            6200.00
02314            6000.00
02315            5600.00
02316            5200.00
02317            4800.00
02318            4600.00
02319            4400.00
02320            4000.00
02321            3600.00
02322            3200.00
02323            3000.00
02324            2600.00
02325            2200.00
02326            2000.00
02327            1600.00
02328            1200.00
02329             800.00
02330             600.00
02331             400.00
02332               0.00
02333            -200.00
02334            -600.00
02335           -1000.00
02336           -1400.00
02337           -1600.00
02338           -2000.00
02339           -2200.00
02340           -2400.00
02341           -2800.00
02342           -3200.00
02343           -3600.00
02344           -4200.00
02345           -4400.00
02346           -4400.00
02347           -4400.00
02348           -5000.00
02349           -5400.00
02350           -5600.00
02351           -6000.00
02352           -6400.00
02353           -6400.00
02354           -7200.00
02355           -7200.00
02356           -7600.00
02357           -8000.00
02358           -8200.00
02359           -8400.00
02360           -9000.00
02361           -9000.00
02362           -9400.00
02363           -9800.00
02364           -9800.00
02365          -10200.00
02366          -10400.00
02367          -10600.00
02368          -11200.00
02369          -11200.00
02370          -11400.00
02371          -12000.00
02372          -12000.00
02373          -12400.00
02374          -12400.00
02375          -12800.00
02376          -13000.00
02377          -13200.00
02378          -13600.00
02379          -13600.00
02380          -13800.00
02381          -14200.00
02382          -14400.00
02383          -14600.00
02384          -14800.00
02385          -15000.00
02386          -15200.00
02387          -15400.00
02388          -15400.00
02389          -15600.00
02390          -15600.00
02391          -16000.00
02392          -16000.00
02393          -16200.00
02394          -16200.00
02395          -16400.00
02396          -16400.00
02397          -16800.00
02398          -16800.00
02399          -17000.00
02400          -17000.00
02401          -17000.00
02402          -17000.00
02403          -17200.00
02404          -17400.00
02405          -17200.00
02406          -17400.00
02407          -17600.00
02408          -17600.00
02409          -17600.00
02410          -17600.00
02411          -17800.00
02412          -17600.00
02413          -17600.00
02414          -17600.00
02415          -17400.00
02416          -17800.00
02417          -17600.00
02418          -17400.00
02419          -17600.00
02420          -17600.00
02421          -17400.00
02422          -17400.00
02423          -17200.00
02424          -17200.00
02425          -17200.00
02426          -17200.00
02427          -17200.00
02428          -17000.00
02429          -17000.00
02430          -16800.00
02431          -16800.00
02432          -16800.00
02433          -16600.00
02434          -16400.00
02435          -16400.00
02436          -16200.00
02437          -16000.00
02438          -16000.00
02439          -15600.00
02440          -15600.00
02441          -15400.00
02442          -15200.00
02443          -15200.00
02444          -15000.00
02445          -14800.00
02446          -14600.00
02447          -14400.00
02448          -14200.00
02449          -13800.00
02450          -13800.00
02451          -13600.00
02452          -13400.00
02453          -13000.00
02454          -13000.00
02455          -12600.00
02456          -12400.00
02457          -12200.00
02458          -12000.00
02459          -11800.00
02460          -11400.00
02461          -11200.00
02462          -10800.00
02463          -10800.00
02464          -10400.00
02465          -10000.00
02466           -9800.00
02467           -9600.00
02468           -9400.00
02469           -9000.00
02470           -8800.00
02471           -8600.00
02472           -8200.00
02473           -7800.00
02474           -7600.00
02475           -7200.00
02476           -6800.00
02477           -6600.00
02478           -6400.00
02479           -6000.00
02480           -5600.00
02481           -5200.00
02482           -5000.00
02483           -4600.00
02484           -4400.00
02485           -4000.00
02486           -3600.00
02487           -3400.00
02488           -3200.00
02489           -2600.00
02490           -2400.00
02491           -2000.00
02492           -1800.00
02493           -1400.00
02494           -1200.00
02495            -800.00
02496            -400.00
02497            -200.00
02498             200.00
02499             600.00
02500             800.00
02501            1000.00
02502            1600.00
02503            1800.00
02504            2000.00
02505            2200.00
02506            2800.00
02507            3000.00
02508            3400.00
02509            3800.00
02510            4200.00
02511            4400.00
02512            4600.00
02513            4800.00
02514            5400.00
02515            5600.00
02516            5800.00
02517            6400.00
02518            6600.00
02519            6600.00
02520            7200.00
02521            7400.00
02522            7800.00
02523            8200.00
02524            8400.00
02525            8800.00
02526            9000.00
02527            9200.00
02528            9600.00
02529            9600.00
02530           10000.00
02531           10400.00
02532           10400.00
02533           11000.00
02534           11200.00
02535           11200.00
02536           11800.00
02537           12000.00
02538           12200.00
02539           12600.00
02540           12600.00
02541           12800.00
02542           13200.00
02543           13400.00
02544           13600.00
02545           14000.00
02546           14200.00
02547           14400.00
02548           14600.00
02549           14800.00
02550           14800.00
02551           15000.00
02552           15200.00
02553           15400.00
02554           15600.00
02555           15800.00
02556           15800.00
02557           16000.00
02558           16200.00
02559           16400.00
02560           16400.00
02561           16600.00
02562           16600.00
02563           16800.00
02564           16800.00
02565           17000.00
02566           17200.00
02567           17200.00
02568           17200.00
02569           17600.00
02570           17400.00
02571           17400.00
02572           17600.00
02573           17600.00
02574           17600.00
02575           17600.00
02576           17800.00
02577           17600.00
02578           18000.00
02579           17800.00
02580           17600.00
02581           17800.00
02582           17600.00
02583           18000.00
02584           17800.00
02585           17800.00
02586           17600.00
02587           17600.00
02588           17600.00
02589           17600.00
02590           17400.00
02591           17400.00
02592           17400.00
02593           17200.00
02594           17200.00
02595           17000.00
02596           17200.00
02597           16800.00
02598           16800.00
02599           16800.00
02600           16600.00
02601           16400.00
02602           16400.00
02603           16200.00
02604           16000.00
02605           16000.00
02606           16000.00
02607           15600.00
02608           15600.00
02609           15200.00
02610           15200.00
02611           14800.00
02612           14800.00
02613           14600.00
02614           14400.00
02615           14200.00
02616           14000.00
02617           13800.00
02618           13400.00
02619           13400.00
02620           13200.00
02621           12800.00
02622           12600.00
02623           12400.00
02624           12200.00
02625           12000.00
02626           11600.00
02627           11400.00
02628           11200.00
02629           10800.00
02630           10600.00
02631           10400.00
02632           10000.00
02633            9600.00
02634            9400.00
02635            9200.00
02636            8800.00
02637            8600.00
02638            8400.00
02639            8000.00
02640            7800.00
02641            7400.00
02642            7000.00
02643            7000.00
02644            6400.00
02645            6200.00
02646            6000.00
02647            5600.00
02648            5400.00
02649            4800.00
02650            4600.00
02651            4200.00
02652            4000.00
02653            3400.00
02654            3200.00
02655            3000.00
02656            2600.00
02657            2400.00
02658            2000.00
02659            1600.00
02660            1200.00
02661            1000.00
02662             600.00
02663             200.00
02664               0.00
02665            -400.00
02666            -600.00
02667           -1000.00
02668           -1400.00
02669           -1600.00
02670           -2000.00
02671           -2000.00
02672           -2400.00
02673           -2600.00
02674           -3200.00
02675           -3800.00
02676           -4200.00
02677           -4400.00
02678           -4200.00
02679           -4600.00
02680           -5200.00
02681           -5600.00
02682           -5600.00
02683           -6000.00
02684           -6400.00
02685           -6600.00
02686           -7000.00
02687           -7200.00
02688           -7600.00
02689           -8000.00
02690           -8200.00
02691           -8400.00
02692           -9000.00
02693           -9000.00
02694           -9200.00
02695           -9800.00
02696           -9800.00
02697          -10200.00
02698          -10400.00
02699          -10600.00
02700          -11000.00
02701          -11200.00
02702          -11400.00
02703          -12000.00
02704          -12200.00
02705          -12400.00
02706          -12400.00
02707          -12800.00
02708          -13000.00
02709          -13200.00
02710          -13400.00
02711          -13800.00
02712          -13800.00
02713          -14200.00
02714          -14400.00
02715          -14400.00
02716          -14600.00
02717          -14800.00
02718          -15000.00
02719          -15200.00
02720          -15400.00
02721          -15400.00
02722          -15600.00
02723          -16000.00
02724          -16000.00
02725          -16200.00
02726          -16200.00
02727          -16400.00
02728          -16600.00
02729          -16800.00
02730          -16800.00
02731          -16800.00
02732          -17000.00
02733          -17000.00
02734          -17200.00
02735          -17200.00
02736          -17200.00
02737          -17200.00
02738          -17600.00
02739          -17400.00
02740          -17400.00
02741          -17600.00
02742          -17600.00
02743          -17600.00
02744          -17400.00
02745          -17400.00
02746          -17600.00
02747          -17600.00
02748          -17400.00
02749          -17600.00
02750          -17600.00
02751          -17600.00
02752          -17400.00
02753          -17400.00
02754          -17600.00
02755          -17200.00
02756          -17400.00
02757          -17200.00
02758          -17000.00
02759          -17200.00
02760          -17200.00
02761          -17000.00
02762          -16800.00
02763          -16800.00
02764          -16800.00
02765          -16400.00
02766          -16400.00
02767          -16400.00
02768          -16200.00
02769          -16000.00
02770          -16000.00
02771          -15600.00
02772          -15600.00
02773          -15400.00
02774          -15200.00
02775          -15200.00
02776          -15000.00
02777          -14800.00
02778          -14600.00
02779          -14400.00
02780          -14400.00
02781          -14000.00
02782          -13800.00
02783          -13600.00
02784          -13400.00
02785          -13200.00
02786          -13000.00
02787          -12800.00
02788          -12400.00
02789          -12200.00
02790          -12000.00
02791          -11800.00
02792          -11400.00
02793          -11200.00
02794          -11000.00
02795          -10800.00
02796          -10400.00
02797          -10400.00
02798          -10000.00
02799           -9600.00
02800           -9200.00
02801           -8800.00
02802           -8800.00
02803           -8400.00
02804           -8200.00
02805           -7800.00
02806           -7600.00
02807           -7200.00
02808           -6800.00
02809           -6600.00
02810           -6400.00
02811           -6000.00
02812           -5800.00
02813           -5400.00
02814           -5000.00
02815           -4600.00
02816           -4400.00
02817           -4000.00
02818           -3600.00
02819           -3400.00
02820           -3200.00
02821           -2800.00
02822           -2400.00
02823           -2200.00
02824           -1800.00
02825           -1400.00
02826           -1000.00
02827            -800.00
02828            -400.00
02829            -200.00
02830               0.00
02831             400.00
02832             800.00
02833            1200.00
02834            1400.00
02835            1800.00
02836            2000.00
02837            2400.00
02838            2600.00
02839            3000.00
02840            3200.00
02841            3800.00
02842            4000.00
02843            4400.00
02844            4600.00
02845            4800.00
02846            5200.00
02847            5400.00
02848            5800.00
02849            6200.00
02850            6600.00
02851            6800.00
02852            7200.00
02853            7400.00
02854            7800.00
02855            8200.00
02856            8400.00
02857            8800.00
02858            9000.00
02859            9200.00
02860            9600.00
02861            9800.00
02862           10000.00
02863           10400.00
02864           10600.00
02865           10800.00
02866           11200.00
02867           11600.00
02868           11800.00
02869           12000.00
02870           12400.00
02871           12400.00
02872           12600.00
02873           12800.00
02874           13200.00
02875           13400.00
02876           13600.00
02877           14000.00
02878           14000.00
02879           14200.00
02880           14600.00
02881           14600.00
02882           14800.00
02883           15000.00
02884           15200.00
02885           15400.00
02886           15600.00
02887           15600.00
02888           15800.00
02889           16000.00
02890           16200.00
02891           16400.00
02892           16400.00
02893           16600.00
02894           16600.00
02895           16600.00
02896           16800.00
02897           16800.00
02898           17200.00
02899           17200.00
02900           17200.00
02901           17200.00
02902           17400.00
02903           17400.00
02904           17600.00
02905           17600.00
02906           17600.00
02907           17600.00
02908           17800.00
02909           17600.00
02910           17800.00
02911           18000.00
02912           17600.00
02913           17600.00
02914           17600.00
02915           17800.00
02916           17800.00
02917           17800.00
02918           17800.00
02919           17600.00
02920           17600.00
02921           17600.00
02922           17400.00
02923           17600.00
02924           17400.00
02925           17400.00
02926           17200.00
02927           17200.00
02928           17200.00
02929           16800.00
02930           16800.00
02931           16800.00
02932           16600.00
02933           16400.00
02934           16400.00
02935           16200.00
02936           16000.00
02937           16000.00
02938           15800.00
02939           15800.00
02940           15600.00
02941           15200.00
02942           15200.00
02943           15000.00
02944           14800.00
02945           14400.00
02946           14400.00
02947           14200.00
02948           14000.00
02949           13800.00
02950           13400.00
02951           13400.00
02952           13200.00
02953           12800.00
02954           12600.00
02955           12400.00
02956           12200.00
02957           11800.00
02958           11600.00
02959           11400.00
02960           11200.00
02961           10800.00
02962           10600.00
02963           10400.00
02964           10000.00
02965            9800.00
02966            9400.00
02967            9200.00
02968            8800.00
02969            8600.00
02970            8400.00
02971            8000.00
02972            7800.00
02973            7600.00
02974            7200.00
02975            6800.00
02976            6400.00
02977            6200.00
02978            6000.00
02979            5600.00
02980            5200.00
02981            4600.00
02982            4600.00
02983            4000.00
02984            4000.00
02985            3600.00
02986            3200.00
02987            3000.00
02988            2800.00
02989            2400.00
02990            2000.00
02991            1800.00
02992            1400.00
02993             800.00
02994             600.00
02995             400.00
02996               0.00
02997            -200.00
02998            -600.00
02999           -1000.00
03000           -1200.00
03001           -1600.00
03002           -1800.00
03003           -2200.00
03004           -2400.00
03005           -2800.00
03006           -3200.00
03007           -3600.00
03008           -4000.00
03009           -4200.00
03010           -4400.00
03011           -4600.00
03012           -5000.00
03013           -5600.00
03014           -5600.00
03015           -6000.00
03016           -6400.00
03017           -6800.00
03018           -7000.00
03019           -7200.00
03020           -7600.00
03021           -8200.00
03022           -8200.00
03023           -8400.00
03024           -9000.00
03025           -9000.00
03026           -9400.00
03027           -9800.00
03028           -9800.00
03029          -10000.00
03030          -10400.00
03031          -10800.00
03032          -11200.00
03033          -11200.00
03034          -11400.00
03035          -12000.00
03036          -12000.00
03037          -12400.00
03038          -12600.00
03039          -12800.00
03040          -13000.00
03041          -13200.00
03042          -13400.00
03043          -13600.00
03044          -13800.00
03045          -14000.00
03046          -14400.00
03047          -14600.00
03048          -14600.00
03049          -14800.00
03050          -15200.00
03051          -15200.00
03052          -15400.00
03053          -15600.00
03054          -15600.00
03055          -15600.00
03056          -16000.00
03057          -16000.00
03058          -16200.00
03059          -16400.00
03060          -16600.00
03061          -16800.00
03062          -16800.00
03063          -17000.00
03064          -17000.00
03065          -17000.00
03066          -17000.00
03067          -17200.00
03068          -17200.00
03069          -17400.00
03070          -17200.00
03071          -17600.00
03072          -17400.00
03073          -17600.00
03074          -17400.00
03075          -17600.00
03076          -17400.00
03077          -17600.00
03078          -17800.00
03079          -17600.00
03080          -17600.00
03081          -17400.00
03082          -17600.00
03083          -17400.00
03084          -17600.00
03085          -17400.00
03086          -17200.00
03087          -17400.00
03088          -17200.00
03089          -17200.00
03090          -17200.00
03091          -17000.00
03092          -17000.00
03093          -17000.00
03094          -17000.00
03095          -16800.00
03096          -16600.00
03097          -16400.00
03098          -16400.00
03099          -16400.00
03100          -16200.00
03101          -16000.00
03102          -16000.00
03103          -15600.00
03104          -15600.00
03105          -15600.00
03106          -15200.00
03107          -15200.00
03108          -15000.00
03109          -14800.00
03110          -14600.00
03111          -14400.00
03112          -14200.00
03113          -14000.00
03114          -13800.00
03115          -13600.00
03116          -13200.00
03117          -13000.00
03118          -13000.00
03119          -12800.00
03120          -12400.00
03121          -12000.00
03122          -12000.00
03123          -11600.00
03124          -11400.00
03125          -11200.00
03126          -10800.00
03127          -10800.00
03128          -10400.00
03129          -10200.00
03130           -9800.00
03131           -9600.00
03132           -9200.00
03133           -9000.00
03134           -8800.00
03135           -8600.00
03136           -8200.00
03137           -8000.00
03138           -7400.00
03139           -7200.00
03140           -6800.00
03141           -6600.00
03142           -6400.00
03143           -6000.00
03144           -5600.00
03145           -5200.00
03146           -5000.00
03147           -4600.00
03148           -4400.00
03149           -4000.00
03150           -3600.00
03151           -3400.00
03152           -3000.00
03153           -2800.00
03154           -2600.00
03155           -2400.00
03156           -1800.00
03157           -1600.00
03158           -1200.00
03159            -800.00
03160            -400.00
03161            -200.00
03162             200.00
03163             600.00
03164             800.00
03165            1200.00
03166            1400.00
03167            1800.00
03168            2000.00
03169            2200.00
03170            2600.00
03171            3000.00
03172            3200.00
03173            3600.00
03174            4000.00
03175            4400.00
03176            4600.00
03177            4800.00
03178            5200.00
03179            5600.00
03180            6000.00
03181            6200.00
03182            6400.00
03183            6600.00
03184            7200.00
03185            7400.00
03186            7800.00
03187            8000.00
03188            8400.00
03189            8800.00
03190            8800.00
03191            9200.00
03192            9600.00
03193            9800.00
03194           10000.00
03195           10400.00
03196           10400.00
03197           10800.00
03198           11200.00
03199           11200.00
03200           11600.00
03201           12000.00
03202           12000.00
03203           12600.00
03204           12800.00
03205           12800.00
03206           13200.00
03207           13400.00
03208           13800.00
03209           13800.00
03210           14200.00
03211           14400.00
03212           14600.00
03213           14800.00
03214           15000.00
03215           15000.00
03216           15200.00
03217           15400.00
03218           15600.00
03219           15800.00
03220           15800.00
03221           16000.00
03222           16000.00
03223           16400.00
03224           16400.00
03225           16400.00
03226           16600.00
03227           16800.00
03228           17000.00
03229           16800.00
03230           17200.00
03231           17200.00
03232           17200.00
03233           17400.00
03234           17400.00
03235           17400.00
03236           17600.00
03237           17600.00
03238           17600.00
03239           17800.00
03240           17600.00
03241           17800.00
03242           17800.00
03243           17800.00
03244           17600.00
03245           17600.00
03246           17600.00
03247           17600.00
03248           17600.00
03249           17600.00
03250           17600.00
03251           17600.00
03252           17600.00
03253           17400.00
03254           17600.00
03255           17600.00
03256           17200.00
03257           17200.00
03258           17200.00
03259           17200.00
03260           17000.00
03261           17000.00
03262           16800.00
03263           16800.00
03264           16600.00
03265           16600.00
03266           16400.00
03267           16200.00
03268           16200.00
03269           16000.00
03270           16000.00
03271           15600.00
03272           15600.00
03273           15200.00
03274           15200.00
03275           14800.00
03276           14800.00
03277           14400.00
03278           14400.00
03279           14200.00
03280           14000.00
03281           13800.00
03282           13400.00
03283           13400.00
03284           13200.00
03285           12800.00
03286           12600.00
03287           12400.00
03288           12000.00
03289           11800.00
03290           11600.00
03291           11200.00
03292           11000.00
03293           10800.00
03294           10600.00
03295           10400.00
03296           10000.00
03297           10000.00
03298            9400.00
03299            9200.00
03300            8800.00
03301            8600.00
03302            8400.00
03303            8000.00
03304            7600.00
03305            7600.00
03306            7000.00
03307            6800.00
03308            6400.00
03309            6200.00
03310            5800.00
03311            5600.00
03312            5200.00
03313            4800.00
03314            4400.00
03315            4200.00
03316            3800.00
03317            3600.00
03318            3200.00
03319            3000.00
03320            2400.00
03321            2400.00
03322            2000.00
03323            1800.00
03324            1400.00
03325            1000.00
03326             600.00
03327             200.00
03328               0.00
03329            -400.00
03330            -800.00
03331            -800.00
03332           -1400.00
03333           -1600.00
03334           -2000.00
03335           -2000.00
03336           -2400.00
03337           -2800.00
03338           -3200.00
03339           -3800.00
03340           -4200.00
03341           -4200.00
03342           -4200.00
03343           -4400.00
03344           -5200.00
03345           -5600.00
03346           -5600.00
03347           -6000.00
03348           -6400.00
03349           -6600.00
03350           -7000.00
03351           -7200.00
03352           -7400.00
03353           -8200.00
03354           -8200.00
03355           -8400.00
03356           -9000.00
03357           -9000.00
03358           -9200.00
03359           -9800.00
03360           -9800.00
03361          -10200.00
03362          -10600.00
03363          -10600.00
03364          -11200.00
03365          -11200.00
03366          -11600.00
03367          -11800.00
03368          -12000.00
03369          -12400.00
03370          -12600.00
03371          -12800.00
03372          -13000.00
03373          -13200.00
03374          -13600.00
03375          -13800.00
03376          -13800.00
03377          -14200.00
03378          -14400.00
03379          -14600.00
03380          -14600.00
03381          -14800.00
03382          -15200.00
03383          -15200.00
03384          -15400.00
03385          -15600.00
03386          -15600.00
03387          -15800.00
03388          -15800.00
03389          -16200.00
03390          -16200.00
03391          -16400.00
03392          -16400.00
03393          -16600.00
03394          -16800.00
03395          -16800.00
03396          -17000.00
03397          -17000.00
03398          -17200.00
03399          -17200.00
03400          -17200.00
03401          -17200.00
03402          -17400.00
03403          -17400.00
03404          -17600.00
03405          -17200.00
03406          -17800.00
03407          -17400.00
03408          -17600.00
03409          -17600.00
03410          -17400.00
03411          -17600.00
03412          -17600.00
03413          -17600.00
03414          -17400.00
03415          -17600.00
03416          -17400.00
03417          -17400.00
03418          -17400.00
03419          -17200.00
03420          -17200.00
03421          -17200.00
03422          -17200.00
03423          -17000.00
03424          -17200.00
03425          -17000.00
03426          -16800.00
03427          -16800.00
03428          -16800.00
03429          -16400.00
03430          -16400.00
03431          -16200.00
03432          -16200.00
03433          -16200.00
03434          -16000.00
03435          -15800.00
03436          -15600.00
03437          -15400.00
03438          -15400.00
03439          -15200.00
03440          -15000.00
03441          -14800.00
03442          -14400.00
03443          -14400.00
03444          -14000.00
03445          -14000.00
03446          -13800.00
03447          -13600.00
03448          -13400.00
03449          -13000.00
03450          -12800.00
03451          -12400.00
03452          -12400.00
03453          -12200.00
03454          -12000.00
03455          -11600.00
03456          -11400.00
03457          -11200.00
03458          -10800.00
03459          -10600.00
03460          -10400.00
03461          -10200.00
03462          -10000.00
03463           -9600.00
03464           -9400.00
03465           -9000.00
03466           -8800.00
03467           -8400.00
03468           -8000.00
03469           -8000.00
03470           -7600.00
03471           -7400.00
03472           -6800.00
03473           -6600.00
03474           -6200.00
03475           -6000.00
03476           -5600.00
03477           -5200.00
03478           -5000.00
03479           -4600.00
03480           -4400.00
03481           -4000.00
03482           -3600.00
03483           -3200.00
03484           -3200.00
03485           -2800.00
03486           -2400.00
03487           -2000.00
03488           -1800.00
03489           -1400.00
03490           -1000.00
03491            -800.00
03492            -400.00
03493               0.00
03494             200.00
03495             400.00
03496             800.00
03497            1200.00
03498            1400.00
03499            1800.00
03500            2000.00
03501            2400.00
03502            2600.00
03503            2800.00
03504            3200.00
03505            3800.00
03506            4000.00
03507            4400.00
03508            4600.00
03509            4800.00
03510            5400.00
03511            5600.00
03512            6000.00
03513            6400.00
03514            6400.00
03515            6800.00
03516            7200.00
03517            7400.00
03518            7800.00
03519            8200.00
03520            8400.00
03521            8800.00
03522            9000.00
03523            9200.00
03524            9600.00
03525           10000.00
03526           10200.00
03527           10400.00
03528           10600.00
03529           11000.00
03530           11200.00
03531           11200.00
03532           11800.00
03533           12000.00
03534           12400.00
03535           12400.00
03536           12600.00
03537           12800.00
03538           13200.00
03539           13400.00
03540           13600.00
03541           14000.00
03542           14000.00
03543           14200.00
03544           14400.00
03545           14800.00
03546           15000.00
03547           15000.00
03548           15200.00
03549           15400.00
03550           15600.00
03551           15600.00
03552           16000.00
03553           16000.00
03554           16200.00
03555           16400.00
03556           16400.00
03557           16600.00
03558           16800.00
03559           16800.00
03560           16800.00
03561           17000.00
03562           17200.00
03563           17200.00
03564           17200.00
03565           17200.00
03566           17400.00
03567           17600.00
03568           17400.00
03569           17600.00
03570           17600.00
03571           17600.00
03572           17600.00
03573           17600.00
03574           18000.00
03575           17800.00
03576           18000.00
03577           17600.00
03578           17600.00
03579           17800.00
03580           17600.00
03581           17800.00
03582           17600.00
03583           17600.00
03584           17600.00
03585           17600.00
03586           17600.00
03587           17400.00
03588           17400.00
03589           17400.00
03590           17200.00
03591           17200.00
03592           17200.00
03593           16800.00
03594           17000.00
03595           16800.00
03596           16600.00
03597           16400.00
03598           16400.00
03599           16200.00
03600           16000.00
03601           16000.00
03602           16000.00
03603           15600.00
03604           15600.00
03605           15400.00
03606           15000.00
03607           15000.00
03608           14800.00
03609           14600.00
03610           14400.00
03611           14200.00
03612           14000.00
03613           13600.00
03614           13600.00
03615           13400.00
03616           13200.00
03617           12800.00
03618           12600.00
03619           12400.00
03620           12000.00
03621           12000.00
03622           11600.00
03623           11400.00
03624           11000.00
03625           10800.00
03626           10600.00
03627           10400.00
03628           10000.00
03629            9800.00
03630            9400.00
03631            9200.00
03632            8800.00
03633            8600.00
03634            8400.00
03635            8000.00
03636            7800.00
03637            7400.00
03638            7000.00
03639            6800.00
03640            6400.00
03641            6200.00
03642            6000.00
03643            5600.00
03644            5200.00
03645            4800.00
03646            4600.00
03647            4400.00
03648            3800.00
03649            3600.00
03650            3200.00
03651            3000.00
03652            2600.00
03653            2200.00
03654            2000.00
03655            1600.00
03656            1200.00
03657            1000.00
03658             600.00
03659             400.00
03660               0.00
03661            -400.00
03662            -600.00
03663           -1000.00
03664           -1200.00
03665           -1600.00
03666           -1800.00
03667           -2400.00
03668           -2400.00
03669           -2800.00
03670           -3200.00
03671           -3800.00
03672           -4200.00
03673           -4400.00
03674           -4200.00
03675           -4600.00
03676           -5000.00
03677           -5400.00
03678           -5600.00
03679           -6000.00
03680           -6400.00
03681           -6600.00
03682           -6800.00
03683           -7200.00
03684           -7400.00
03685           -8200.00
03686           -8200.00
03687           -8600.00
03688           -8800.00
03689           -9000.00
03690           -9200.00
03691           -9600.00
03692           -9800.00
03693          -10000.00
03694          -10400.00
03695          -10600.00
03696          -11000.00
03697          -11200.00
03698          -11400.00
03699          -11800.00
03700          -12000.00
03701          -12200.00
03702          -12400.00
03703          -12800.00
03704          -13000.00
03705          -13200.00
03706          -13200.00
03707          -13800.00
03708          -13800.00
03709          -14200.00
03710          -14400.00
03711          -14600.00
03712          -14600.00
03713          -14800.00
03714          -15000.00
03715          -15200.00
03716          -15200.00
03717          -15400.00
03718          -15600.00
03719          -15800.00
03720          -16000.00
03721          -16000.00
03722          -16200.00
03723          -16400.00
03724          -16400.00
03725          -16600.00
03726          -16800.00
03727          -16800.00
03728          -16800.00
03729          -17000.00
03730          -17000.00
03731          -17200.00
03732          -17200.00
03733          -17400.00
03734          -17200.00
03735          -17400.00
03736          -17600.00
03737          -17400.00
03738          -17400.00
03739          -17600.00
03740          -17400.00
03741          -17600.00
03742          -17400.00
03743          -17800.00
03744          -17400.00
03745          -17600.00
03746          -17400.00
03747          -17400.00
03748          -17400.00
03749          -17400.00
03750          -17200.00
03751          -17200.00
03752          -17200.00
03753          -17200.00
03754          -17200.00
03755          -17000.00
03756          -17000.00
03757          -17000.00
03758          -16800.00
03759          -16800.00
03760          -16800.00
03761          -16400.00
03762          -16400.00
03763          -16400.00
03764          -16200.00
03765          -16000.00
03766          -15800.00
03767          -15800.00
03768          -15600.00
03769          -15400.00
03770          -15200.00
03771          -15000.00
03772          -15000.00
03773          -14600.00
03774          -14600.00
03775          -14400.00
03776          -14000.00
03777          -13800.00
03778          -13600.00
03779          -13600.00
03780          -13200.00
03781          -13000.00
03782          -13000.00
03783          -12600.00
03784          -12400.00
03785          -12200.00
03786          -11800.00
03787          -12000.00
03788          -11400.00
03789          -11200.00
03790          -10800.00
03791          -10800.00
03792          -10400.00
03793          -10000.00
03794           -9800.00
03795           -9600.00
03796           -9200.00
03797           -9000.00
03798           -8800.00
03799           -8400.00
03800           -8200.00
03801           -7800.00
03802           -7400.00
03803           -7200.00
03804           -6800.00
03805           -6600.00
03806           -6200.00
03807           -6000.00
03808           -5600.00
03809           -5200.00
03810           -5000.00
03811           -4600.00
03812           -4400.00
03813           -4000.00
03814           -3600.00
03815           -3400.00
03816           -3000.00
03817           -2800.00
03818           -2400.00
03819           -2200.00
03820           -1800.00
03821           -1600.00
03822           -1000.00
03823            -800.00
03824            -400.00
03825            -200.00
03826             200.00
03827             600.00
03828             800.00
03829            1200.00
03830            1400.00
03831            1800.00
03832            2000.00
03833            2400.00
03834            2800.00
03835            3000.00
03836            3200.00
03837            3800.00
03838            4000.00
03839            4600.00
03840            4600.00
03841            5000.00
03842            5400.00
03843            5600.00
03844            5800.00
03845            6200.00
03846            6400.00
03847            6800.00
03848            7200.00
03849            7600.00
03850            7800.00
03851            8200.00
03852            8400.00
03853            8600.00
03854            9000.00
03855            9000.00
03856            9400.00
03857            9600.00
03858           10200.00
03859           10400.00
03860           10400.00
03861           11000.00
03862           11200.00
03863           11200.00
03864           11600.00
03865           12000.00
03866           12200.00
03867           12400.00
03868           12600.00
03869           12800.00
03870           13200.00
03871           13400.00
03872           13600.00
03873           14000.00
03874           14000.00
03875           14200.00
03876           14600.00
03877           14600.00
03878           14800.00
03879           15000.00
03880           15200.00
03881           15400.00
03882           15600.00
03883           15800.00
03884           16000.00
03885           16000.00
03886           16200.00
03887           16200.00
03888           16400.00
03889           16400.00
03890           16600.00
03891           16800.00
03892           16800.00
03893           16800.00
03894           17000.00
03895           17200.00
03896           17400.00
03897           17400.00
03898           17400.00
03899           17600.00
03900           17600.00
03901           17600.00
03902           17600.00
03903           17600.00
03904           17600.00
03905           18000.00
03906           17800.00
03907           17800.00
03908           17800.00
03909           17800.00
03910           18000.00
03911           17800.00
03912           17800.00
03913           17600.00
03914           17600.00
03915           17600.00
03916           17600.00
03917           17600.00
03918           17600.00
03919           17400.00
03920           17400.00
03921           17200.00
03922           17200.00
03923           17200.00
03924           17200.00
03925           16800.00
03926           16800.00
03927           16800.00
03928           16800.00
03929           16600.00
03930           16400.00
03931           16400.00
03932           16000.00
03933           16000.00
03934           15800.00
03935           15800.00
03936           15600.00
03937           15200.00
03938           15200.00
03939           15000.00
03940           14800.00
03941           14400.00
03942           14400.00
03943           14200.00
03944           14000.00
03945           13600.00
03946           13400.00
03947           13200.00
03948           13000.00
03949           12800.00
03950           12600.00
03951           12400.00
03952           12200.00
03953           11800.00
03954           11600.00
03955           11400.00
03956           11000.00
03957           10800.00
03958           10600.00
03959           10200.00
03960           10000.00
03961            9600.00
03962            9400.00
03963            9200.00
03964            9200.00
03965            8800.00
03966            8400.00
03967            8000.00
03968            7800.00
03969            7400.00
03970            7200.00
03971            6800.00
03972            6400.00
03973            6200.00
03974            6000.00
03975            5600.00
03976            5400.00
03977            4800.00
03978            4600.00
03979            4400.00
03980            3800.00
03981            3800.00
03982            3200.00
03983            3000.00
03984            2600.00
03985            2400.00
03986            2000.00
03987            1600.00
03988            1400.00
03989            1000.00
03990             600.00
03991             400.00
03992               0.00
03993            -200.00
03994            -600.00
03995            -800.00
03996           -1200.00
03997           -1600.00
03998           -1800.00
03999           -2200.00
04000           -2400.00
04001           -2600.00
04002           -3200.00
04003           -3800.00
04004           -4200.00
04005           -4400.00
04006           -4400.00
04007           -4600.00
04008           -5200.00
04009           -5400.00
04010           -5600.00
04011           -6000.00
04012           -6400.00
04013           -6400.00
04014           -7200.00
04015           -7200.00
04016           -7400.00
04017           -8000.00
04018           -8200.00
04019           -8400.00
04020           -9000.00
04021           -9000.00
04022           -9400.00
04023           -9800.00
04024           -9800.00
04025          -10200.00
04026          -10400.00
04027          -10800.00
04028          -11200.00
04029          -11000.00
04030          -11400.00
04031          -12000.00
04032          -12000.00
04033          -12200.00
04034          -12600.00
04035          -12800.00
04036          -13000.00
04037          -13200.00
04038          -13600.00
04039          -13800.00
04040          -13800.00
04041          -14200.00
04042          -14400.00
04043          -14600.00
04044          -14600.00
04045          -14800.00
04046          -14800.00
04047          -15200.00
04048          -15400.00
04049          -15400.00
04050          -15600.00
04051          -15800.00
04052          -16000.00
04053          -16000.00
04054          -16200.00
04055          -16400.00
04056          -16400.00
04057          -16600.00
04058          -16600.00
04059          -16800.00
04060          -17000.00
04061          -17000.00
04062          -17000.00
04063          -17200.00
04064          -17200.00
04065          -17200.00
04066          -17400.00
04067          -17200.00
04068          -17600.00
04069          -17400.00
04070          -17400.00
04071          -17600.00
04072          -17600.00
04073          -17400.00
04074          -17600.00
04075          -17600.00
04076          -17600.00
04077          -17600.00
04078          -17600.00
04079          -17400.00
04080          -17600.00
04081          -17400.00
04082          -17400.00
04083          -17200.00
04084          -17400.00
04085          -17200.00
04086          -17200.00
04087          -17200.00
04088          -17000.00
04089          -17000.00
04090          -16800.00
04091          -16800.00
04092          -16400.00
04093          -16400.00
04094          -16400.00
04095          -16400.00
04096          -16200.00
04097          -16200.00
04098          -16000.00
04099          -15800.00
04100          -15600.00
04101          -15400.00
04102          -15400.00
04103          -15200.00
04104          -14800.00
04105          -14800.00
04106          -14600.00
04107          -14400.00
04108          -14200.00
04109          -14000.00
04110          -13800.00
04111          -13600.00
04112          -13200.00
04113          -13000.00
04114          -12800.00
04115          -12600.00
04116          -12400.00
04117          -12200.00
04118          -12000.00
04119          -11600.00
04120          -11400.00
04121          -11000.00
04122          -10800.00
04123          -10600.00
04124          -10400.00
04125          -10000.00
04126           -9800.00
04127           -9600.00
04128           -9200.00
04129           -9000.00
04130           -8800.00
04131           -8400.00
04132           -8200.00
04133           -8000.00
04134           -7400.00
04135           -7200.00
04136           -7000.00
04137           -6400.00
04138           -6400.00
04139           -5800.00
04140           -5600.00
04141           -5200.00
04142           -5000.00
04143           -4600.00
04144           -4200.00
04145           -4000.00
04146           -3600.00
04147           -3200.00
04148           -2800.00
04149           -2800.00
04150           -2400.00
04151           -2200.00
04152           -1600.00
04153           -1600.00
04154           -1200.00
04155            -800.00
04156            -400.00
04157               0.00
04158             400.00
04159             600.00
04160             800.00
04161            1200.00
04162            1600.00
04163            1800.00
04164            2000.00
04165            2400.00
04166            2600.00
04167            3000.00
04168            3200.00
04169            3600.00
04170            4000.00
04171            4400.00
04172            4800.00
04173            4800.00
04174            5400.00
04175            5600.00
04176            6000.00
04177            6200.00
04178            6600.00
04179            6800.00
04180            7200.00
04181            7400.00
04182            7800.00
04183            8000.00
04184            8400.00
04185            8600.00
04186            9000.00
04187            9200.00
04188            9600.00
04189            9800.00
04190           10200.00
04191           10400.00
04192           10600.00
04193           10800.00
04194           11200.00
04195           11200.00
04196           11600.00
04197           11800.00
04198           12400.00
04199           12400.00
04200           12800.00
04201           13000.00
04202           13200.00
04203           13200.00
04204           13600.00
04205           13600.00
04206           14000.00
04207           14200.00
04208           14600.00
04209           14800.00
04210           14800.00
04211           15000.00
04212           15200.00
04213           15400.00
04214           15600.00
04215           15800.00
04216           15800.00
04217           16000.00
04218           16000.00
04219           16000.00
04220           16400.00
04221           16600.00
04222           16600.00
04223           16800.00
04224           16800.00
04225           16800.00
04226           17000.00
04227           17200.00
04228           17400.00
04229           17400.00
04230           17200.00
04231           17400.00
04232           17600.00
04233           17600.00
04234           17600.00
04235           17600.00
04236           17600.00
04237           17800.00
04238           17800.00
04239           18000.00
04240           17600.00
04241           17600.00
04242           17600.00
04243           17600.00
04244           17800.00
04245           18000.00
04246           17800.00
04247           17600.00
04248           17600.00
04249           17600.00
04250           17400.00
04251           17400.00
04252           17400.00
04253           17400.00
04254           17200.00
04255           17200.00
04256           17200.00
04257           17000.00
04258           16800.00
04259           16800.00
04260           16600.00
04261           16600.00
04262           16200.00
04263           16400.00
04264           16200.00
04265           16000.00
04266           15800.00
04267           15600.00
04268           15600.00
04269           15200.00
04270           15200.00
04271           15000.00
04272           14800.00
04273           14600.00
04274           14400.00
04275           14200.00
04276           14000.00
04277           13600.00
04278           13600.00
04279           13200.00
04280           13000.00
04281           12800.00
04282           12600.00
04283           12400.00
04284           12200.00
04285           12000.00
04286           11600.00
04287           11400.00
04288           11000.00
04289           10800.00
04290           10600.00
04291           10400.00
04292           10200.00
04293            9800.00
04294            9600.00
04295            9200.00
04296            8800.00
04297            8600.00
04298            8400.00
04299            8000.00
04300            7800.00
04301            7400.00
04302            7000.00
04303            6800.00
04304            6400.00
04305            6200.00
04306            5800.00
04307            5600.00
04308            5200.00
04309            4800.00
04310            4600.00
04311            4400.00
04312            4000.00
04313            3600.00
04314            3200.00
04315            3000.00
04316            2800.00
04317            2400.00
04318            2000.00
04319            1600.00
04320            1400.00
04321             800.00
04322             600.00
04323             400.00
04324               0.00
04325            -200.00
04326            -400.00
04327           -1000.00
04328           -1200.00
04329           -1600.00
04330           -1800.00
04331           -2200.00
04332           -2400.00
04333           -2800.00
04334           -3200.00
04335           -3800.00
04336           -4200.00
04337           -4400.00
04338           -4400.00
04339           -4600.00
04340           -5200.00
04341           -5400.00
04342           -5600.00
04343           -6200.00
04344           -6400.00
04345           -6600.00
04346           -7000.00
04347           -7200.00
04348           -7600.00
04349           -8000.00
04350           -8200.00
04351           -8600.00
04352           -9000.00
04353           -8800.00
04354           -9400.00
04355           -9600.00
04356           -9800.00
04357          -10200.00
04358          -10400.00
04359          -10600.00
04360          -11200.00
04361          -11200.00
04362          -11600.00
04363          -12000.00
04364          -12000.00
04365          -12400.00
04366          -12800.00
04367          -12800.00
04368          -13200.00
04369          -13200.00
04370          -13600.00
04371          -13600.00
04372          -14000.00
04373          -14000.00
04374          -14400.00
04375          -14400.00
04376          -14800.00
04377          -14800.00
04378          -15200.00
04379          -15200.00
04380          -15400.00
04381          -15400.00
04382          -15600.00
04383          -15800.00
04384          -16000.00
04385          -16200.00
04386          -16200.00
04387          -16400.00
04388          -16400.00
04389          -16800.00
04390          -16800.00
04391          -16800.00
04392          -16800.00
04393          -17000.00
04394          -17200.00
04395          -17200.00
04396          -17200.00
04397          -17200.00
04398          -17400.00
04399          -17200.00
04400          -17200.00
04401          -17400.00
04402          -17800.00
04403          -17600.00
04404          -17400.00
04405          -17600.00
04406          -17600.00
04407          -17600.00
04408          -17400.00
04409          -17600.00
04410          -17400.00
04411          -17400.00
04412          -17600.00
04413          -17400.00
04414          -17400.00
04415          -17200.00
04416          -17200.00
04417          -17200.00
04418          -17000.00
04419          -17200.00
04420          -17000.00
04421          -17000.00
04422          -16800.00
04423          -16800.00
04424          -16600.00
04425          -16400.00
04426          -16400.00
04427          -16200.00
04428          -16200.00
04429          -16200.00
04430          -16000.00
04431          -16000.00
04432          -15600.00
04433          -15400.00
04434          -15400.00
04435          -15200.00
04436          -15000.00
04437          -14800.00
04438          -14600.00
04439          -14400.00
04440          -14200.00
04441          -14000.00
04442          -13800.00
04443          -13600.00
04444          -13200.00
04445          -13000.00
04446          -13000.00
04447          -12600.00
04448          -12400.00
04449          -12200.00
04450          -12000.00
04451          -11800.00
04452          -11400.00
04453          -11000.00
04454          -11000.00
04455          -10600.00
04456          -10400.00
04457          -10000.00
04458           -9800.00
04459           -9600.00
04460           -9200.00
04461           -9000.00
04462           -8800.00
04463           -8400.00
04464           -8200.00
04465           -8000.00
04466           -7600.00
04467           -7200.00
04468           -6800.00
04469           -6600.00
04470           -6400.00
04471           -6000.00
04472           -5600.00
04473           -5200.00
04474           -5000.00
04475           -4600.00
04476           -4400.00
04477           -4200.00
04478           -3600.00
04479           -3400.00
04480           -3000.00
04481           -2800.00
04482           -2400.00
04483           -2000.00
04484           -1800.00
04485           -1400.00
04486           -1000.00
04487            -800.00
04488            -400.00
04489               0.00
04490             200.00
04491             600.00
04492             800.00
04493            1200.00
04494            1400.00
04495            1800.00
04496            2000.00
04497            2200.00
04498            2600.00
04499            3000.00
04500            3200.00
04501            3800.00
04502            4000.00
04503            4400.00
04504            4800.00
04505            4800.00
04506            5400.00
04507            5600.00
04508            6000.00
04509            6400.00
04510            6600.00
04511            6800.00
04512            7200.00
04513            7200.00
04514            7800.00
04515            8200.00
04516            8400.00
04517            8600.00
04518            9200.00
04519            9200.00
04520            9600.00
04521            9600.00
04522           10000.00
04523           10400.00
04524           10400.00
04525           10800.00
04526           11200.00
04527           11200.00
04528           11800.00
04529           12000.00
04530           12200.00
04531           12600.00
04532           12600.00
04533           12800.00
04534           13200.00
04535           13200.00
04536           13600.00
04537           14000.00
04538           14000.00
04539           14200.00
04540           14600.00
04541           14600.00
04542           14800.00
04543           15000.00
04544           15200.00
04545           15600.00
04546           15600.00
04547           15800.00
04548           15800.00
04549           16000.00
04550           16200.00
04551           16200.00
04552           16200.00
04553           16600.00
04554           16600.00
04555           16600.00
04556           17000.00
04557           16800.00
04558           17000.00
04559           17200.00
04560           17200.00
04561           17400.00
04562           17400.00
04563           17400.00
04564           17600.00
04565           17600.00
04566           17600.00
04567           17600.00
04568           17600.00
04569           18000.00
04570           17600.00
04571           17800.00
04572           17600.00
04573           17800.00
04574           17600.00
04575           17800.00
04576           17600.00
04577           17800.00
04578           17800.00
04579           17600.00
04580           17600.00
04581           17400.00
04582           17600.00
04583           17400.00
04584           17400.00
04585           17400.00
04586           17200.00
04587           17200.00
04588           17200.00
04589           16800.00
04590           17000.00
04591           16800.00
04592           16600.00
04593           16400.00
04594           16400.00
04595           16200.00
04596           16000.00
04597           16000.00
04598           15800.00
04599           15800.00
04600           15600.00
04601           15200.00
04602           15000.00
04603           15000.00
04604           14800.00
04605           14600.00
04606           14200.00
04607           14200.00
04608           14000.00
04609           13600.00
04610           13600.00
04611           13400.00
04612           13200.00
04613           12800.00
04614           12600.00
04615           12400.00
04616           12000.00
04617           11800.00
04618           11600.00
04619           11400.00
04620           11200.00
04621           10800.00
04622           10800.00
04623           10400.00
04624           10000.00
04625            9600.00
04626            9600.00
04627            9200.00
04628            8800.00
04629            8600.00
04630            8400.00
04631            8200.00
04632            7800.00
04633            7400.00
04634            7000.00
04635            6800.00
04636            6400.00
04637            6200.00
04638            5800.00
04639            5600.00
04640            5200.00
04641            4800.00
04642            4600.00
04643            4200.00
04644            4000.00
04645            3600.00
04646            3200.00
04647            2800.00
04648            2600.00
04649            2400.00
04650            2000.00
04651            1600.00
04652            1400.00
04653             800.00
04654             600.00
04655             200.00
04656               0.00
04657            -400.00
04658            -600.00
04659           -1000.00
04660           -1200.00
04661           -1600.00
04662           -2000.00
04663           -2200.00
04664           -2400.00
04665           -2800.00
04666           -3200.00
04667           -3800.00
04668           -4200.00
04669           -4200.00
04670           -4400.00
04671           -4400.00
04672           -5200.00
04673           -5400.00
04674           -5600.00
04675           -6000.00
04676           -6400.00
04677           -6600.00
04678           -7000.00
04679           -7200.00
04680           -7400.00
04681           -8000.00
04682           -8200.00
04683           -8600.00
04684           -9000.00
04685           -9000.00
04686           -9200.00
04687           -9600.00
04688           -9800.00
04689          -10000.00
04690          -10400.00
04691          -10600.00
04692          -11200.00
04693          -11200.00
04694          -11400.00
04695          -11800.00
04696          -12000.00
04697          -12200.00
04698          -12400.00
04699          -12800.00
04700          -13000.00
04701          -13200.00
04702          -13400.00
04703          -13800.00
04704          -13800.00
04705          -14000.00
04706          -14400.00
04707          -14400.00
04708          -14800.00
04709          -14800.00
04710          -14800.00
04711          -15200.00
04712          -15400.00
04713          -15400.00
04714          -15600.00
04715          -15600.00
04716          -16000.00
04717          -16200.00
04718          -16200.00
04719          -16400.00
04720          -16400.00
04721          -16600.00
04722          -16800.00
04723          -16800.00
04724          -16800.00
04725          -17000.00
04726          -17000.00
04727          -17200.00
04728          -17200.00
04729          -17400.00
04730          -17200.00
04731          -17400.00
04732          -17400.00
04733          -17600.00
04734          -17400.00
04735          -17600.00
04736          -17400.00
04737          -17600.00
04738          -17600.00
04739          -17600.00
04740          -17400.00
04741          -17400.00
04742          -17600.00
04743          -17400.00
04744          -17400.00
04745          -17400.00
04746          -17200.00
04747          -17200.00
04748          -17200.00
04749          -17200.00
04750          -17200.00
04751          -17000.00
04752          -17000.00
04753          -17000.00
04754          -16800.00
04755          -16800.00
04756          -16800.00
04757          -16400.00
04758          -16400.00
04759          -16400.00
04760          -16200.00
04761          -16000.00
04762          -16000.00
04763          -15600.00
04764          -15600.00
04765          -15400.00
04766          -15200.00
04767          -15200.00
04768          -14800.00
04769          -14600.00
04770          -14600.00
04771          -14400.00
04772          -14200.00
04773          -14000.00
04774          -13800.00
04775          -13400.00
04776          -13200.00
04777          -13000.00
04778          -12800.00
04779          -12800.00
04780          -12400.00
04781          -12200.00
04782          -12000.00
04783          -11600.00
04784          -11600.00
04785          -11000.00
04786          -11000.00
04787          -10600.00
04788          -10400.00
04789          -10200.00
04790           -9800.00
04791           -9600.00
04792           -9200.00
04793           -9000.00
04794           -8800.00
04795           -8400.00
04796           -8200.00
04797           -7800.00
04798           -7400.00
04799           -7200.00
04800           -6800.00
04801           -6600.00
04802           -6400.00
04803           -6000.00
04804           -5600.00
04805           -5200.00
04806           -5000.00
04807           -4600.00
04808           -4400.00
04809           -4000.00
04810           -3600.00
04811           -3400.00
04812           -3000.00
04813           -2800.00
04814           -2400.00
04815           -2000.00
04816           -1800.00
04817           -1400.00
04818           -1200.00
04819            -800.00
04820            -400.00
04821               0.00
04822               0.00
04823             400.00
04824             800.00
04825            1200.00
04826            1400.00
04827            1800.00
04828            2000.00
04829            2400.00
04830            2600.00
04831            3000.00
04832            3400.00
04833            3800.00
04834            4200.00
04835            4600.00
04836            4800.00
04837            5000.00
04838            5400.00
04839            5600.00
04840            6000.00
04841            6200.00
04842            6400.00
04843            6800.00
04844            7200.00
04845            7400.00
04846            7800.00
04847            8000.00
04848            8400.00
04849            8800.00
04850            9000.00
04851            9200.00
04852            9400.00
04853            9800.00
04854           10000.00
04855           10400.00
04856           10400.00
04857           10800.00
04858           11000.00
04859           11200.00
04860           11800.00
04861           12000.00
04862           12200.00
04863           12400.00
04864           12600.00
04865           12800.00
04866           13200.00
04867           13400.00
04868           13600.00
04869           14000.00
04870           14000.00
04871           14200.00
04872           14400.00
04873           14600.00
04874           14800.00
04875           15200.00
04876           15200.00
04877           15400.00
04878           15600.00
04879           15800.00
04880           15800.00
04881           16000.00
04882           16200.00
04883           16400.00
04884           16400.00
04885           16800.00
04886           16600.00
04887           16800.00
04888           17000.00
04889           16800.00
04890           17200.00
04891           17200.00
04892           17400.00
04893           17400.00
04894           17400.00
04895           17400.00
04896           17600.00
04897           17600.00
04898           17600.00
04899           17600.00
04900           18000.00
04901           17800.00
04902           17800.00
04903           17800.00
04904           17800.00
04905           17800.00
04906           17800.00
04907           17800.00
04908           17800.00
04909           17600.00
04910           18000.00
04911           17800.00
04912           17600.00
04913           17600.00
04914           17400.00
04915           17400.00
04916           17400.00
04917           17200.00
04918           17200.00
04919           17200.00
04920           17200.00
04921           17200.00
04922           16800.00
04923           16800.00
04924           16600.00
04925           16600.00
04926           16400.00
04927           16200.00
04928           16000.00
04929           16000.00
04930           15800.00
04931           15800.00
04932           15600.00
04933           15200.00
04934           15200.00
04935           15000.00
04936           14800.00
04937           14600.00
04938           14400.00
04939           14200.00
04940           14000.00
04941           13800.00
04942           13400.00
04943           13200.00
04944           13000.00
04945           12800.00
04946           12600.00
04947           12400.00
04948           12200.00
04949           11800.00
04950           11800.00
04951           11200.00
04952           11200.00
04953           11000.00
04954           10400.00
04955           10400.00
04956           10200.00
04957            9800.00
04958            9200.00
04959            9200.00
04960            8800.00
04961            8600.00
04962            8400.00
04963            8000.00
04964            7800.00
04965            7400.00
04966            7200.00
04967            6800.00
04968            6400.00
04969            6200.00
04970            6000.00
04971            5600.00
04972            5200.00
04973            4800.00
04974            4600.00
04975            4200.00
04976            4000.00
04977            3600.00
04978            3200.00
04979            2800.00
04980            2600.00
04981            2200.00
04982            2000.00
04983            1600.00
04984            1400.00
04985            1000.00
04986             600.00
04987             200.00
04988               0.00
04989            -400.00
04990            -600.00
04991           -1000.00
04992           -1400.00
04993           -1600.00
04994           -1800.00
04995           -2200.00
04996           -2400.00
04997           -2600.00
04998           -3200.00
04999           -3600.00
05000           -4200.00
