Unit:(mV)
                     CH2
Frequency    301.394 kHz
00001            3800.00
00002            3200.00
00003            2800.00
00004            2400.00
00005            2000.00
00006            1400.00
00007            1200.00
00008             600.00
00009             200.00
00010            -200.00
00011            -400.00
00012           -1000.00
00013           -1400.00
00014           -1800.00
00015           -2200.00
00016           -2600.00
00017           -3200.00
00018           -3400.00
00019           -4000.00
00020           -4800.00
00021           -5000.00
00022           -5600.00
00023           -5800.00
00024           -6000.00
00025           -6400.00
00026           -7000.00
00027           -7400.00
00028           -7800.00
00029           -8400.00
00030           -8800.00
00031           -9000.00
00032           -9600.00
00033           -9800.00
00034          -10400.00
00035          -10800.00
00036          -11200.00
00037          -11600.00
00038          -12000.00
00039          -12200.00
00040          -12800.00
00041          -13000.00
00042          -13600.00
00043          -13800.00
00044          -14000.00
00045          -14600.00
00046          -15000.00
00047          -15400.00
00048          -15600.00
00049          -16000.00
00050          -16200.00
00051          -16600.00
00052          -16800.00
00053          -17200.00
00054          -17600.00
00055          -17800.00
00056          -18400.00
00057          -18400.00
00058          -18800.00
00059          -19000.00
00060          -19400.00
00061          -19600.00
00062          -19600.00
00063          -20000.00
00064          -20200.00
00065          -20600.00
00066          -20600.00
00067          -21000.00
00068          -21200.00
00069          -21200.00
00070          -21600.00
00071          -21800.00
00072          -22000.00
00073          -22000.00
00074          -22400.00
00075          -22400.00
00076          -22600.00
00077          -22600.00
00078          -22600.00
00079          -22800.00
00080          -22800.00
00081          -23200.00
00082          -23200.00
00083          -23400.00
00084          -23400.00
00085          -23400.00
00086          -23400.00
00087          -23600.00
00088          -23600.00
00089          -23600.00
00090          -23600.00
00091          -23800.00
00092          -23600.00
00093          -23600.00
00094          -23600.00
00095          -23600.00
00096          -23600.00
00097          -23400.00
00098          -23400.00
00099          -23400.00
00100          -23400.00
00101          -23400.00
00102          -23200.00
00103          -23200.00
00104          -23000.00
00105          -23000.00
00106          -22800.00
00107          -22600.00
00108          -22600.00
00109          -22600.00
00110          -22400.00
00111          -22200.00
00112          -22000.00
00113          -22000.00
00114          -21800.00
00115          -21600.00
00116          -21400.00
00117          -21200.00
00118          -21000.00
00119          -20800.00
00120          -20400.00
00121          -20200.00
00122          -20000.00
00123          -19600.00
00124          -19600.00
00125          -19200.00
00126          -19000.00
00127          -18600.00
00128          -18400.00
00129          -18400.00
00130          -18000.00
00131          -17400.00
00132          -17200.00
00133          -16800.00
00134          -16600.00
00135          -16200.00
00136          -16000.00
00137          -15600.00
00138          -15200.00
00139          -14800.00
00140          -14600.00
00141          -14400.00
00142          -13800.00
00143          -13600.00
00144          -13200.00
00145          -12800.00
00146          -12400.00
00147          -12000.00
00148          -11600.00
00149          -11200.00
00150          -10800.00
00151          -10400.00
00152          -10000.00
00153           -9600.00
00154           -9200.00
00155           -8800.00
00156           -8400.00
00157           -8000.00
00158           -7400.00
00159           -7200.00
00160           -6600.00
00161           -6200.00
00162           -5800.00
00163           -5200.00
00164           -4800.00
00165           -4400.00
00166           -4000.00
00167           -3600.00
00168           -3200.00
00169           -2600.00
00170           -2400.00
00171           -1800.00
00172           -1400.00
00173           -1000.00
00174            -400.00
00175            -200.00
00176             400.00
00177             800.00
00178            1200.00
00179            1600.00
00180            2000.00
00181            2400.00
00182            2800.00
00183            3200.00
00184            3600.00
00185            4000.00
00186            4600.00
00187            5200.00
00188            5600.00
00189            6000.00
00190            6400.00
00191            6400.00
00192            7200.00
00193            7600.00
00194            8000.00
00195            8400.00
00196            8800.00
00197            9200.00
00198            9600.00
00199           10000.00
00200           10400.00
00201           10800.00
00202           11200.00
00203           11800.00
00204           12000.00
00205           12400.00
00206           12800.00
00207           13200.00
00208           13600.00
00209           14000.00
00210           14400.00
00211           14800.00
00212           15000.00
00213           15200.00
00214           15800.00
00215           16000.00
00216           16400.00
00217           16800.00
00218           17000.00
00219           17400.00
00220           17600.00
00221           18000.00
00222           18400.00
00223           18600.00
00224           19000.00
00225           19000.00
00226           19200.00
00227           19600.00
00228           20000.00
00229           20000.00
00230           20400.00
00231           20600.00
00232           21000.00
00233           21200.00
00234           21200.00
00235           21400.00
00236           21600.00
00237           21800.00
00238           22000.00
00239           22200.00
00240           22400.00
00241           22400.00
00242           22600.00
00243           22800.00
00244           22800.00
00245           23000.00
00246           23000.00
00247           23200.00
00248           23200.00
00249           23200.00
00250           23400.00
00251           23600.00
00252           23600.00
00253           23600.00
00254           23600.00
00255           23800.00
00256           23600.00
00257           23800.00
00258           23800.00
00259           23600.00
00260           23800.00
00261           23800.00
00262           23600.00
00263           23600.00
00264           23600.00
00265           23600.00
00266           23600.00
00267           23400.00
00268           23200.00
00269           23200.00
00270           23000.00
00271           23000.00
00272           23000.00
00273           22800.00
00274           22800.00
00275           22600.00
00276           22400.00
00277           22200.00
00278           22200.00
00279           22000.00
00280           21800.00
00281           21600.00
00282           21400.00
00283           21200.00
00284           21000.00
00285           20800.00
00286           20600.00
00287           20400.00
00288           20000.00
00289           19800.00
00290           19600.00
00291           19200.00
00292           19000.00
00293           18800.00
00294           18600.00
00295           18200.00
00296           17800.00
00297           17400.00
00298           17400.00
00299           16800.00
00300           16600.00
00301           16400.00
00302           16000.00
00303           15800.00
00304           15200.00
00305           15000.00
00306           14600.00
00307           14400.00
00308           14000.00
00309           13600.00
00310           13200.00
00311           12800.00
00312           12400.00
00313           12200.00
00314           11800.00
00315           11200.00
00316           11000.00
00317           10600.00
00318           10000.00
00319            9600.00
00320            9200.00
00321            8800.00
00322            8600.00
00323            8000.00
00324            7600.00
00325            7200.00
00326            6800.00
00327            6200.00
00328            6000.00
00329            5600.00
00330            4800.00
00331            4600.00
00332            4200.00
00333            3600.00
00334            3200.00
00335            2800.00
00336            2400.00
00337            2000.00
00338            1400.00
00339            1000.00
00340             600.00
00341             200.00
00342            -200.00
00343            -600.00
00344           -1000.00
00345           -1800.00
00346           -2000.00
00347           -2400.00
00348           -2600.00
00349           -3200.00
00350           -3400.00
00351           -4000.00
00352           -4800.00
00353           -5200.00
00354           -5600.00
00355           -5800.00
00356           -6000.00
00357           -6400.00
00358           -7200.00
00359           -7400.00
00360           -8000.00
00361           -8400.00
00362           -8800.00
00363           -9200.00
00364           -9600.00
00365          -10000.00
00366          -10400.00
00367          -10800.00
00368          -11200.00
00369          -11600.00
00370          -12000.00
00371          -12400.00
00372          -12800.00
00373          -13200.00
00374          -13600.00
00375          -14000.00
00376          -14200.00
00377          -14800.00
00378          -15200.00
00379          -15400.00
00380          -15600.00
00381          -16000.00
00382          -16200.00
00383          -16600.00
00384          -17000.00
00385          -17400.00
00386          -17600.00
00387          -17800.00
00388          -18400.00
00389          -18400.00
00390          -18800.00
00391          -19000.00
00392          -19200.00
00393          -19600.00
00394          -19800.00
00395          -20200.00
00396          -20400.00
00397          -20600.00
00398          -20800.00
00399          -21000.00
00400          -21200.00
00401          -21400.00
00402          -21600.00
00403          -21800.00
00404          -21800.00
00405          -22000.00
00406          -22400.00
00407          -22400.00
00408          -22400.00
00409          -22600.00
00410          -22800.00
00411          -22800.00
00412          -22800.00
00413          -23200.00
00414          -23200.00
00415          -23200.00
00416          -23400.00
00417          -23400.00
00418          -23600.00
00419          -23400.00
00420          -23600.00
00421          -23600.00
00422          -23600.00
00423          -23600.00
00424          -23600.00
00425          -23600.00
00426          -23600.00
00427          -23400.00
00428          -23600.00
00429          -23400.00
00430          -23400.00
00431          -23400.00
00432          -23200.00
00433          -23400.00
00434          -23200.00
00435          -23200.00
00436          -23000.00
00437          -22800.00
00438          -22800.00
00439          -22600.00
00440          -22600.00
00441          -22400.00
00442          -22400.00
00443          -22200.00
00444          -22000.00
00445          -21800.00
00446          -21600.00
00447          -21600.00
00448          -21200.00
00449          -21000.00
00450          -20800.00
00451          -20600.00
00452          -20400.00
00453          -20200.00
00454          -20000.00
00455          -19600.00
00456          -19400.00
00457          -19200.00
00458          -18800.00
00459          -18600.00
00460          -18400.00
00461          -18400.00
00462          -17800.00
00463          -17400.00
00464          -17200.00
00465          -16800.00
00466          -16600.00
00467          -16200.00
00468          -16000.00
00469          -15600.00
00470          -15200.00
00471          -14800.00
00472          -14400.00
00473          -14000.00
00474          -13800.00
00475          -13400.00
00476          -13000.00
00477          -12600.00
00478          -12400.00
00479          -12000.00
00480          -11600.00
00481          -11200.00
00482          -10600.00
00483          -10400.00
00484          -10000.00
00485           -9600.00
00486           -9200.00
00487           -8800.00
00488           -8200.00
00489           -7800.00
00490           -7400.00
00491           -6800.00
00492           -6600.00
00493           -6000.00
00494           -5800.00
00495           -5200.00
00496           -4800.00
00497           -4400.00
00498           -4000.00
00499           -3600.00
00500           -3000.00
00501           -2600.00
00502           -2200.00
00503           -1800.00
00504           -1200.00
00505            -800.00
00506            -400.00
00507               0.00
00508             400.00
00509             800.00
00510            1400.00
00511            1800.00
00512            2200.00
00513            2400.00
00514            2800.00
00515            3400.00
00516            3600.00
00517            4000.00
00518            4600.00
00519            5200.00
00520            5800.00
00521            6000.00
00522            6400.00
00523            6600.00
00524            7200.00
00525            7600.00
00526            8200.00
00527            8600.00
00528            8800.00
00529            9200.00
00530            9800.00
00531           10000.00
00532           10600.00
00533           11000.00
00534           11200.00
00535           11800.00
00536           12000.00
00537           12400.00
00538           12800.00
00539           13200.00
00540           13600.00
00541           14000.00
00542           14400.00
00543           14800.00
00544           15000.00
00545           15600.00
00546           15800.00
00547           16000.00
00548           16400.00
00549           16800.00
00550           17000.00
00551           17400.00
00552           17600.00
00553           18000.00
00554           18400.00
00555           18600.00
00556           18800.00
00557           19200.00
00558           19600.00
00559           19600.00
00560           20000.00
00561           20200.00
00562           20400.00
00563           20600.00
00564           20800.00
00565           21000.00
00566           21200.00
00567           21400.00
00568           21600.00
00569           22000.00
00570           22000.00
00571           22000.00
00572           22200.00
00573           22400.00
00574           22400.00
00575           22800.00
00576           22800.00
00577           23000.00
00578           23000.00
00579           23200.00
00580           23200.00
00581           23400.00
00582           23400.00
00583           23400.00
00584           23600.00
00585           23600.00
00586           23600.00
00587           23800.00
00588           23600.00
00589           23800.00
00590           23800.00
00591           23600.00
00592           23600.00
00593           23600.00
00594           23600.00
00595           23600.00
00596           23600.00
00597           23400.00
00598           23600.00
00599           23400.00
00600           23200.00
00601           23200.00
00602           23000.00
00603           23000.00
00604           22800.00
00605           22800.00
00606           22600.00
00607           22400.00
00608           22200.00
00609           22200.00
00610           22000.00
00611           22000.00
00612           21800.00
00613           21400.00
00614           21400.00
00615           21200.00
00616           21200.00
00617           20800.00
00618           20400.00
00619           20200.00
00620           20000.00
00621           19800.00
00622           19600.00
00623           19200.00
00624           19000.00
00625           18600.00
00626           18400.00
00627           18200.00
00628           17800.00
00629           17600.00
00630           17200.00
00631           16800.00
00632           16600.00
00633           16200.00
00634           16000.00
00635           15600.00
00636           15200.00
00637           15000.00
00638           14600.00
00639           14200.00
00640           14000.00
00641           13400.00
00642           13200.00
00643           12800.00
00644           12400.00
00645           12000.00
00646           11600.00
00647           11200.00
00648           10800.00
00649           10400.00
00650           10000.00
00651            9600.00
00652            9200.00
00653            8800.00
00654            8400.00
00655            8000.00
00656            7600.00
00657            7000.00
00658            6800.00
00659            6200.00
00660            5800.00
00661            5400.00
00662            5000.00
00663            4400.00
00664            4000.00
00665            3600.00
00666            3200.00
00667            2800.00
00668            2200.00
00669            2000.00
00670            1400.00
00671             800.00
00672             400.00
00673             200.00
00674            -400.00
00675            -800.00
00676           -1200.00
00677           -1600.00
00678           -2000.00
00679           -2600.00
00680           -2800.00
00681           -3200.00
00682           -3600.00
00683           -4200.00
00684           -4800.00
00685           -5200.00
00686           -5600.00
00687           -6000.00
00688           -6200.00
00689           -6600.00
00690           -7200.00
00691           -7600.00
00692           -8000.00
00693           -8400.00
00694           -8800.00
00695           -9200.00
00696           -9600.00
00697          -10000.00
00698          -10600.00
00699          -10800.00
00700          -11200.00
00701          -11600.00
00702          -12000.00
00703          -12400.00
00704          -13000.00
00705          -13200.00
00706          -13600.00
00707          -13800.00
00708          -14400.00
00709          -14600.00
00710          -15200.00
00711          -15400.00
00712          -15800.00
00713          -16000.00
00714          -16400.00
00715          -16800.00
00716          -17000.00
00717          -17400.00
00718          -17800.00
00719          -18000.00
00720          -18400.00
00721          -18600.00
00722          -18800.00
00723          -19200.00
00724          -19400.00
00725          -19600.00
00726          -20000.00
00727          -20000.00
00728          -20400.00
00729          -20400.00
00730          -20800.00
00731          -21000.00
00732          -21200.00
00733          -21400.00
00734          -21600.00
00735          -21800.00
00736          -22000.00
00737          -22000.00
00738          -22200.00
00739          -22400.00
00740          -22600.00
00741          -22600.00
00742          -22800.00
00743          -22800.00
00744          -23200.00
00745          -23000.00
00746          -23200.00
00747          -23200.00
00748          -23400.00
00749          -23400.00
00750          -23400.00
00751          -23600.00
00752          -23600.00
00753          -23400.00
00754          -23600.00
00755          -23400.00
00756          -23600.00
00757          -23600.00
00758          -23600.00
00759          -23600.00
00760          -23400.00
00761          -23400.00
00762          -23600.00
00763          -23200.00
00764          -23400.00
00765          -23200.00
00766          -23200.00
00767          -23200.00
00768          -23000.00
00769          -22800.00
00770          -22600.00
00771          -22600.00
00772          -22600.00
00773          -22400.00
00774          -22200.00
00775          -22000.00
00776          -22000.00
00777          -21800.00
00778          -21600.00
00779          -21600.00
00780          -21200.00
00781          -21000.00
00782          -20800.00
00783          -20600.00
00784          -20200.00
00785          -20000.00
00786          -20000.00
00787          -19600.00
00788          -19400.00
00789          -19200.00
00790          -18800.00
00791          -18600.00
00792          -18400.00
00793          -18000.00
00794          -17800.00
00795          -17400.00
00796          -17200.00
00797          -16800.00
00798          -16400.00
00799          -16200.00
00800          -15800.00
00801          -15400.00
00802          -15200.00
00803          -14800.00
00804          -14400.00
00805          -14000.00
00806          -13600.00
00807          -13400.00
00808          -13000.00
00809          -12600.00
00810          -12200.00
00811          -12000.00
00812          -11400.00
00813          -11200.00
00814          -10600.00
00815          -10000.00
00816           -9800.00
00817           -9400.00
00818           -9000.00
00819           -8600.00
00820           -8200.00
00821           -7600.00
00822           -7200.00
00823           -6800.00
00824           -6400.00
00825           -6000.00
00826           -5600.00
00827           -5200.00
00828           -4600.00
00829           -4200.00
00830           -4000.00
00831           -3400.00
00832           -3000.00
00833           -2600.00
00834           -2000.00
00835           -1600.00
00836           -1200.00
00837            -800.00
00838            -400.00
00839             200.00
00840             600.00
00841             800.00
00842            1400.00
00843            1800.00
00844            2200.00
00845            2600.00
00846            3000.00
00847            3400.00
00848            3800.00
00849            4400.00
00850            4800.00
00851            5400.00
00852            6000.00
00853            6200.00
00854            6400.00
00855            6800.00
00856            7200.00
00857            7600.00
00858            8200.00
00859            8600.00
00860            8800.00
00861            9400.00
00862            9800.00
00863           10200.00
00864           10800.00
00865           11000.00
00866           11200.00
00867           12000.00
00868           12200.00
00869           12600.00
00870           12800.00
00871           13200.00
00872           13600.00
00873           14000.00
00874           14600.00
00875           14800.00
00876           15200.00
00877           15400.00
00878           15800.00
00879           16000.00
00880           16600.00
00881           16800.00
00882           17200.00
00883           17400.00
00884           17600.00
00885           18200.00
00886           18400.00
00887           18600.00
00888           19000.00
00889           19200.00
00890           19400.00
00891           19800.00
00892           20000.00
00893           20400.00
00894           20600.00
00895           20600.00
00896           21000.00
00897           21200.00
00898           21200.00
00899           21400.00
00900           21600.00
00901           22000.00
00902           22000.00
00903           22000.00
00904           22200.00
00905           22400.00
00906           22600.00
00907           22800.00
00908           22800.00
00909           23000.00
00910           23000.00
00911           23200.00
00912           23400.00
00913           23200.00
00914           23400.00
00915           23600.00
00916           23600.00
00917           23800.00
00918           23600.00
00919           23600.00
00920           23600.00
00921           23800.00
00922           23800.00
00923           23800.00
00924           23600.00
00925           23600.00
00926           23800.00
00927           23600.00
00928           23600.00
00929           23600.00
00930           23600.00
00931           23200.00
00932           23400.00
00933           23200.00
00934           23200.00
00935           22800.00
00936           22800.00
00937           22800.00
00938           22600.00
00939           22400.00
00940           22400.00
00941           22200.00
00942           22000.00
00943           22000.00
00944           21600.00
00945           21400.00
00946           21400.00
00947           21000.00
00948           20800.00
00949           20800.00
00950           20600.00
00951           20200.00
00952           20000.00
00953           19800.00
00954           19400.00
00955           19200.00
00956           19000.00
00957           18800.00
00958           18400.00
00959           18200.00
00960           17800.00
00961           17400.00
00962           17200.00
00963           16800.00
00964           16600.00
00965           16200.00
00966           16000.00
00967           15600.00
00968           15200.00
00969           14800.00
00970           14600.00
00971           14200.00
00972           13600.00
00973           13400.00
00974           13200.00
00975           12800.00
00976           12400.00
00977           12000.00
00978           11600.00
00979           11200.00
00980           10800.00
00981           10400.00
00982           10000.00
00983            9400.00
00984            9200.00
00985            8600.00
00986            8400.00
00987            8000.00
00988            7400.00
00989            7000.00
00990            6400.00
00991            6200.00
00992            5600.00
00993            5200.00
00994            4800.00
00995            4400.00
00996            3800.00
00997            3400.00
00998            3000.00
00999            2800.00
01000            2200.00
01001            1600.00
01002            1400.00
01003             800.00
01004             400.00
01005            -200.00
01006            -400.00
01007            -800.00
01008           -1200.00
01009           -1800.00
01010           -2000.00
01011           -2600.00
01012           -2800.00
01013           -3200.00
01014           -3600.00
01015           -4400.00
01016           -5000.00
01017           -5400.00
01018           -5800.00
01019           -6000.00
01020           -6200.00
01021           -6800.00
01022           -7200.00
01023           -7600.00
01024           -8200.00
01025           -8600.00
01026           -9000.00
01027           -9200.00
01028           -9800.00
01029          -10200.00
01030          -10600.00
01031          -11000.00
01032          -11200.00
01033          -11800.00
01034          -12200.00
01035          -12400.00
01036          -13000.00
01037          -13200.00
01038          -13600.00
01039          -14000.00
01040          -14400.00
01041          -14800.00
01042          -15200.00
01043          -15600.00
01044          -15800.00
01045          -16200.00
01046          -16600.00
01047          -16800.00
01048          -17200.00
01049          -17400.00
01050          -17600.00
01051          -18000.00
01052          -18400.00
01053          -18400.00
01054          -18800.00
01055          -19200.00
01056          -19400.00
01057          -19600.00
01058          -20000.00
01059          -20200.00
01060          -20200.00
01061          -20800.00
01062          -20800.00
01063          -21000.00
01064          -21200.00
01065          -21400.00
01066          -21600.00
01067          -21800.00
01068          -22000.00
01069          -22000.00
01070          -22400.00
01071          -22400.00
01072          -22600.00
01073          -22800.00
01074          -22800.00
01075          -22800.00
01076          -23200.00
01077          -23200.00
01078          -23200.00
01079          -23400.00
01080          -23200.00
01081          -23600.00
01082          -23400.00
01083          -23400.00
01084          -23600.00
01085          -23600.00
01086          -23600.00
01087          -23600.00
01088          -23600.00
01089          -23600.00
01090          -23600.00
01091          -23600.00
01092          -23600.00
01093          -23400.00
01094          -23400.00
01095          -23200.00
01096          -23400.00
01097          -23200.00
01098          -23200.00
01099          -23200.00
01100          -22800.00
01101          -22800.00
01102          -22800.00
01103          -22600.00
01104          -22600.00
01105          -22400.00
01106          -22200.00
01107          -22000.00
01108          -22000.00
01109          -21600.00
01110          -21600.00
01111          -21400.00
01112          -21200.00
01113          -21000.00
01114          -20800.00
01115          -20400.00
01116          -20400.00
01117          -20000.00
01118          -20000.00
01119          -19400.00
01120          -19400.00
01121          -19200.00
01122          -18800.00
01123          -18600.00
01124          -18200.00
01125          -18000.00
01126          -17800.00
01127          -17200.00
01128          -17000.00
01129          -16800.00
01130          -16400.00
01131          -16000.00
01132          -15600.00
01133          -15400.00
01134          -15200.00
01135          -14800.00
01136          -14400.00
01137          -14000.00
01138          -13600.00
01139          -13400.00
01140          -12800.00
01141          -12400.00
01142          -12200.00
01143          -11600.00
01144          -11600.00
01145          -10800.00
01146          -10600.00
01147          -10000.00
01148           -9800.00
01149           -9200.00
01150           -9000.00
01151           -8600.00
01152           -8000.00
01153           -7800.00
01154           -7200.00
01155           -6800.00
01156           -6400.00
01157           -6000.00
01158           -5600.00
01159           -5200.00
01160           -4600.00
01161           -4200.00
01162           -3800.00
01163           -3400.00
01164           -2800.00
01165           -2400.00
01166           -2000.00
01167           -1600.00
01168           -1000.00
01169            -800.00
01170            -200.00
01171             400.00
01172             600.00
01173            1200.00
01174            1600.00
01175            1800.00
01176            2200.00
01177            2600.00
01178            3200.00
01179            3400.00
01180            3800.00
01181            4600.00
01182            4800.00
01183            5400.00
01184            5800.00
01185            6200.00
01186            6400.00
01187            7000.00
01188            7400.00
01189            7800.00
01190            8200.00
01191            8600.00
01192            8800.00
01193            9600.00
01194           10000.00
01195           10200.00
01196           10800.00
01197           11000.00
01198           11600.00
01199           12000.00
01200           12200.00
01201           12800.00
01202           13000.00
01203           13400.00
01204           13600.00
01205           14200.00
01206           14600.00
01207           15000.00
01208           15200.00
01209           15600.00
01210           16000.00
01211           16400.00
01212           16800.00
01213           16800.00
01214           17400.00
01215           17600.00
01216           18000.00
01217           18200.00
01218           18400.00
01219           18800.00
01220           19000.00
01221           19200.00
01222           19600.00
01223           19800.00
01224           20000.00
01225           20400.00
01226           20600.00
01227           20800.00
01228           21000.00
01229           21200.00
01230           21200.00
01231           21600.00
01232           21600.00
01233           22000.00
01234           22000.00
01235           22200.00
01236           22400.00
01237           22600.00
01238           22400.00
01239           22800.00
01240           22800.00
01241           23000.00
01242           23200.00
01243           23200.00
01244           23400.00
01245           23200.00
01246           23600.00
01247           23600.00
01248           23600.00
01249           23600.00
01250           23600.00
01251           23800.00
01252           23600.00
01253           23600.00
01254           23600.00
01255           23600.00
01256           23600.00
01257           23600.00
01258           23600.00
01259           23600.00
01260           23600.00
01261           23600.00
01262           23400.00
01263           23200.00
01264           23200.00
01265           23200.00
01266           23000.00
01267           23000.00
01268           22800.00
01269           22600.00
01270           22400.00
01271           22400.00
01272           22400.00
01273           22200.00
01274           22000.00
01275           22000.00
01276           21600.00
01277           21400.00
01278           21200.00
01279           21200.00
01280           20800.00
01281           20600.00
01282           20400.00
01283           20000.00
01284           20000.00
01285           19600.00
01286           19400.00
01287           19200.00
01288           19000.00
01289           18600.00
01290           18400.00
01291           18000.00
01292           17600.00
01293           17400.00
01294           17200.00
01295           16800.00
01296           16400.00
01297           16200.00
01298           15800.00
01299           15600.00
01300           15200.00
01301           14800.00
01302           14400.00
01303           14200.00
01304           13600.00
01305           13200.00
01306           13000.00
01307           12600.00
01308           12200.00
01309           12000.00
01310           11400.00
01311           11000.00
01312           10800.00
01313           10200.00
01314           10000.00
01315            9400.00
01316            9000.00
01317            8600.00
01318            8200.00
01319            7800.00
01320            7200.00
01321            6800.00
01322            6400.00
01323            6000.00
01324            5600.00
01325            5200.00
01326            4800.00
01327            4200.00
01328            3800.00
01329            3200.00
01330            2800.00
01331            2600.00
01332            2200.00
01333            1600.00
01334            1200.00
01335             600.00
01336             400.00
01337            -200.00
01338            -400.00
01339           -1000.00
01340           -1200.00
01341           -2000.00
01342           -2200.00
01343           -2600.00
01344           -3200.00
01345           -3400.00
01346           -4000.00
01347           -4600.00
01348           -5000.00
01349           -5600.00
01350           -5800.00
01351           -6000.00
01352           -6400.00
01353           -7000.00
01354           -7400.00
01355           -7600.00
01356           -8200.00
01357           -8600.00
01358           -9000.00
01359           -9600.00
01360           -9800.00
01361          -10200.00
01362          -10800.00
01363          -10800.00
01364          -11400.00
01365          -12000.00
01366          -12200.00
01367          -12800.00
01368          -13000.00
01369          -13400.00
01370          -13800.00
01371          -14200.00
01372          -14600.00
01373          -14800.00
01374          -15200.00
01375          -15400.00
01376          -16000.00
01377          -16200.00
01378          -16600.00
01379          -16800.00
01380          -17200.00
01381          -17600.00
01382          -17800.00
01383          -18200.00
01384          -18600.00
01385          -18600.00
01386          -19000.00
01387          -19200.00
01388          -19600.00
01389          -19600.00
01390          -20000.00
01391          -20200.00
01392          -20400.00
01393          -20800.00
01394          -21000.00
01395          -21200.00
01396          -21200.00
01397          -21400.00
01398          -21600.00
01399          -21800.00
01400          -22000.00
01401          -22000.00
01402          -22400.00
01403          -22600.00
01404          -22600.00
01405          -22800.00
01406          -22800.00
01407          -22800.00
01408          -23200.00
01409          -23200.00
01410          -23200.00
01411          -23200.00
01412          -23400.00
01413          -23600.00
01414          -23400.00
01415          -23400.00
01416          -23600.00
01417          -23600.00
01418          -23400.00
01419          -23600.00
01420          -23600.00
01421          -23400.00
01422          -23600.00
01423          -23600.00
01424          -23600.00
01425          -23400.00
01426          -23400.00
01427          -23400.00
01428          -23200.00
01429          -23200.00
01430          -23200.00
01431          -23000.00
01432          -22800.00
01433          -22800.00
01434          -22800.00
01435          -22600.00
01436          -22600.00
01437          -22400.00
01438          -22400.00
01439          -22000.00
01440          -22000.00
01441          -21800.00
01442          -21600.00
01443          -21400.00
01444          -21200.00
01445          -21000.00
01446          -20800.00
01447          -20400.00
01448          -20200.00
01449          -20000.00
01450          -20000.00
01451          -19400.00
01452          -19200.00
01453          -19200.00
01454          -18800.00
01455          -18400.00
01456          -18400.00
01457          -18000.00
01458          -17600.00
01459          -17200.00
01460          -17000.00
01461          -16800.00
01462          -16400.00
01463          -16000.00
01464          -15600.00
01465          -15400.00
01466          -15000.00
01467          -14600.00
01468          -14400.00
01469          -14000.00
01470          -13600.00
01471          -13200.00
01472          -12800.00
01473          -12400.00
01474          -12200.00
01475          -11600.00
01476          -11400.00
01477          -10800.00
01478          -10600.00
01479          -10000.00
01480           -9600.00
01481           -9200.00
01482           -8800.00
01483           -8400.00
01484           -8000.00
01485           -7600.00
01486           -7200.00
01487           -6600.00
01488           -6400.00
01489           -6000.00
01490           -5600.00
01491           -5000.00
01492           -4400.00
01493           -4200.00
01494           -3600.00
01495           -3200.00
01496           -2800.00
01497           -2400.00
01498           -2000.00
01499           -1600.00
01500           -1000.00
01501            -600.00
01502            -200.00
01503             400.00
01504             800.00
01505            1000.00
01506            1600.00
01507            2000.00
01508            2400.00
01509            2800.00
01510            3000.00
01511            3600.00
01512            4000.00
01513            4600.00
01514            5200.00
01515            5600.00
01516            6000.00
01517            6200.00
01518            6400.00
01519            7000.00
01520            7600.00
01521            7800.00
01522            8400.00
01523            8600.00
01524            9200.00
01525            9600.00
01526           10000.00
01527           10200.00
01528           10800.00
01529           11000.00
01530           11600.00
01531           12000.00
01532           12400.00
01533           12800.00
01534           13000.00
01535           13400.00
01536           13800.00
01537           14200.00
01538           14800.00
01539           15000.00
01540           15200.00
01541           15600.00
01542           16000.00
01543           16400.00
01544           16600.00
01545           16800.00
01546           17400.00
01547           17600.00
01548           17800.00
01549           18200.00
01550           18400.00
01551           18800.00
01552           19000.00
01553           19200.00
01554           19600.00
01555           19800.00
01556           20000.00
01557           20400.00
01558           20600.00
01559           20800.00
01560           21000.00
01561           21200.00
01562           21400.00
01563           21600.00
01564           21600.00
01565           22000.00
01566           22000.00
01567           22200.00
01568           22400.00
01569           22400.00
01570           22800.00
01571           22800.00
01572           23000.00
01573           23000.00
01574           23200.00
01575           23000.00
01576           23200.00
01577           23400.00
01578           23400.00
01579           23600.00
01580           23600.00
01581           23600.00
01582           23600.00
01583           23800.00
01584           23600.00
01585           23600.00
01586           23800.00
01587           23600.00
01588           23600.00
01589           23600.00
01590           23600.00
01591           23600.00
01592           23600.00
01593           23600.00
01594           23200.00
01595           23200.00
01596           23200.00
01597           23200.00
01598           23000.00
01599           22800.00
01600           22800.00
01601           22800.00
01602           22400.00
01603           22400.00
01604           22400.00
01605           22000.00
01606           22000.00
01607           22000.00
01608           21600.00
01609           21600.00
01610           21200.00
01611           21000.00
01612           20800.00
01613           20600.00
01614           20400.00
01615           20200.00
01616           19800.00
01617           19600.00
01618           19400.00
01619           19200.00
01620           18800.00
01621           18600.00
01622           18400.00
01623           18000.00
01624           17600.00
01625           17200.00
01626           17000.00
01627           16600.00
01628           16400.00
01629           16000.00
01630           15800.00
01631           15600.00
01632           15200.00
01633           14800.00
01634           14400.00
01635           14000.00
01636           13600.00
01637           13400.00
01638           12800.00
01639           12600.00
01640           12000.00
01641           11800.00
01642           11400.00
01643           11000.00
01644           10600.00
01645           10000.00
01646            9800.00
01647            9400.00
01648            9000.00
01649            8600.00
01650            8000.00
01651            7800.00
01652            7200.00
01653            6800.00
01654            6400.00
01655            6000.00
01656            5600.00
01657            5000.00
01658            4600.00
01659            4200.00
01660            3600.00
01661            3400.00
01662            2800.00
01663            2200.00
01664            2000.00
01665            1600.00
01666            1000.00
01667             600.00
01668             200.00
01669            -200.00
01670            -800.00
01671           -1000.00
01672           -1600.00
01673           -2000.00
01674           -2400.00
01675           -2600.00
01676           -3200.00
01677           -3400.00
01678           -4000.00
01679           -4600.00
01680           -5200.00
01681           -5600.00
01682           -5800.00
01683           -6000.00
01684           -6400.00
01685           -7200.00
01686           -7400.00
01687           -7800.00
01688           -8400.00
01689           -8800.00
01690           -9000.00
01691           -9600.00
01692           -9800.00
01693          -10400.00
01694          -10800.00
01695          -11000.00
01696          -11600.00
01697          -12000.00
01698          -12400.00
01699          -12800.00
01700          -13000.00
01701          -13400.00
01702          -14000.00
01703          -14200.00
01704          -14600.00
01705          -14800.00
01706          -15200.00
01707          -15600.00
01708          -16000.00
01709          -16400.00
01710          -16800.00
01711          -17000.00
01712          -17400.00
01713          -17400.00
01714          -17800.00
01715          -18000.00
01716          -18600.00
01717          -18800.00
01718          -18800.00
01719          -19200.00
01720          -19400.00
01721          -19800.00
01722          -20200.00
01723          -20200.00
01724          -20600.00
01725          -20600.00
01726          -21000.00
01727          -21000.00
01728          -21400.00
01729          -21600.00
01730          -21800.00
01731          -22000.00
01732          -22000.00
01733          -22400.00
01734          -22200.00
01735          -22400.00
01736          -22600.00
01737          -22800.00
01738          -22800.00
01739          -22800.00
01740          -23200.00
01741          -23200.00
01742          -23200.00
01743          -23200.00
01744          -23400.00
01745          -23600.00
01746          -23600.00
01747          -23400.00
01748          -23600.00
01749          -23600.00
01750          -23600.00
01751          -23600.00
01752          -23600.00
01753          -23600.00
01754          -23600.00
01755          -23600.00
01756          -23400.00
01757          -23400.00
01758          -23400.00
01759          -23400.00
01760          -23400.00
01761          -23200.00
01762          -23200.00
01763          -23200.00
01764          -22800.00
01765          -22800.00
01766          -22600.00
01767          -22600.00
01768          -22400.00
01769          -22400.00
01770          -22200.00
01771          -22000.00
01772          -21800.00
01773          -21800.00
01774          -21600.00
01775          -21200.00
01776          -21000.00
01777          -20800.00
01778          -20800.00
01779          -20400.00
01780          -20200.00
01781          -20000.00
01782          -19800.00
01783          -19400.00
01784          -19200.00
01785          -18800.00
01786          -18600.00
01787          -18400.00
01788          -18200.00
01789          -17800.00
01790          -17400.00
01791          -17200.00
01792          -17000.00
01793          -16600.00
01794          -16200.00
01795          -16000.00
01796          -15600.00
01797          -15400.00
01798          -14800.00
01799          -14600.00
01800          -14400.00
01801          -13800.00
01802          -13600.00
01803          -13000.00
01804          -12800.00
01805          -12400.00
01806          -12000.00
01807          -11600.00
01808          -11000.00
01809          -10800.00
01810          -10400.00
01811          -10000.00
01812           -9600.00
01813           -9000.00
01814           -8800.00
01815           -8400.00
01816           -8000.00
01817           -7400.00
01818           -7000.00
01819           -6600.00
01820           -6200.00
01821           -5800.00
01822           -5200.00
01823           -4800.00
01824           -4400.00
01825           -4000.00
01826           -3600.00
01827           -3200.00
01828           -2800.00
01829           -2200.00
01830           -1800.00
01831           -1400.00
01832            -800.00
01833            -400.00
01834               0.00
01835             400.00
01836             600.00
01837            1200.00
01838            1600.00
01839            2000.00
01840            2400.00
01841            2800.00
01842            3200.00
01843            3600.00
01844            4000.00
01845            4800.00
01846            5200.00
01847            5600.00
01848            6000.00
01849            6400.00
01850            6600.00
01851            7200.00
01852            7600.00
01853            8000.00
01854            8400.00
01855            8800.00
01856            9200.00
01857            9600.00
01858           10000.00
01859           10400.00
01860           10800.00
01861           11200.00
01862           11800.00
01863           12000.00
01864           12400.00
01865           12800.00
01866           13200.00
01867           13600.00
01868           14000.00
01869           14200.00
01870           14800.00
01871           15200.00
01872           15400.00
01873           15800.00
01874           16000.00
01875           16400.00
01876           16800.00
01877           17000.00
01878           17400.00
01879           17600.00
01880           18000.00
01881           18200.00
01882           18400.00
01883           19000.00
01884           19200.00
01885           19400.00
01886           19600.00
01887           19800.00
01888           20000.00
01889           20400.00
01890           20600.00
01891           21000.00
01892           21000.00
01893           21200.00
01894           21400.00
01895           21600.00
01896           21800.00
01897           22000.00
01898           22200.00
01899           22200.00
01900           22400.00
01901           22600.00
01902           22800.00
01903           22800.00
01904           23000.00
01905           23000.00
01906           23200.00
01907           23200.00
01908           23600.00
01909           23400.00
01910           23600.00
01911           23600.00
01912           23600.00
01913           23600.00
01914           23800.00
01915           23800.00
01916           23800.00
01917           23800.00
01918           23800.00
01919           23600.00
01920           23800.00
01921           23800.00
01922           23600.00
01923           23600.00
01924           23400.00
01925           23600.00
01926           23600.00
01927           23200.00
01928           23200.00
01929           23200.00
01930           23000.00
01931           22800.00
01932           22800.00
01933           22600.00
01934           22600.00
01935           22400.00
01936           22200.00
01937           22000.00
01938           22000.00
01939           21600.00
01940           21400.00
01941           21400.00
01942           21200.00
01943           21000.00
01944           20800.00
01945           20600.00
01946           20400.00
01947           20000.00
01948           19800.00
01949           19600.00
01950           19200.00
01951           19000.00
01952           18800.00
01953           18400.00
01954           18200.00
01955           17800.00
01956           17600.00
01957           17200.00
01958           17000.00
01959           16600.00
01960           16400.00
01961           16000.00
01962           15600.00
01963           15200.00
01964           15000.00
01965           14800.00
01966           14400.00
01967           13800.00
01968           13600.00
01969           13200.00
01970           12800.00
01971           12600.00
01972           12000.00
01973           11800.00
01974           11200.00
01975           10800.00
01976           10600.00
01977           10000.00
01978            9800.00
01979            9200.00
01980            8800.00
01981            8400.00
01982            8000.00
01983            7600.00
01984            7200.00
01985            6800.00
01986            6400.00
01987            5800.00
01988            5600.00
01989            5000.00
01990            4400.00
01991            4000.00
01992            3600.00
01993            3200.00
01994            2800.00
01995            2400.00
01996            2000.00
01997            1400.00
01998            1000.00
01999             400.00
02000               0.00
02001            -200.00
02002            -800.00
02003           -1000.00
02004           -1600.00
02005           -2000.00
02006           -2400.00
02007           -2800.00
02008           -3200.00
02009           -3600.00
02010           -4200.00
02011           -4800.00
02012           -5200.00
02013           -5600.00
02014           -6000.00
02015           -6000.00
02016           -6600.00
02017           -7200.00
02018           -7600.00
02019           -8000.00
02020           -8400.00
02021           -8800.00
02022           -9200.00
02023           -9600.00
02024          -10000.00
02025          -10600.00
02026          -11000.00
02027          -11200.00
02028          -11600.00
02029          -12000.00
02030          -12400.00
02031          -13000.00
02032          -13200.00
02033          -13600.00
02034          -13800.00
02035          -14200.00
02036          -14800.00
02037          -15200.00
02038          -15400.00
02039          -16000.00
02040          -16000.00
02041          -16400.00
02042          -16800.00
02043          -17000.00
02044          -17200.00
02045          -17600.00
02046          -17800.00
02047          -18400.00
02048          -18600.00
02049          -18800.00
02050          -19200.00
02051          -19400.00
02052          -19600.00
02053          -20000.00
02054          -20200.00
02055          -20200.00
02056          -20600.00
02057          -20800.00
02058          -21000.00
02059          -21200.00
02060          -21200.00
02061          -21600.00
02062          -21800.00
02063          -22000.00
02064          -22000.00
02065          -22400.00
02066          -22400.00
02067          -22400.00
02068          -22600.00
02069          -22800.00
02070          -22800.00
02071          -23000.00
02072          -23200.00
02073          -23200.00
02074          -23400.00
02075          -23200.00
02076          -23400.00
02077          -23600.00
02078          -23400.00
02079          -23400.00
02080          -23600.00
02081          -23600.00
02082          -23600.00
02083          -23600.00
02084          -23600.00
02085          -23600.00
02086          -23400.00
02087          -23600.00
02088          -23600.00
02089          -23400.00
02090          -23400.00
02091          -23400.00
02092          -23400.00
02093          -23200.00
02094          -23200.00
02095          -23200.00
02096          -22800.00
02097          -22800.00
02098          -22800.00
02099          -22600.00
02100          -22400.00
02101          -22400.00
02102          -22200.00
02103          -22000.00
02104          -22000.00
02105          -21600.00
02106          -21400.00
02107          -21200.00
02108          -21000.00
02109          -21000.00
02110          -20800.00
02111          -20400.00
02112          -20200.00
02113          -20000.00
02114          -19600.00
02115          -19400.00
02116          -19200.00
02117          -18800.00
02118          -18800.00
02119          -18400.00
02120          -18000.00
02121          -17800.00
02122          -17400.00
02123          -17000.00
02124          -16800.00
02125          -16400.00
02126          -16200.00
02127          -16000.00
02128          -15400.00
02129          -15200.00
02130          -14800.00
02131          -14400.00
02132          -14400.00
02133          -13800.00
02134          -13200.00
02135          -13000.00
02136          -12800.00
02137          -12200.00
02138          -12000.00
02139          -11600.00
02140          -11200.00
02141          -10600.00
02142          -10400.00
02143           -9800.00
02144           -9600.00
02145           -9200.00
02146           -8600.00
02147           -8200.00
02148           -7600.00
02149           -7400.00
02150           -7000.00
02151           -6600.00
02152           -6000.00
02153           -5800.00
02154           -5200.00
02155           -4800.00
02156           -4400.00
02157           -4000.00
02158           -3600.00
02159           -3200.00
02160           -2600.00
02161           -2200.00
02162           -1800.00
02163           -1200.00
02164            -800.00
02165            -400.00
02166               0.00
02167             600.00
02168             800.00
02169            1400.00
02170            1600.00
02171            2000.00
02172            2600.00
02173            3000.00
02174            3200.00
02175            3600.00
02176            4400.00
02177            4800.00
02178            5400.00
02179            5600.00
02180            6200.00
02181            6400.00
02182            6800.00
02183            7400.00
02184            7600.00
02185            8000.00
02186            8600.00
02187            8800.00
02188            9200.00
02189            9600.00
02190           10000.00
02191           10400.00
02192           11000.00
02193           11200.00
02194           11800.00
02195           12200.00
02196           12400.00
02197           12800.00
02198           13200.00
02199           13600.00
02200           14200.00
02201           14400.00
02202           15000.00
02203           15000.00
02204           15400.00
02205           15800.00
02206           16000.00
02207           16400.00
02208           16800.00
02209           17200.00
02210           17400.00
02211           17600.00
02212           18000.00
02213           18400.00
02214           18600.00
02215           18800.00
02216           19200.00
02217           19600.00
02218           19800.00
02219           19800.00
02220           20200.00
02221           20400.00
02222           20600.00
02223           20800.00
02224           21200.00
02225           21200.00
02226           21600.00
02227           21600.00
02228           21800.00
02229           22000.00
02230           22200.00
02231           22400.00
02232           22400.00
02233           22600.00
02234           22800.00
02235           22800.00
02236           23000.00
02237           23000.00
02238           23200.00
02239           23200.00
02240           23400.00
02241           23400.00
02242           23600.00
02243           23600.00
02244           23600.00
02245           23800.00
02246           23800.00
02247           23800.00
02248           23800.00
02249           23800.00
02250           23600.00
02251           23800.00
02252           23800.00
02253           23600.00
02254           23600.00
02255           23600.00
02256           23400.00
02257           23400.00
02258           23200.00
02259           23200.00
02260           23200.00
02261           23000.00
02262           22800.00
02263           22800.00
02264           22800.00
02265           22600.00
02266           22400.00
02267           22400.00
02268           22200.00
02269           22000.00
02270           22000.00
02271           21600.00
02272           21600.00
02273           21400.00
02274           21200.00
02275           21000.00
02276           20800.00
02277           20600.00
02278           20400.00
02279           20000.00
02280           19800.00
02281           19600.00
02282           19200.00
02283           18800.00
02284           18800.00
02285           18400.00
02286           18200.00
02287           17800.00
02288           17400.00
02289           17200.00
02290           16800.00
02291           16600.00
02292           16400.00
02293           16000.00
02294           15600.00
02295           15200.00
02296           14800.00
02297           14600.00
02298           14400.00
02299           13800.00
02300           13400.00
02301           13200.00
02302           12800.00
02303           12400.00
02304           12000.00
02305           11600.00
02306           11200.00
02307           10800.00
02308           10400.00
02309           10000.00
02310            9600.00
02311            9400.00
02312            8800.00
02313            8400.00
02314            8000.00
02315            7600.00
02316            7000.00
02317            6600.00
02318            6200.00
02319            5800.00
02320            5400.00
02321            4800.00
02322            4400.00
02323            4000.00
02324            3400.00
02325            3000.00
02326            2800.00
02327            2200.00
02328            1800.00
02329            1400.00
02330             800.00
02331             400.00
02332               0.00
02333            -400.00
02334            -800.00
02335           -1200.00
02336           -1600.00
02337           -2000.00
02338           -2400.00
02339           -2800.00
02340           -3200.00
02341           -3600.00
02342           -4200.00
02343           -5000.00
02344           -5400.00
02345           -5800.00
02346           -6000.00
02347           -6200.00
02348           -6600.00
02349           -7200.00
02350           -7400.00
02351           -8200.00
02352           -8600.00
02353           -8800.00
02354           -9400.00
02355           -9800.00
02356          -10000.00
02357          -10600.00
02358          -10800.00
02359          -11200.00
02360          -12000.00
02361          -12000.00
02362          -12400.00
02363          -13000.00
02364          -13200.00
02365          -13600.00
02366          -13800.00
02367          -14400.00
02368          -14800.00
02369          -15200.00
02370          -15400.00
02371          -15800.00
02372          -16000.00
02373          -16400.00
02374          -16600.00
02375          -17200.00
02376          -17200.00
02377          -17800.00
02378          -18000.00
02379          -18400.00
02380          -18600.00
02381          -18800.00
02382          -19200.00
02383          -19400.00
02384          -19600.00
02385          -19800.00
02386          -20200.00
02387          -20400.00
02388          -20600.00
02389          -21000.00
02390          -21200.00
02391          -21200.00
02392          -21200.00
02393          -21600.00
02394          -21800.00
02395          -21800.00
02396          -22000.00
02397          -22400.00
02398          -22400.00
02399          -22600.00
02400          -22600.00
02401          -22800.00
02402          -22800.00
02403          -22800.00
02404          -23200.00
02405          -23200.00
02406          -23200.00
02407          -23200.00
02408          -23400.00
02409          -23400.00
02410          -23600.00
02411          -23400.00
02412          -23600.00
02413          -23600.00
02414          -23600.00
02415          -23600.00
02416          -23600.00
02417          -23600.00
02418          -23600.00
02419          -23400.00
02420          -23600.00
02421          -23400.00
02422          -23400.00
02423          -23200.00
02424          -23200.00
02425          -23200.00
02426          -23200.00
02427          -23000.00
02428          -22800.00
02429          -22600.00
02430          -22600.00
02431          -22600.00
02432          -22400.00
02433          -22400.00
02434          -22000.00
02435          -21800.00
02436          -21800.00
02437          -21600.00
02438          -21600.00
02439          -21200.00
02440          -21000.00
02441          -21000.00
02442          -20600.00
02443          -20400.00
02444          -20200.00
02445          -19800.00
02446          -19600.00
02447          -19400.00
02448          -19200.00
02449          -18800.00
02450          -18600.00
02451          -18400.00
02452          -17800.00
02453          -17600.00
02454          -17200.00
02455          -17000.00
02456          -16800.00
02457          -16400.00
02458          -16200.00
02459          -15800.00
02460          -15400.00
02461          -15200.00
02462          -14800.00
02463          -14600.00
02464          -14200.00
02465          -13600.00
02466          -13400.00
02467          -13000.00
02468          -12600.00
02469          -12200.00
02470          -12000.00
02471          -11400.00
02472          -11000.00
02473          -10600.00
02474          -10200.00
02475           -9800.00
02476           -9200.00
02477           -9000.00
02478           -8600.00
02479           -8200.00
02480           -7800.00
02481           -7200.00
02482           -6800.00
02483           -6400.00
02484           -6000.00
02485           -5600.00
02486           -5200.00
02487           -4600.00
02488           -4200.00
02489           -3800.00
02490           -3400.00
02491           -3000.00
02492           -2600.00
02493           -2000.00
02494           -1600.00
02495           -1200.00
02496            -800.00
02497            -200.00
02498               0.00
02499             400.00
02500             800.00
02501            1600.00
02502            1800.00
02503            2200.00
02504            2400.00
02505            3000.00
02506            3200.00
02507            3800.00
02508            4600.00
02509            4800.00
02510            5400.00
02511            5800.00
02512            6200.00
02513            6400.00
02514            7000.00
02515            7200.00
02516            7600.00
02517            8200.00
02518            8600.00
02519            8800.00
02520            9400.00
02521           10000.00
02522           10200.00
02523           10800.00
02524           11000.00
02525           11400.00
02526           12000.00
02527           12200.00
02528           12600.00
02529           12800.00
02530           13200.00
02531           13600.00
02532           14000.00
02533           14600.00
02534           15000.00
02535           15200.00
02536           15400.00
02537           16000.00
02538           16200.00
02539           16400.00
02540           17000.00
02541           17200.00
02542           17400.00
02543           17600.00
02544           18200.00
02545           18400.00
02546           18800.00
02547           19000.00
02548           19200.00
02549           19600.00
02550           19600.00
02551           19800.00
02552           20200.00
02553           20600.00
02554           20800.00
02555           21000.00
02556           21200.00
02557           21400.00
02558           21600.00
02559           21800.00
02560           22000.00
02561           22000.00
02562           22200.00
02563           22400.00
02564           22400.00
02565           22600.00
02566           22800.00
02567           23000.00
02568           23000.00
02569           23200.00
02570           23200.00
02571           23200.00
02572           23600.00
02573           23600.00
02574           23600.00
02575           23600.00
02576           23600.00
02577           23600.00
02578           23800.00
02579           23600.00
02580           23600.00
02581           23800.00
02582           23800.00
02583           23600.00
02584           23800.00
02585           23600.00
02586           23600.00
02587           23600.00
02588           23600.00
02589           23600.00
02590           23400.00
02591           23200.00
02592           23000.00
02593           23000.00
02594           23000.00
02595           22800.00
02596           22800.00
02597           22600.00
02598           22400.00
02599           22400.00
02600           22200.00
02601           22000.00
02602           22000.00
02603           21600.00
02604           21400.00
02605           21200.00
02606           21200.00
02607           20800.00
02608           20600.00
02609           20400.00
02610           20200.00
02611           20000.00
02612           20000.00
02613           19400.00
02614           19200.00
02615           18800.00
02616           18600.00
02617           18400.00
02618           18200.00
02619           17600.00
02620           17400.00
02621           17200.00
02622           16800.00
02623           16600.00
02624           16400.00
02625           16000.00
02626           15600.00
02627           15200.00
02628           14800.00
02629           14600.00
02630           14200.00
02631           13800.00
02632           13400.00
02633           13200.00
02634           12600.00
02635           12400.00
02636           12000.00
02637           11400.00
02638           11200.00
02639           10800.00
02640           10200.00
02641           10000.00
02642            9400.00
02643            9200.00
02644            8600.00
02645            8400.00
02646            7800.00
02647            7200.00
02648            7000.00
02649            6400.00
02650            6200.00
02651            5600.00
02652            5400.00
02653            4800.00
02654            4400.00
02655            4000.00
02656            3400.00
02657            3000.00
02658            2600.00
02659            2200.00
02660            1600.00
02661            1200.00
02662             800.00
02663             400.00
02664            -200.00
02665            -400.00
02666           -1000.00
02667           -1200.00
02668           -1800.00
02669           -2200.00
02670           -2600.00
02671           -3000.00
02672           -3400.00
02673           -3600.00
02674           -4400.00
02675           -5000.00
02676           -5600.00
02677           -5800.00
02678           -6000.00
02679           -6400.00
02680           -6800.00
02681           -7200.00
02682           -7600.00
02683           -8200.00
02684           -8600.00
02685           -8800.00
02686           -9400.00
02687           -9600.00
02688          -10400.00
02689          -10600.00
02690          -11000.00
02691          -11400.00
02692          -12000.00
02693          -12200.00
02694          -12400.00
02695          -13000.00
02696          -13200.00
02697          -13800.00
02698          -14000.00
02699          -14400.00
02700          -14800.00
02701          -15200.00
02702          -15400.00
02703          -15800.00
02704          -16200.00
02705          -16400.00
02706          -16800.00
02707          -17000.00
02708          -17400.00
02709          -17800.00
02710          -18000.00
02711          -18400.00
02712          -18600.00
02713          -18800.00
02714          -19400.00
02715          -19400.00
02716          -19800.00
02717          -20000.00
02718          -20200.00
02719          -20400.00
02720          -20600.00
02721          -20800.00
02722          -21000.00
02723          -21400.00
02724          -21400.00
02725          -21600.00
02726          -21800.00
02727          -22000.00
02728          -22200.00
02729          -22400.00
02730          -22600.00
02731          -22600.00
02732          -22600.00
02733          -22800.00
02734          -22800.00
02735          -23200.00
02736          -23200.00
02737          -23200.00
02738          -23200.00
02739          -23400.00
02740          -23400.00
02741          -23400.00
02742          -23600.00
02743          -23600.00
02744          -23600.00
02745          -23600.00
02746          -23600.00
02747          -23600.00
02748          -23600.00
02749          -23600.00
02750          -23600.00
02751          -23600.00
02752          -23400.00
02753          -23400.00
02754          -23400.00
02755          -23400.00
02756          -23200.00
02757          -23200.00
02758          -22800.00
02759          -22800.00
02760          -22800.00
02761          -22600.00
02762          -22800.00
02763          -22600.00
02764          -22400.00
02765          -22400.00
02766          -22000.00
02767          -21800.00
02768          -21800.00
02769          -21600.00
02770          -21600.00
02771          -21200.00
02772          -21000.00
02773          -20800.00
02774          -20600.00
02775          -20200.00
02776          -20000.00
02777          -19800.00
02778          -19600.00
02779          -19200.00
02780          -19200.00
02781          -18800.00
02782          -18400.00
02783          -18200.00
02784          -18000.00
02785          -17600.00
02786          -17200.00
02787          -17000.00
02788          -16800.00
02789          -16400.00
02790          -16000.00
02791          -15600.00
02792          -15400.00
02793          -15000.00
02794          -14600.00
02795          -14400.00
02796          -14000.00
02797          -13600.00
02798          -13200.00
02799          -13000.00
02800          -12400.00
02801          -12200.00
02802          -12000.00
02803          -11200.00
02804          -11000.00
02805          -10600.00
02806          -10000.00
02807           -9600.00
02808           -9400.00
02809           -8800.00
02810           -8400.00
02811           -8200.00
02812           -7600.00
02813           -7200.00
02814           -6800.00
02815           -6400.00
02816           -6000.00
02817           -5600.00
02818           -5000.00
02819           -4600.00
02820           -4200.00
02821           -3800.00
02822           -3400.00
02823           -2800.00
02824           -2400.00
02825           -2000.00
02826           -1600.00
02827           -1000.00
02828            -800.00
02829            -200.00
02830             200.00
02831             600.00
02832            1000.00
02833            1400.00
02834            2000.00
02835            2400.00
02836            2800.00
02837            3000.00
02838            3400.00
02839            4000.00
02840            4600.00
02841            4800.00
02842            5400.00
02843            6000.00
02844            6200.00
02845            6600.00
02846            7000.00
02847            7400.00
02848            7800.00
02849            8400.00
02850            8600.00
02851            9000.00
02852            9600.00
02853            9800.00
02854           10200.00
02855           10800.00
02856           11200.00
02857           11600.00
02858           12000.00
02859           12400.00
02860           12600.00
02861           13200.00
02862           13400.00
02863           13800.00
02864           14200.00
02865           14600.00
02866           14800.00
02867           15200.00
02868           15800.00
02869           15800.00
02870           16400.00
02871           16600.00
02872           16800.00
02873           17200.00
02874           17600.00
02875           17800.00
02876           18200.00
02877           18400.00
02878           18800.00
02879           19000.00
02880           19200.00
02881           19600.00
02882           19800.00
02883           20000.00
02884           20400.00
02885           20600.00
02886           20800.00
02887           21000.00
02888           21200.00
02889           21400.00
02890           21600.00
02891           21600.00
02892           22000.00
02893           22000.00
02894           22400.00
02895           22400.00
02896           22400.00
02897           22800.00
02898           22800.00
02899           23000.00
02900           23200.00
02901           23200.00
02902           23200.00
02903           23400.00
02904           23400.00
02905           23600.00
02906           23600.00
02907           23600.00
02908           23600.00
02909           23800.00
02910           23600.00
02911           23800.00
02912           23800.00
02913           23600.00
02914           23800.00
02915           23800.00
02916           23600.00
02917           23600.00
02918           23600.00
02919           23600.00
02920           23600.00
02921           23600.00
02922           23200.00
02923           23200.00
02924           23200.00
02925           23000.00
02926           23000.00
02927           22800.00
02928           22800.00
02929           22600.00
02930           22400.00
02931           22400.00
02932           22200.00
02933           22000.00
02934           22000.00
02935           21600.00
02936           21400.00
02937           21200.00
02938           21200.00
02939           20800.00
02940           20600.00
02941           20400.00
02942           20200.00
02943           20000.00
02944           19800.00
02945           19200.00
02946           19200.00
02947           19000.00
02948           18600.00
02949           18400.00
02950           18000.00
02951           17600.00
02952           17400.00
02953           17200.00
02954           16800.00
02955           16400.00
02956           16400.00
02957           15800.00
02958           15600.00
02959           15200.00
02960           14800.00
02961           14400.00
02962           14200.00
02963           13800.00
02964           13400.00
02965           13000.00
02966           12600.00
02967           12200.00
02968           12000.00
02969           11600.00
02970           11000.00
02971           10600.00
02972           10200.00
02973            9800.00
02974            9400.00
02975            9200.00
02976            8600.00
02977            8200.00
02978            7800.00
02979            7200.00
02980            7000.00
02981            6400.00
02982            6200.00
02983            5600.00
02984            5200.00
02985            4600.00
02986            4200.00
02987            3800.00
02988            3200.00
02989            3000.00
02990            2400.00
02991            2200.00
02992            1600.00
02993            1200.00
02994             800.00
02995             400.00
02996               0.00
02997            -400.00
02998           -1000.00
02999           -1400.00
03000           -1800.00
03001           -2000.00
03002           -2600.00
03003           -3200.00
03004           -3400.00
03005           -4000.00
03006           -4600.00
03007           -5200.00
03008           -5600.00
03009           -6000.00
03010           -6000.00
03011           -6400.00
03012           -7000.00
03013           -7400.00
03014           -7800.00
03015           -8400.00
03016           -8800.00
03017           -9200.00
03018           -9600.00
03019           -9800.00
03020          -10200.00
03021          -10800.00
03022          -11000.00
03023          -11600.00
03024          -12000.00
03025          -12200.00
03026          -12800.00
03027          -13200.00
03028          -13200.00
03029          -13800.00
03030          -14000.00
03031          -14400.00
03032          -15000.00
03033          -15200.00
03034          -15600.00
03035          -16000.00
03036          -16400.00
03037          -16600.00
03038          -16800.00
03039          -17200.00
03040          -17600.00
03041          -17800.00
03042          -18000.00
03043          -18400.00
03044          -18600.00
03045          -19200.00
03046          -19200.00
03047          -19600.00
03048          -19600.00
03049          -20000.00
03050          -20200.00
03051          -20400.00
03052          -20800.00
03053          -21000.00
03054          -21200.00
03055          -21200.00
03056          -21600.00
03057          -21600.00
03058          -22000.00
03059          -22000.00
03060          -22200.00
03061          -22400.00
03062          -22400.00
03063          -22600.00
03064          -22800.00
03065          -22800.00
03066          -22800.00
03067          -23200.00
03068          -23200.00
03069          -23200.00
03070          -23400.00
03071          -23400.00
03072          -23400.00
03073          -23600.00
03074          -23600.00
03075          -23400.00
03076          -23600.00
03077          -23600.00
03078          -23600.00
03079          -23600.00
03080          -23600.00
03081          -23600.00
03082          -23600.00
03083          -23600.00
03084          -23600.00
03085          -23400.00
03086          -23400.00
03087          -23400.00
03088          -23200.00
03089          -23200.00
03090          -23200.00
03091          -22800.00
03092          -22800.00
03093          -22800.00
03094          -22600.00
03095          -22600.00
03096          -22400.00
03097          -22200.00
03098          -21800.00
03099          -21800.00
03100          -21600.00
03101          -21600.00
03102          -21400.00
03103          -21000.00
03104          -21000.00
03105          -20800.00
03106          -20400.00
03107          -20200.00
03108          -20000.00
03109          -19600.00
03110          -19600.00
03111          -19200.00
03112          -19200.00
03113          -18800.00
03114          -18400.00
03115          -18000.00
03116          -17800.00
03117          -17600.00
03118          -17200.00
03119          -16800.00
03120          -16800.00
03121          -16400.00
03122          -16000.00
03123          -15600.00
03124          -15200.00
03125          -15000.00
03126          -14800.00
03127          -14400.00
03128          -14000.00
03129          -13600.00
03130          -13200.00
03131          -12800.00
03132          -12400.00
03133          -12000.00
03134          -11600.00
03135          -11200.00
03136          -11000.00
03137          -10400.00
03138          -10000.00
03139           -9600.00
03140           -9200.00
03141           -8800.00
03142           -8400.00
03143           -8000.00
03144           -7400.00
03145           -7200.00
03146           -6800.00
03147           -6400.00
03148           -5800.00
03149           -5200.00
03150           -4800.00
03151           -4400.00
03152           -4000.00
03153           -3600.00
03154           -3200.00
03155           -2600.00
03156           -2400.00
03157           -2000.00
03158           -1600.00
03159           -1000.00
03160            -600.00
03161            -200.00
03162             400.00
03163             600.00
03164            1200.00
03165            1600.00
03166            2000.00
03167            2200.00
03168            2800.00
03169            3200.00
03170            3600.00
03171            4000.00
03172            4600.00
03173            5200.00
03174            5600.00
03175            6000.00
03176            6200.00
03177            6600.00
03178            7200.00
03179            7600.00
03180            7800.00
03181            8400.00
03182            8800.00
03183            9000.00
03184            9600.00
03185           10000.00
03186           10400.00
03187           10800.00
03188           11200.00
03189           11800.00
03190           12000.00
03191           12400.00
03192           12800.00
03193           13200.00
03194           13600.00
03195           13800.00
03196           14400.00
03197           14600.00
03198           15000.00
03199           15200.00
03200           15800.00
03201           16000.00
03202           16400.00
03203           16600.00
03204           17000.00
03205           17400.00
03206           17600.00
03207           18000.00
03208           18400.00
03209           18600.00
03210           18800.00
03211           19000.00
03212           19400.00
03213           19600.00
03214           19800.00
03215           20200.00
03216           20400.00
03217           20800.00
03218           21000.00
03219           20800.00
03220           21200.00
03221           21600.00
03222           21600.00
03223           21600.00
03224           22000.00
03225           22200.00
03226           22200.00
03227           22400.00
03228           22400.00
03229           22800.00
03230           22800.00
03231           23000.00
03232           23200.00
03233           23200.00
03234           23200.00
03235           23400.00
03236           23600.00
03237           23600.00
03238           23600.00
03239           23600.00
03240           23600.00
03241           23800.00
03242           23800.00
03243           23800.00
03244           23600.00
03245           23600.00
03246           23800.00
03247           23800.00
03248           23600.00
03249           23600.00
03250           23600.00
03251           23400.00
03252           23600.00
03253           23400.00
03254           23200.00
03255           23200.00
03256           23200.00
03257           23200.00
03258           22800.00
03259           23000.00
03260           22800.00
03261           22600.00
03262           22400.00
03263           22200.00
03264           22200.00
03265           22000.00
03266           21800.00
03267           21600.00
03268           21400.00
03269           21200.00
03270           21200.00
03271           20800.00
03272           20400.00
03273           20400.00
03274           20000.00
03275           19800.00
03276           19600.00
03277           19400.00
03278           19200.00
03279           18800.00
03280           18600.00
03281           18200.00
03282           18000.00
03283           17600.00
03284           17400.00
03285           17200.00
03286           16800.00
03287           16400.00
03288           16000.00
03289           15800.00
03290           15600.00
03291           15000.00
03292           14800.00
03293           14400.00
03294           14000.00
03295           13600.00
03296           13400.00
03297           12800.00
03298           12400.00
03299           12000.00
03300           11800.00
03301           11400.00
03302           11000.00
03303           10400.00
03304           10200.00
03305            9600.00
03306            9200.00
03307            8800.00
03308            8400.00
03309            8400.00
03310            7600.00
03311            7200.00
03312            6800.00
03313            6200.00
03314            6000.00
03315            5400.00
03316            5200.00
03317            4600.00
03318            4200.00
03319            3800.00
03320            3400.00
03321            2800.00
03322            2400.00
03323            2000.00
03324            1600.00
03325            1000.00
03326             600.00
03327             200.00
03328            -200.00
03329            -800.00
03330           -1000.00
03331           -1600.00
03332           -2000.00
03333           -2400.00
03334           -2600.00
03335           -3200.00
03336           -3400.00
03337           -4000.00
03338           -4400.00
03339           -5200.00
03340           -5600.00
03341           -6000.00
03342           -6000.00
03343           -6600.00
03344           -7200.00
03345           -7400.00
03346           -8000.00
03347           -8400.00
03348           -8800.00
03349           -9200.00
03350           -9600.00
03351          -10000.00
03352          -10400.00
03353          -10800.00
03354          -11000.00
03355          -11600.00
03356          -12000.00
03357          -12400.00
03358          -12800.00
03359          -13200.00
03360          -13400.00
03361          -13800.00
03362          -14000.00
03363          -14600.00
03364          -15000.00
03365          -15200.00
03366          -15600.00
03367          -16000.00
03368          -16200.00
03369          -16800.00
03370          -16800.00
03371          -17200.00
03372          -17600.00
03373          -18000.00
03374          -18200.00
03375          -18600.00
03376          -18600.00
03377          -19200.00
03378          -19200.00
03379          -19600.00
03380          -19600.00
03381          -20000.00
03382          -20400.00
03383          -20600.00
03384          -20800.00
03385          -21000.00
03386          -21000.00
03387          -21200.00
03388          -21600.00
03389          -21600.00
03390          -21800.00
03391          -22000.00
03392          -22400.00
03393          -22400.00
03394          -22600.00
03395          -22600.00
03396          -22800.00
03397          -23000.00
03398          -23000.00
03399          -23200.00
03400          -23200.00
03401          -23400.00
03402          -23400.00
03403          -23400.00
03404          -23400.00
03405          -23400.00
03406          -23600.00
03407          -23600.00
03408          -23600.00
03409          -23600.00
03410          -23600.00
03411          -23600.00
03412          -23600.00
03413          -23600.00
03414          -23400.00
03415          -23600.00
03416          -23400.00
03417          -23200.00
03418          -23400.00
03419          -23200.00
03420          -23200.00
03421          -23200.00
03422          -23200.00
03423          -22800.00
03424          -22600.00
03425          -22800.00
03426          -22600.00
03427          -22400.00
03428          -22200.00
03429          -22200.00
03430          -22000.00
03431          -21800.00
03432          -21600.00
03433          -21400.00
03434          -21200.00
03435          -21000.00
03436          -20800.00
03437          -20800.00
03438          -20400.00
03439          -20200.00
03440          -20000.00
03441          -19600.00
03442          -19400.00
03443          -19200.00
03444          -19000.00
03445          -18600.00
03446          -18400.00
03447          -18000.00
03448          -17800.00
03449          -17400.00
03450          -17200.00
03451          -17000.00
03452          -16400.00
03453          -16200.00
03454          -16000.00
03455          -15600.00
03456          -15200.00
03457          -14800.00
03458          -14600.00
03459          -14000.00
03460          -13800.00
03461          -13600.00
03462          -13000.00
03463          -12800.00
03464          -12400.00
03465          -12000.00
03466          -11600.00
03467          -11200.00
03468          -10800.00
03469          -10400.00
03470           -9800.00
03471           -9600.00
03472           -9200.00
03473           -8800.00
03474           -8400.00
03475           -8000.00
03476           -7400.00
03477           -7000.00
03478           -6600.00
03479           -6200.00
03480           -5600.00
03481           -5400.00
03482           -4800.00
03483           -4400.00
03484           -4000.00
03485           -3600.00
03486           -3200.00
03487           -2800.00
03488           -2000.00
03489           -1800.00
03490           -1400.00
03491            -800.00
03492            -400.00
03493               0.00
03494             400.00
03495             800.00
03496            1200.00
03497            1800.00
03498            2000.00
03499            2400.00
03500            2800.00
03501            3200.00
03502            3600.00
03503            4000.00
03504            4600.00
03505            5200.00
03506            5600.00
03507            6200.00
03508            6400.00
03509            6800.00
03510            7200.00
03511            7600.00
03512            8000.00
03513            8400.00
03514            8800.00
03515            9200.00
03516            9600.00
03517           10000.00
03518           10400.00
03519           10800.00
03520           11200.00
03521           11800.00
03522           12200.00
03523           12400.00
03524           12800.00
03525           13400.00
03526           13600.00
03527           13800.00
03528           14400.00
03529           14800.00
03530           15000.00
03531           15400.00
03532           15800.00
03533           16000.00
03534           16400.00
03535           16800.00
03536           17000.00
03537           17400.00
03538           17600.00
03539           18000.00
03540           18400.00
03541           18600.00
03542           19000.00
03543           19200.00
03544           19600.00
03545           19600.00
03546           19800.00
03547           20200.00
03548           20400.00
03549           20600.00
03550           20800.00
03551           21000.00
03552           21200.00
03553           21600.00
03554           21600.00
03555           21600.00
03556           22000.00
03557           22200.00
03558           22400.00
03559           22600.00
03560           22600.00
03561           22600.00
03562           23000.00
03563           23000.00
03564           23200.00
03565           23200.00
03566           23200.00
03567           23400.00
03568           23400.00
03569           23600.00
03570           23600.00
03571           23600.00
03572           23600.00
03573           23600.00
03574           23800.00
03575           23600.00
03576           23800.00
03577           23600.00
03578           23800.00
03579           23600.00
03580           23600.00
03581           23600.00
03582           23600.00
03583           23600.00
03584           23400.00
03585           23400.00
03586           23200.00
03587           23200.00
03588           23000.00
03589           23000.00
03590           23000.00
03591           22800.00
03592           22600.00
03593           22400.00
03594           22400.00
03595           22200.00
03596           22200.00
03597           22000.00
03598           21800.00
03599           21600.00
03600           21400.00
03601           21200.00
03602           21000.00
03603           20800.00
03604           20600.00
03605           20400.00
03606           20000.00
03607           19800.00
03608           19600.00
03609           19200.00
03610           19000.00
03611           18800.00
03612           18400.00
03613           18200.00
03614           18000.00
03615           17400.00
03616           17200.00
03617           17000.00
03618           16600.00
03619           16400.00
03620           16000.00
03621           15600.00
03622           15200.00
03623           15000.00
03624           14600.00
03625           14400.00
03626           14000.00
03627           13600.00
03628           13200.00
03629           12800.00
03630           12400.00
03631           12000.00
03632           11800.00
03633           11400.00
03634           10800.00
03635           10400.00
03636           10000.00
03637            9600.00
03638            9200.00
03639            8800.00
03640            8400.00
03641            8000.00
03642            7600.00
03643            7200.00
03644            6800.00
03645            6400.00
03646            5800.00
03647            5400.00
03648            5000.00
03649            4400.00
03650            4000.00
03651            3600.00
03652            3200.00
03653            2800.00
03654            2400.00
03655            1800.00
03656            1400.00
03657            1200.00
03658             600.00
03659               0.00
03660            -200.00
03661            -800.00
03662           -1200.00
03663           -1600.00
03664           -2000.00
03665           -2400.00
03666           -2800.00
03667           -3200.00
03668           -3600.00
03669           -4200.00
03670           -4800.00
03671           -5400.00
03672           -5600.00
03673           -6000.00
03674           -6000.00
03675           -6600.00
03676           -7200.00
03677           -7400.00
03678           -8000.00
03679           -8400.00
03680           -8800.00
03681           -9200.00
03682           -9600.00
03683          -10000.00
03684          -10400.00
03685          -10800.00
03686          -11200.00
03687          -11600.00
03688          -12000.00
03689          -12400.00
03690          -13000.00
03691          -13200.00
03692          -13600.00
03693          -14000.00
03694          -14400.00
03695          -14800.00
03696          -15000.00
03697          -15400.00
03698          -15600.00
03699          -16000.00
03700          -16400.00
03701          -16800.00
03702          -17000.00
03703          -17400.00
03704          -17600.00
03705          -18000.00
03706          -18400.00
03707          -18400.00
03708          -18800.00
03709          -19200.00
03710          -19400.00
03711          -19600.00
03712          -20000.00
03713          -20000.00
03714          -20400.00
03715          -20800.00
03716          -20800.00
03717          -21000.00
03718          -21200.00
03719          -21200.00
03720          -21600.00
03721          -21600.00
03722          -22000.00
03723          -22200.00
03724          -22400.00
03725          -22400.00
03726          -22600.00
03727          -22800.00
03728          -22800.00
03729          -22800.00
03730          -23000.00
03731          -23200.00
03732          -23200.00
03733          -23200.00
03734          -23400.00
03735          -23600.00
03736          -23400.00
03737          -23400.00
03738          -23600.00
03739          -23600.00
03740          -23600.00
03741          -23600.00
03742          -23600.00
03743          -23400.00
03744          -23600.00
03745          -23600.00
03746          -23400.00
03747          -23400.00
03748          -23400.00
03749          -23200.00
03750          -23400.00
03751          -23400.00
03752          -23200.00
03753          -23000.00
03754          -22800.00
03755          -22800.00
03756          -22800.00
03757          -22600.00
03758          -22400.00
03759          -22400.00
03760          -22200.00
03761          -22000.00
03762          -21800.00
03763          -21800.00
03764          -21600.00
03765          -21200.00
03766          -21200.00
03767          -21000.00
03768          -20800.00
03769          -20400.00
03770          -20400.00
03771          -20200.00
03772          -20000.00
03773          -19600.00
03774          -19400.00
03775          -19200.00
03776          -18800.00
03777          -18600.00
03778          -18400.00
03779          -18200.00
03780          -17800.00
03781          -17400.00
03782          -17000.00
03783          -16800.00
03784          -16400.00
03785          -16200.00
03786          -15800.00
03787          -15600.00
03788          -15000.00
03789          -14800.00
03790          -14400.00
03791          -14200.00
03792          -13600.00
03793          -13400.00
03794          -13000.00
03795          -12800.00
03796          -12400.00
03797          -12000.00
03798          -11400.00
03799          -11200.00
03800          -10600.00
03801          -10400.00
03802           -9800.00
03803           -9600.00
03804           -9200.00
03805           -8800.00
03806           -8400.00
03807           -8000.00
03808           -7200.00
03809           -6800.00
03810           -6600.00
03811           -6000.00
03812           -5600.00
03813           -5200.00
03814           -4800.00
03815           -4400.00
03816           -4000.00
03817           -3400.00
03818           -3200.00
03819           -2600.00
03820           -2000.00
03821           -1800.00
03822           -1200.00
03823            -800.00
03824            -400.00
03825               0.00
03826             400.00
03827             800.00
03828            1200.00
03829            1800.00
03830            2000.00
03831            2600.00
03832            3000.00
03833            3200.00
03834            3800.00
03835            4400.00
03836            4800.00
03837            5400.00
03838            5600.00
03839            6200.00
03840            6400.00
03841            6800.00
03842            7200.00
03843            7600.00
03844            8200.00
03845            8600.00
03846            8800.00
03847            9400.00
03848            9800.00
03849           10000.00
03850           10600.00
03851           10800.00
03852           11200.00
03853           11800.00
03854           12200.00
03855           12400.00
03856           13000.00
03857           13200.00
03858           13600.00
03859           14000.00
03860           14600.00
03861           14800.00
03862           15200.00
03863           15600.00
03864           15800.00
03865           16000.00
03866           16400.00
03867           16800.00
03868           17000.00
03869           17600.00
03870           17800.00
03871           18200.00
03872           18400.00
03873           18800.00
03874           19000.00
03875           19200.00
03876           19400.00
03877           19600.00
03878           20000.00
03879           20200.00
03880           20600.00
03881           20800.00
03882           21000.00
03883           21200.00
03884           21400.00
03885           21600.00
03886           21600.00
03887           22000.00
03888           22000.00
03889           22200.00
03890           22400.00
03891           22400.00
03892           22600.00
03893           22800.00
03894           23000.00
03895           23000.00
03896           23200.00
03897           23200.00
03898           23200.00
03899           23400.00
03900           23600.00
03901           23600.00
03902           23600.00
03903           23800.00
03904           23600.00
03905           23600.00
03906           23600.00
03907           23800.00
03908           23800.00
03909           23800.00
03910           23800.00
03911           23600.00
03912           23600.00
03913           23600.00
03914           23600.00
03915           23600.00
03916           23400.00
03917           23200.00
03918           23200.00
03919           23200.00
03920           23200.00
03921           23000.00
03922           23000.00
03923           22800.00
03924           22800.00
03925           22400.00
03926           22400.00
03927           22200.00
03928           22000.00
03929           22000.00
03930           21600.00
03931           21600.00
03932           21400.00
03933           21200.00
03934           21000.00
03935           20600.00
03936           20600.00
03937           20200.00
03938           20000.00
03939           19600.00
03940           19600.00
03941           19200.00
03942           19000.00
03943           18800.00
03944           18400.00
03945           18200.00
03946           17600.00
03947           17400.00
03948           17200.00
03949           17000.00
03950           16400.00
03951           16400.00
03952           16000.00
03953           15600.00
03954           15200.00
03955           15000.00
03956           14600.00
03957           14200.00
03958           13800.00
03959           13400.00
03960           13200.00
03961           12800.00
03962           12400.00
03963           12000.00
03964           11600.00
03965           11200.00
03966           10800.00
03967           10200.00
03968           10000.00
03969            9400.00
03970            9200.00
03971            8600.00
03972            8400.00
03973            7800.00
03974            7600.00
03975            7000.00
03976            6800.00
03977            6200.00
03978            5600.00
03979            5400.00
03980            4800.00
03981            4400.00
03982            4000.00
03983            3600.00
03984            3200.00
03985            2800.00
03986            2200.00
03987            2000.00
03988            1400.00
03989             800.00
03990             400.00
03991               0.00
03992            -400.00
03993            -800.00
03994           -1200.00
03995           -1800.00
03996           -2200.00
03997           -2600.00
03998           -2800.00
03999           -3200.00
04000           -3600.00
04001           -4200.00
04002           -5000.00
04003           -5400.00
04004           -5800.00
04005           -6000.00
04006           -6000.00
04007           -6600.00
04008           -7200.00
04009           -7400.00
04010           -8200.00
04011           -8400.00
04012           -8800.00
04013           -9200.00
04014           -9600.00
04015          -10000.00
04016          -10400.00
04017          -10800.00
04018          -11200.00
04019          -11800.00
04020          -12200.00
04021          -12400.00
04022          -13000.00
04023          -13200.00
04024          -13800.00
04025          -14000.00
04026          -14400.00
04027          -14800.00
04028          -15200.00
04029          -15400.00
04030          -15800.00
04031          -16200.00
04032          -16400.00
04033          -16800.00
04034          -17200.00
04035          -17600.00
04036          -17800.00
04037          -18000.00
04038          -18400.00
04039          -18600.00
04040          -18800.00
04041          -19200.00
04042          -19400.00
04043          -19600.00
04044          -20000.00
04045          -20200.00
04046          -20400.00
04047          -20600.00
04048          -20800.00
04049          -21000.00
04050          -21200.00
04051          -21600.00
04052          -21600.00
04053          -21800.00
04054          -21800.00
04055          -22200.00
04056          -22400.00
04057          -22400.00
04058          -22600.00
04059          -22800.00
04060          -22800.00
04061          -22800.00
04062          -23200.00
04063          -23200.00
04064          -23200.00
04065          -23200.00
04066          -23400.00
04067          -23400.00
04068          -23400.00
04069          -23600.00
04070          -23600.00
04071          -23600.00
04072          -23600.00
04073          -23600.00
04074          -23600.00
04075          -23600.00
04076          -23600.00
04077          -23600.00
04078          -23600.00
04079          -23600.00
04080          -23400.00
04081          -23400.00
04082          -23200.00
04083          -23200.00
04084          -23200.00
04085          -23000.00
04086          -22800.00
04087          -22800.00
04088          -22800.00
04089          -22600.00
04090          -22600.00
04091          -22400.00
04092          -22200.00
04093          -22000.00
04094          -21800.00
04095          -21600.00
04096          -21600.00
04097          -21600.00
04098          -21200.00
04099          -21000.00
04100          -20800.00
04101          -20400.00
04102          -20400.00
04103          -20000.00
04104          -20000.00
04105          -19600.00
04106          -19400.00
04107          -19200.00
04108          -18800.00
04109          -18600.00
04110          -18200.00
04111          -18000.00
04112          -17600.00
04113          -17400.00
04114          -17000.00
04115          -16800.00
04116          -16400.00
04117          -16200.00
04118          -15800.00
04119          -15200.00
04120          -15200.00
04121          -14800.00
04122          -14400.00
04123          -14200.00
04124          -13800.00
04125          -13200.00
04126          -13000.00
04127          -12600.00
04128          -12200.00
04129          -12000.00
04130          -11400.00
04131          -11000.00
04132          -10600.00
04133          -10200.00
04134           -9800.00
04135           -9400.00
04136           -9000.00
04137           -8400.00
04138           -8200.00
04139           -7800.00
04140           -7200.00
04141           -6800.00
04142           -6400.00
04143           -6000.00
04144           -5600.00
04145           -5000.00
04146           -4600.00
04147           -4200.00
04148           -4000.00
04149           -3200.00
04150           -2800.00
04151           -2600.00
04152           -2000.00
04153           -1800.00
04154           -1200.00
04155            -800.00
04156            -200.00
04157               0.00
04158             600.00
04159             800.00
04160            1400.00
04161            2000.00
04162            2400.00
04163            2600.00
04164            3000.00
04165            3600.00
04166            3800.00
04167            4400.00
04168            5000.00
04169            5600.00
04170            6000.00
04171            6200.00
04172            6400.00
04173            6800.00
04174            7400.00
04175            7800.00
04176            8200.00
04177            8600.00
04178            9000.00
04179            9400.00
04180           10000.00
04181           10200.00
04182           10800.00
04183           11000.00
04184           11400.00
04185           12000.00
04186           12200.00
04187           12600.00
04188           13000.00
04189           13400.00
04190           13800.00
04191           14200.00
04192           14600.00
04193           14800.00
04194           15200.00
04195           15600.00
04196           16000.00
04197           16400.00
04198           16600.00
04199           16800.00
04200           17200.00
04201           17600.00
04202           17600.00
04203           18200.00
04204           18400.00
04205           18600.00
04206           19000.00
04207           19400.00
04208           19600.00
04209           19600.00
04210           20000.00
04211           20400.00
04212           20600.00
04213           20600.00
04214           21000.00
04215           21200.00
04216           21400.00
04217           21400.00
04218           21600.00
04219           22000.00
04220           22000.00
04221           22200.00
04222           22400.00
04223           22400.00
04224           22800.00
04225           22800.00
04226           23000.00
04227           23000.00
04228           23200.00
04229           23000.00
04230           23200.00
04231           23400.00
04232           23400.00
04233           23600.00
04234           23600.00
04235           23600.00
04236           23800.00
04237           23600.00
04238           23800.00
04239           23800.00
04240           23800.00
04241           23800.00
04242           23800.00
04243           23800.00
04244           23600.00
04245           23600.00
04246           23400.00
04247           23600.00
04248           23400.00
04249           23200.00
04250           23200.00
04251           23000.00
04252           23000.00
04253           22800.00
04254           22800.00
04255           22800.00
04256           22600.00
04257           22400.00
04258           22400.00
04259           22200.00
04260           22000.00
04261           21800.00
04262           21600.00
04263           21400.00
04264           21200.00
04265           21200.00
04266           20800.00
04267           20800.00
04268           20400.00
04269           20000.00
04270           20000.00
04271           19600.00
04272           19600.00
04273           19200.00
04274           18800.00
04275           18600.00
04276           18400.00
04277           18000.00
04278           17600.00
04279           17400.00
04280           17200.00
04281           16800.00
04282           16400.00
04283           16000.00
04284           16000.00
04285           15600.00
04286           15200.00
04287           14800.00
04288           14400.00
04289           14200.00
04290           13800.00
04291           13400.00
04292           13200.00
04293           12600.00
04294           12400.00
04295           11800.00
04296           11400.00
04297           11200.00
04298           10800.00
04299           10400.00
04300           10000.00
04301            9400.00
04302            9200.00
04303            8800.00
04304            8000.00
04305            7800.00
04306            7400.00
04307            6800.00
04308            6600.00
04309            6200.00
04310            5800.00
04311            5200.00
04312            4800.00
04313            4400.00
04314            3800.00
04315            3400.00
04316            3000.00
04317            2800.00
04318            2200.00
04319            1600.00
04320            1200.00
04321             800.00
04322             400.00
04323               0.00
04324            -400.00
04325            -800.00
04326           -1600.00
04327           -1800.00
04328           -2000.00
04329           -2600.00
04330           -3000.00
04331           -3200.00
04332           -3600.00
04333           -4400.00
04334           -5000.00
04335           -5400.00
04336           -5800.00
04337           -6000.00
04338           -6200.00
04339           -6800.00
04340           -7400.00
04341           -7600.00
04342           -8400.00
04343           -8600.00
04344           -9000.00
04345           -9600.00
04346           -9800.00
04347          -10200.00
04348          -10800.00
04349          -10800.00
04350          -11400.00
04351          -12000.00
04352          -12200.00
04353          -12600.00
04354          -13000.00
04355          -13400.00
04356          -13800.00
04357          -14000.00
04358          -14600.00
04359          -14800.00
04360          -15200.00
04361          -15600.00
04362          -16000.00
04363          -16200.00
04364          -16400.00
04365          -17000.00
04366          -17000.00
04367          -17600.00
04368          -17800.00
04369          -18000.00
04370          -18400.00
04371          -18600.00
04372          -19000.00
04373          -19200.00
04374          -19400.00
04375          -19800.00
04376          -20000.00
04377          -20200.00
04378          -20400.00
04379          -20800.00
04380          -20800.00
04381          -21000.00
04382          -21200.00
04383          -21400.00
04384          -21600.00
04385          -21800.00
04386          -22000.00
04387          -22000.00
04388          -22400.00
04389          -22400.00
04390          -22600.00
04391          -22600.00
04392          -22800.00
04393          -23000.00
04394          -23200.00
04395          -23200.00
04396          -23200.00
04397          -23200.00
04398          -23400.00
04399          -23400.00
04400          -23400.00
04401          -23600.00
04402          -23600.00
04403          -23600.00
04404          -23600.00
04405          -23600.00
04406          -23600.00
04407          -23600.00
04408          -23600.00
04409          -23600.00
04410          -23600.00
04411          -23400.00
04412          -23400.00
04413          -23200.00
04414          -23200.00
04415          -23200.00
04416          -23200.00
04417          -23000.00
04418          -22800.00
04419          -22800.00
04420          -22800.00
04421          -22600.00
04422          -22600.00
04423          -22400.00
04424          -22200.00
04425          -22000.00
04426          -21800.00
04427          -21800.00
04428          -21600.00
04429          -21400.00
04430          -21200.00
04431          -21000.00
04432          -20800.00
04433          -20400.00
04434          -20200.00
04435          -20000.00
04436          -20000.00
04437          -19600.00
04438          -19400.00
04439          -19200.00
04440          -18800.00
04441          -18400.00
04442          -18000.00
04443          -18000.00
04444          -17400.00
04445          -17200.00
04446          -17000.00
04447          -16600.00
04448          -16400.00
04449          -16000.00
04450          -15600.00
04451          -15200.00
04452          -15000.00
04453          -14800.00
04454          -14400.00
04455          -13800.00
04456          -13600.00
04457          -13200.00
04458          -12800.00
04459          -12400.00
04460          -12200.00
04461          -11600.00
04462          -11400.00
04463          -10800.00
04464          -10400.00
04465          -10200.00
04466           -9800.00
04467           -9400.00
04468           -8800.00
04469           -8400.00
04470           -8000.00
04471           -7800.00
04472           -7200.00
04473           -6800.00
04474           -6400.00
04475           -6000.00
04476           -5400.00
04477           -5000.00
04478           -4400.00
04479           -4200.00
04480           -3600.00
04481           -3200.00
04482           -2800.00
04483           -2400.00
04484           -2000.00
04485           -1600.00
04486           -1000.00
04487            -600.00
04488            -200.00
04489             400.00
04490             600.00
04491            1200.00
04492            1800.00
04493            2000.00
04494            2400.00
04495            2800.00
04496            3200.00
04497            3600.00
04498            4000.00
04499            4400.00
04500            5200.00
04501            5600.00
04502            6000.00
04503            6200.00
04504            6400.00
04505            7000.00
04506            7200.00
04507            7800.00
04508            8400.00
04509            8800.00
04510            9000.00
04511            9600.00
04512           10000.00
04513           10200.00
04514           10800.00
04515           11200.00
04516           11600.00
04517           11800.00
04518           12200.00
04519           12800.00
04520           13000.00
04521           13400.00
04522           13800.00
04523           14200.00
04524           14600.00
04525           15000.00
04526           15200.00
04527           15600.00
04528           16000.00
04529           16200.00
04530           16800.00
04531           16800.00
04532           17200.00
04533           17600.00
04534           18000.00
04535           18400.00
04536           18400.00
04537           18800.00
04538           19200.00
04539           19200.00
04540           19600.00
04541           19800.00
04542           20000.00
04543           20400.00
04544           20400.00
04545           20600.00
04546           21200.00
04547           21200.00
04548           21400.00
04549           21400.00
04550           21600.00
04551           22000.00
04552           22000.00
04553           22200.00
04554           22400.00
04555           22400.00
04556           22600.00
04557           22800.00
04558           23000.00
04559           23000.00
04560           23000.00
04561           23200.00
04562           23400.00
04563           23200.00
04564           23600.00
04565           23600.00
04566           23600.00
04567           23600.00
04568           23600.00
04569           23600.00
04570           23800.00
04571           23600.00
04572           23600.00
04573           23800.00
04574           23600.00
04575           23600.00
04576           23600.00
04577           23600.00
04578           23600.00
04579           23600.00
04580           23200.00
04581           23200.00
04582           23200.00
04583           23200.00
04584           23000.00
04585           23000.00
04586           23000.00
04587           22800.00
04588           22600.00
04589           22400.00
04590           22400.00
04591           22200.00
04592           22000.00
04593           22000.00
04594           21600.00
04595           21400.00
04596           21400.00
04597           21200.00
04598           20800.00
04599           20800.00
04600           20400.00
04601           20200.00
04602           19800.00
04603           19600.00
04604           19400.00
04605           19200.00
04606           18800.00
04607           18400.00
04608           18400.00
04609           18000.00
04610           17600.00
04611           17400.00
04612           17200.00
04613           16600.00
04614           16400.00
04615           16000.00
04616           15800.00
04617           15600.00
04618           15000.00
04619           14800.00
04620           14400.00
04621           14000.00
04622           13600.00
04623           13400.00
04624           12800.00
04625           12600.00
04626           12000.00
04627           11800.00
04628           11400.00
04629           11000.00
04630           10400.00
04631           10200.00
04632            9800.00
04633            9400.00
04634            9200.00
04635            8600.00
04636            8200.00
04637            7600.00
04638            7400.00
04639            6800.00
04640            6400.00
04641            6000.00
04642            5600.00
04643            5000.00
04644            4600.00
04645            4200.00
04646            3800.00
04647            3200.00
04648            3000.00
04649            2400.00
04650            2000.00
04651            1600.00
04652            1000.00
04653             800.00
04654             200.00
04655            -200.00
04656            -600.00
04657            -800.00
04658           -1600.00
04659           -1800.00
04660           -2400.00
04661           -2600.00
04662           -3200.00
04663           -3400.00
04664           -4000.00
04665           -4400.00
04666           -5200.00
04667           -5600.00
04668           -5800.00
04669           -6000.00
04670           -6400.00
04671           -7200.00
04672           -7400.00
04673           -7800.00
04674           -8200.00
04675           -8800.00
04676           -9000.00
04677           -9600.00
04678           -9800.00
04679          -10000.00
04680          -10800.00
04681          -11000.00
04682          -11400.00
04683          -12000.00
04684          -12200.00
04685          -12800.00
04686          -13000.00
04687          -13600.00
04688          -13800.00
04689          -14200.00
04690          -14400.00
04691          -14800.00
04692          -15200.00
04693          -15600.00
04694          -15800.00
04695          -16200.00
04696          -16600.00
04697          -16800.00
04698          -17200.00
04699          -17400.00
04700          -17800.00
04701          -18400.00
04702          -18400.00
04703          -18800.00
04704          -19200.00
04705          -19200.00
04706          -19400.00
04707          -19800.00
04708          -20000.00
04709          -20200.00
04710          -20400.00
04711          -20600.00
04712          -21000.00
04713          -21200.00
04714          -21200.00
04715          -21600.00
04716          -21800.00
04717          -21800.00
04718          -22000.00
04719          -22000.00
04720          -22400.00
04721          -22400.00
04722          -22600.00
04723          -22800.00
04724          -22800.00
04725          -22800.00
04726          -23200.00
04727          -23200.00
04728          -23200.00
04729          -23400.00
04730          -23200.00
04731          -23400.00
04732          -23600.00
04733          -23400.00
04734          -23600.00
04735          -23600.00
04736          -23600.00
04737          -23600.00
04738          -23600.00
04739          -23400.00
04740          -23600.00
04741          -23600.00
04742          -23600.00
04743          -23400.00
04744          -23400.00
04745          -23200.00
04746          -23200.00
04747          -23200.00
04748          -23200.00
04749          -23000.00
04750          -22800.00
04751          -22800.00
04752          -22600.00
04753          -22600.00
04754          -22400.00
04755          -22400.00
04756          -22000.00
04757          -22000.00
04758          -22000.00
04759          -21800.00
04760          -21400.00
04761          -21200.00
04762          -21200.00
04763          -20800.00
04764          -20600.00
04765          -20400.00
04766          -20200.00
04767          -20000.00
04768          -19600.00
04769          -19400.00
04770          -19400.00
04771          -18800.00
04772          -18800.00
04773          -18400.00
04774          -18200.00
04775          -17800.00
04776          -17600.00
04777          -17200.00
04778          -17000.00
04779          -16400.00
04780          -16200.00
04781          -16000.00
04782          -15600.00
04783          -15400.00
04784          -15000.00
04785          -14600.00
04786          -14400.00
04787          -13800.00
04788          -13600.00
04789          -13200.00
04790          -12800.00
04791          -12400.00
04792          -12000.00
04793          -11600.00
04794          -11200.00
04795          -10800.00
04796          -10400.00
04797          -10000.00
04798           -9600.00
04799           -9200.00
04800           -8800.00
04801           -8400.00
04802           -8000.00
04803           -7600.00
04804           -7000.00
04805           -6600.00
04806           -6200.00
04807           -5800.00
04808           -5200.00
04809           -4800.00
04810           -4400.00
04811           -4000.00
04812           -3600.00
04813           -3200.00
04814           -2800.00
04815           -2400.00
04816           -1800.00
04817           -1400.00
04818           -1000.00
04819            -800.00
04820               0.00
04821             400.00
04822             800.00
04823            1200.00
04824            1600.00
04825            2000.00
04826            2400.00
04827            2800.00
04828            3200.00
04829            3600.00
04830            4000.00
04831            4600.00
04832            5200.00
04833            5600.00
04834            6000.00
04835            6400.00
04836            6600.00
04837            7000.00
04838            7600.00
04839            8000.00
04840            8400.00
04841            8800.00
04842            9200.00
04843            9800.00
04844           10000.00
04845           10400.00
04846           11000.00
04847           11200.00
04848           11800.00
04849           12000.00
04850           12400.00
04851           12800.00
04852           13200.00
04853           13600.00
04854           14000.00
04855           14400.00
04856           14800.00
04857           15000.00
04858           15400.00
04859           15600.00
04860           15800.00
04861           16400.00
04862           16800.00
04863           16800.00
04864           17200.00
04865           17600.00
04866           18000.00
04867           18400.00
04868           18400.00
04869           19000.00
04870           19200.00
04871           19400.00
04872           19600.00
04873           19800.00
04874           20000.00
04875           20400.00
04876           20600.00
04877           20800.00
04878           21000.00
04879           21200.00
04880           21400.00
04881           21600.00
04882           21800.00
04883           22000.00
04884           22000.00
04885           22400.00
04886           22400.00
04887           22600.00
04888           22800.00
04889           22800.00
04890           23000.00
04891           23000.00
04892           23200.00
04893           23200.00
04894           23200.00
04895           23400.00
04896           23600.00
04897           23600.00
04898           23600.00
04899           23600.00
04900           23800.00
04901           23600.00
04902           23800.00
04903           23600.00
04904           23600.00
04905           23800.00
04906           23600.00
04907           23800.00
04908           23600.00
04909           23600.00
04910           23600.00
04911           23200.00
04912           23400.00
04913           23200.00
04914           23200.00
04915           23200.00
04916           23000.00
04917           23000.00
04918           22800.00
04919           22600.00
04920           22400.00
04921           22400.00
04922           22200.00
04923           22000.00
04924           22000.00
04925           21600.00
04926           21600.00
04927           21400.00
04928           21200.00
04929           21000.00
04930           20800.00
04931           20600.00
04932           20400.00
04933           20000.00
04934           19800.00
04935           19600.00
04936           19400.00
04937           19000.00
04938           18800.00
04939           18800.00
04940           18200.00
04941           17800.00
04942           17600.00
04943           17400.00
04944           16800.00
04945           16800.00
04946           16400.00
04947           16200.00
04948           15800.00
04949           15600.00
04950           15000.00
04951           14800.00
04952           14400.00
04953           14000.00
04954           13400.00
04955           13200.00
04956           12800.00
04957           12600.00
04958           12200.00
04959           11800.00
04960           11200.00
04961           11000.00
04962           10400.00
04963           10200.00
04964            9600.00
04965            9200.00
04966            8800.00
04967            8400.00
04968            8000.00
04969            7600.00
04970            7200.00
04971            6800.00
04972            6400.00
04973            6000.00
04974            5600.00
04975            5000.00
04976            4400.00
04977            4000.00
04978            3600.00
04979            3200.00
04980            2800.00
04981            2200.00
04982            2000.00
04983            1400.00
04984             800.00
04985             600.00
04986             200.00
04987            -200.00
04988            -600.00
04989           -1200.00
04990           -1600.00
04991           -1800.00
04992           -2400.00
04993           -2800.00
04994           -3000.00
04995           -3400.00
04996           -4000.00
04997           -4800.00
04998           -5200.00
04999           -5600.00
05000           -6000.00
