Unit:(mV)
                     CH2
Frequency    301.379 kHz
00001            1800.00
00002            1600.00
00003            1400.00
00004            1000.00
00005            1000.00
00006             800.00
00007             600.00
00008             400.00
00009             200.00
00010               0.00
00011            -200.00
00012            -200.00
00013            -400.00
00014            -600.00
00015            -800.00
00016           -1000.00
00017           -1200.00
00018           -1400.00
00019           -1600.00
00020           -1800.00
00021           -2200.00
00022           -2600.00
00023           -2400.00
00024           -2200.00
00025           -2800.00
00026           -3200.00
00027           -3000.00
00028           -3000.00
00029           -3600.00
00030           -3600.00
00031           -3600.00
00032           -4000.00
00033           -4200.00
00034           -4400.00
00035           -4400.00
00036           -4800.00
00037           -4800.00
00038           -5200.00
00039           -5200.00
00040           -5200.00
00041           -5600.00
00042           -5600.00
00043           -5800.00
00044           -6000.00
00045           -6200.00
00046           -6400.00
00047           -6400.00
00048           -6600.00
00049           -6800.00
00050           -7000.00
00051           -7200.00
00052           -7200.00
00053           -7400.00
00054           -7400.00
00055           -7600.00
00056           -7800.00
00057           -8000.00
00058           -8000.00
00059           -8200.00
00060           -8200.00
00061           -8400.00
00062           -8400.00
00063           -8400.00
00064           -8400.00
00065           -8800.00
00066           -8800.00
00067           -9000.00
00068           -9000.00
00069           -9200.00
00070           -9200.00
00071           -9200.00
00072           -9200.00
00073           -9400.00
00074           -9600.00
00075           -9600.00
00076           -9600.00
00077           -9600.00
00078           -9600.00
00079           -9800.00
00080           -9800.00
00081          -10000.00
00082           -9800.00
00083          -10000.00
00084          -10000.00
00085          -10000.00
00086          -10000.00
00087          -10000.00
00088          -10000.00
00089          -10000.00
00090          -10000.00
00091          -10000.00
00092          -10000.00
00093          -10000.00
00094          -10000.00
00095          -10000.00
00096          -10000.00
00097          -10000.00
00098          -10000.00
00099          -10000.00
00100          -10000.00
00101          -10000.00
00102          -10000.00
00103          -10000.00
00104           -9800.00
00105           -9800.00
00106           -9800.00
00107           -9800.00
00108           -9600.00
00109           -9800.00
00110           -9600.00
00111           -9600.00
00112           -9400.00
00113           -9400.00
00114           -9200.00
00115           -9200.00
00116           -9000.00
00117           -9200.00
00118           -9000.00
00119           -8800.00
00120           -8800.00
00121           -8800.00
00122           -8600.00
00123           -8400.00
00124           -8400.00
00125           -8400.00
00126           -8200.00
00127           -8200.00
00128           -8000.00
00129           -7800.00
00130           -7600.00
00131           -7600.00
00132           -7400.00
00133           -7200.00
00134           -7200.00
00135           -7000.00
00136           -6800.00
00137           -6600.00
00138           -6600.00
00139           -6400.00
00140           -6400.00
00141           -6000.00
00142           -6000.00
00143           -5800.00
00144           -5800.00
00145           -5600.00
00146           -5200.00
00147           -5200.00
00148           -5000.00
00149           -5000.00
00150           -4600.00
00151           -4400.00
00152           -4400.00
00153           -4200.00
00154           -4000.00
00155           -3800.00
00156           -3600.00
00157           -3400.00
00158           -3200.00
00159           -3200.00
00160           -3000.00
00161           -2800.00
00162           -2600.00
00163           -2400.00
00164           -2200.00
00165           -2000.00
00166           -1800.00
00167           -1600.00
00168           -1600.00
00169           -1200.00
00170           -1000.00
00171           -1000.00
00172            -600.00
00173            -400.00
00174            -200.00
00175            -200.00
00176               0.00
00177             400.00
00178             400.00
00179             600.00
00180             800.00
00181            1000.00
00182            1200.00
00183            1400.00
00184            1400.00
00185            1800.00
00186            2000.00
00187            2200.00
00188            2400.00
00189            2400.00
00190            2600.00
00191            2800.00
00192            3000.00
00193            3000.00
00194            3400.00
00195            3600.00
00196            3600.00
00197            3800.00
00198            4000.00
00199            4400.00
00200            4400.00
00201            4600.00
00202            4600.00
00203            5000.00
00204            5200.00
00205            5200.00
00206            5400.00
00207            5600.00
00208            5800.00
00209            6000.00
00210            6200.00
00211            6400.00
00212            6400.00
00213            6400.00
00214            6600.00
00215            7000.00
00216            7000.00
00217            7200.00
00218            7200.00
00219            7400.00
00220            7600.00
00221            7800.00
00222            7800.00
00223            8000.00
00224            8200.00
00225            8200.00
00226            8400.00
00227            8400.00
00228            8600.00
00229            8600.00
00230            8800.00
00231            8800.00
00232            8800.00
00233            9000.00
00234            9200.00
00235            9200.00
00236            9400.00
00237            9400.00
00238            9400.00
00239            9600.00
00240            9600.00
00241            9600.00
00242            9600.00
00243            9800.00
00244            9800.00
00245            9800.00
00246           10000.00
00247           10000.00
00248           10000.00
00249           10000.00
00250           10000.00
00251           10200.00
00252           10000.00
00253           10200.00
00254           10200.00
00255           10200.00
00256           10200.00
00257           10200.00
00258           10200.00
00259           10200.00
00260           10200.00
00261           10200.00
00262           10200.00
00263           10200.00
00264           10200.00
00265           10200.00
00266           10000.00
00267           10000.00
00268           10000.00
00269           10000.00
00270           10000.00
00271           10000.00
00272           10000.00
00273            9800.00
00274            9600.00
00275            9600.00
00276            9600.00
00277            9600.00
00278            9600.00
00279            9400.00
00280            9200.00
00281            9200.00
00282            9200.00
00283            9200.00
00284            9000.00
00285            8800.00
00286            8800.00
00287            8800.00
00288            8600.00
00289            8600.00
00290            8400.00
00291            8400.00
00292            8400.00
00293            8200.00
00294            8200.00
00295            8000.00
00296            7800.00
00297            7800.00
00298            7600.00
00299            7400.00
00300            7200.00
00301            7000.00
00302            7000.00
00303            7000.00
00304            6800.00
00305            6600.00
00306            6400.00
00307            6200.00
00308            6200.00
00309            6000.00
00310            6000.00
00311            5600.00
00312            5600.00
00313            5400.00
00314            5200.00
00315            4800.00
00316            4800.00
00317            4600.00
00318            4400.00
00319            4200.00
00320            4000.00
00321            3800.00
00322            3800.00
00323            3400.00
00324            3400.00
00325            3200.00
00326            3000.00
00327            3000.00
00328            2600.00
00329            2400.00
00330            2200.00
00331            2000.00
00332            2000.00
00333            1600.00
00334            1600.00
00335            1400.00
00336            1200.00
00337             800.00
00338             600.00
00339             600.00
00340             400.00
00341               0.00
00342               0.00
00343            -200.00
00344            -400.00
00345            -600.00
00346            -800.00
00347            -800.00
00348           -1000.00
00349           -1200.00
00350           -1400.00
00351           -1800.00
00352           -2000.00
00353           -2400.00
00354           -2600.00
00355           -2400.00
00356           -2400.00
00357           -2800.00
00358           -3000.00
00359           -3000.00
00360           -3200.00
00361           -3600.00
00362           -3600.00
00363           -3600.00
00364           -4200.00
00365           -4200.00
00366           -4200.00
00367           -4600.00
00368           -4800.00
00369           -4800.00
00370           -5000.00
00371           -5200.00
00372           -5200.00
00373           -5600.00
00374           -5800.00
00375           -5800.00
00376           -6000.00
00377           -6000.00
00378           -6400.00
00379           -6600.00
00380           -6600.00
00381           -6800.00
00382           -7000.00
00383           -7000.00
00384           -7200.00
00385           -7400.00
00386           -7400.00
00387           -7600.00
00388           -7800.00
00389           -8000.00
00390           -8000.00
00391           -8200.00
00392           -8200.00
00393           -8400.00
00394           -8400.00
00395           -8400.00
00396           -8800.00
00397           -8800.00
00398           -8800.00
00399           -9000.00
00400           -9000.00
00401           -9000.00
00402           -9200.00
00403           -9200.00
00404           -9200.00
00405           -9600.00
00406           -9600.00
00407           -9600.00
00408           -9600.00
00409           -9600.00
00410           -9800.00
00411           -9600.00
00412           -9800.00
00413           -9800.00
00414          -10000.00
00415          -10000.00
00416          -10000.00
00417          -10000.00
00418          -10000.00
00419          -10000.00
00420          -10000.00
00421          -10000.00
00422          -10000.00
00423          -10000.00
00424          -10000.00
00425          -10200.00
00426          -10000.00
00427          -10000.00
00428          -10000.00
00429          -10000.00
00430          -10000.00
00431          -10000.00
00432          -10000.00
00433          -10000.00
00434          -10000.00
00435          -10000.00
00436           -9800.00
00437           -9800.00
00438           -9800.00
00439           -9600.00
00440           -9600.00
00441           -9600.00
00442           -9600.00
00443           -9600.00
00444           -9600.00
00445           -9400.00
00446           -9200.00
00447           -9200.00
00448           -9200.00
00449           -9000.00
00450           -8800.00
00451           -8800.00
00452           -9000.00
00453           -8800.00
00454           -8600.00
00455           -8400.00
00456           -8200.00
00457           -8200.00
00458           -8200.00
00459           -8200.00
00460           -8000.00
00461           -7600.00
00462           -7600.00
00463           -7400.00
00464           -7400.00
00465           -7400.00
00466           -7200.00
00467           -7000.00
00468           -6800.00
00469           -6800.00
00470           -6600.00
00471           -6400.00
00472           -6200.00
00473           -6000.00
00474           -6000.00
00475           -5800.00
00476           -5600.00
00477           -5600.00
00478           -5200.00
00479           -5000.00
00480           -5000.00
00481           -4600.00
00482           -4600.00
00483           -4400.00
00484           -4200.00
00485           -4000.00
00486           -4000.00
00487           -3800.00
00488           -3600.00
00489           -3600.00
00490           -3200.00
00491           -3000.00
00492           -2800.00
00493           -2600.00
00494           -2400.00
00495           -2400.00
00496           -2200.00
00497           -2000.00
00498           -1800.00
00499           -1600.00
00500           -1400.00
00501           -1200.00
00502            -800.00
00503            -800.00
00504            -800.00
00505            -400.00
00506            -400.00
00507               0.00
00508               0.00
00509             400.00
00510             600.00
00511             600.00
00512             800.00
00513            1200.00
00514            1200.00
00515            1400.00
00516            1600.00
00517            1800.00
00518            2000.00
00519            2200.00
00520            2400.00
00521            2400.00
00522            2600.00
00523            3000.00
00524            3000.00
00525            3200.00
00526            3400.00
00527            3600.00
00528            3600.00
00529            4000.00
00530            4200.00
00531            4200.00
00532            4400.00
00533            4600.00
00534            4800.00
00535            5200.00
00536            5200.00
00537            5200.00
00538            5600.00
00539            5800.00
00540            5800.00
00541            6000.00
00542            6200.00
00543            6200.00
00544            6400.00
00545            6600.00
00546            6800.00
00547            7000.00
00548            7200.00
00549            7200.00
00550            7200.00
00551            7200.00
00552            7600.00
00553            7800.00
00554            7800.00
00555            8200.00
00556            8200.00
00557            8400.00
00558            8400.00
00559            8400.00
00560            8600.00
00561            8800.00
00562            8800.00
00563            8800.00
00564            9000.00
00565            9000.00
00566            9200.00
00567            9200.00
00568            9400.00
00569            9400.00
00570            9400.00
00571            9400.00
00572            9600.00
00573            9600.00
00574            9600.00
00575            9600.00
00576            9800.00
00577            9800.00
00578           10000.00
00579           10000.00
00580           10000.00
00581           10000.00
00582           10200.00
00583           10000.00
00584           10200.00
00585           10200.00
00586           10000.00
00587           10200.00
00588           10200.00
00589           10200.00
00590           10200.00
00591           10200.00
00592           10200.00
00593           10200.00
00594           10200.00
00595           10200.00
00596           10200.00
00597           10000.00
00598           10000.00
00599           10000.00
00600           10000.00
00601           10000.00
00602           10000.00
00603            9800.00
00604           10000.00
00605            9800.00
00606            9600.00
00607            9600.00
00608            9600.00
00609            9600.00
00610            9400.00
00611            9400.00
00612            9400.00
00613            9200.00
00614            9200.00
00615            9200.00
00616            9200.00
00617            8800.00
00618            8800.00
00619            8800.00
00620            8600.00
00621            8600.00
00622            8400.00
00623            8400.00
00624            8400.00
00625            8000.00
00626            8000.00
00627            8000.00
00628            7800.00
00629            7600.00
00630            7400.00
00631            7200.00
00632            7200.00
00633            7200.00
00634            6800.00
00635            6800.00
00636            6800.00
00637            6600.00
00638            6200.00
00639            6200.00
00640            6000.00
00641            6000.00
00642            5800.00
00643            5600.00
00644            5600.00
00645            5400.00
00646            5000.00
00647            4800.00
00648            4600.00
00649            4600.00
00650            4400.00
00651            4200.00
00652            4000.00
00653            3800.00
00654            3800.00
00655            3600.00
00656            3400.00
00657            3000.00
00658            3000.00
00659            2800.00
00660            2600.00
00661            2400.00
00662            2200.00
00663            2000.00
00664            1800.00
00665            1600.00
00666            1400.00
00667            1400.00
00668            1200.00
00669             800.00
00670             600.00
00671             400.00
00672             400.00
00673               0.00
00674               0.00
00675            -200.00
00676            -400.00
00677            -600.00
00678            -800.00
00679           -1000.00
00680           -1000.00
00681           -1200.00
00682           -1400.00
00683           -1800.00
00684           -2000.00
00685           -2400.00
00686           -2400.00
00687           -2400.00
00688           -2400.00
00689           -3000.00
00690           -3000.00
00691           -3000.00
00692           -3400.00
00693           -3600.00
00694           -3600.00
00695           -3800.00
00696           -4200.00
00697           -4200.00
00698           -4200.00
00699           -4600.00
00700           -4600.00
00701           -4800.00
00702           -5200.00
00703           -5200.00
00704           -5400.00
00705           -5600.00
00706           -5800.00
00707           -5800.00
00708           -6000.00
00709           -6000.00
00710           -6400.00
00711           -6600.00
00712           -6600.00
00713           -6800.00
00714           -7000.00
00715           -7200.00
00716           -7200.00
00717           -7400.00
00718           -7600.00
00719           -7600.00
00720           -7600.00
00721           -8000.00
00722           -8000.00
00723           -8200.00
00724           -8400.00
00725           -8400.00
00726           -8400.00
00727           -8600.00
00728           -8800.00
00729           -8800.00
00730           -8800.00
00731           -9000.00
00732           -9200.00
00733           -9000.00
00734           -9200.00
00735           -9200.00
00736           -9400.00
00737           -9400.00
00738           -9600.00
00739           -9600.00
00740           -9600.00
00741           -9600.00
00742           -9800.00
00743           -9800.00
00744           -9800.00
00745           -9800.00
00746          -10000.00
00747           -9800.00
00748          -10000.00
00749          -10000.00
00750          -10000.00
00751          -10000.00
00752          -10000.00
00753          -10000.00
00754          -10000.00
00755          -10000.00
00756          -10000.00
00757          -10000.00
00758          -10000.00
00759          -10000.00
00760          -10200.00
00761          -10000.00
00762          -10000.00
00763          -10000.00
00764          -10000.00
00765          -10000.00
00766           -9800.00
00767           -9800.00
00768           -9800.00
00769           -9800.00
00770           -9600.00
00771           -9600.00
00772           -9600.00
00773           -9600.00
00774           -9600.00
00775           -9600.00
00776           -9200.00
00777           -9200.00
00778           -9200.00
00779           -9200.00
00780           -9200.00
00781           -9200.00
00782           -8800.00
00783           -8800.00
00784           -8800.00
00785           -8800.00
00786           -8600.00
00787           -8600.00
00788           -8400.00
00789           -8200.00
00790           -8200.00
00791           -8000.00
00792           -8000.00
00793           -7800.00
00794           -7600.00
00795           -7600.00
00796           -7400.00
00797           -7200.00
00798           -7200.00
00799           -6800.00
00800           -6800.00
00801           -6600.00
00802           -6400.00
00803           -6400.00
00804           -6200.00
00805           -6200.00
00806           -6000.00
00807           -5800.00
00808           -5600.00
00809           -5600.00
00810           -5200.00
00811           -5000.00
00812           -5000.00
00813           -4600.00
00814           -4600.00
00815           -4400.00
00816           -4200.00
00817           -4000.00
00818           -3800.00
00819           -3800.00
00820           -3600.00
00821           -3400.00
00822           -3200.00
00823           -3000.00
00824           -2800.00
00825           -2800.00
00826           -2600.00
00827           -2400.00
00828           -2000.00
00829           -1800.00
00830           -1800.00
00831           -1600.00
00832           -1200.00
00833           -1200.00
00834            -800.00
00835            -800.00
00836            -400.00
00837            -400.00
00838            -200.00
00839               0.00
00840               0.00
00841             400.00
00842             400.00
00843             800.00
00844             800.00
00845            1000.00
00846            1200.00
00847            1600.00
00848            1800.00
00849            2000.00
00850            2000.00
00851            2400.00
00852            2400.00
00853            2600.00
00854            2800.00
00855            3200.00
00856            3000.00
00857            3200.00
00858            3600.00
00859            3800.00
00860            3600.00
00861            4000.00
00862            4400.00
00863            4400.00
00864            4600.00
00865            4600.00
00866            4800.00
00867            4800.00
00868            5200.00
00869            5400.00
00870            5600.00
00871            5800.00
00872            5800.00
00873            6000.00
00874            6200.00
00875            6200.00
00876            6400.00
00877            6600.00
00878            6800.00
00879            7000.00
00880            7200.00
00881            7200.00
00882            7200.00
00883            7600.00
00884            7800.00
00885            7800.00
00886            8000.00
00887            8000.00
00888            8200.00
00889            8400.00
00890            8400.00
00891            8400.00
00892            8600.00
00893            8800.00
00894            8800.00
00895            8800.00
00896            9200.00
00897            9200.00
00898            9200.00
00899            9400.00
00900            9400.00
00901            9400.00
00902            9400.00
00903            9600.00
00904            9600.00
00905            9600.00
00906            9600.00
00907           10000.00
00908           10000.00
00909           10000.00
00910           10000.00
00911           10000.00
00912           10000.00
00913           10000.00
00914           10000.00
00915           10200.00
00916           10200.00
00917           10200.00
00918           10200.00
00919           10200.00
00920           10200.00
00921           10200.00
00922           10400.00
00923           10200.00
00924           10200.00
00925           10000.00
00926           10200.00
00927           10200.00
00928           10200.00
00929           10200.00
00930           10200.00
00931           10000.00
00932           10000.00
00933           10000.00
00934           10000.00
00935            9800.00
00936           10000.00
00937           10000.00
00938            9800.00
00939            9800.00
00940            9600.00
00941            9600.00
00942            9600.00
00943            9400.00
00944            9200.00
00945            9400.00
00946            9200.00
00947            9200.00
00948            9200.00
00949            9000.00
00950            8800.00
00951            8800.00
00952            8600.00
00953            8600.00
00954            8400.00
00955            8200.00
00956            8400.00
00957            8200.00
00958            8000.00
00959            7800.00
00960            7800.00
00961            7600.00
00962            7400.00
00963            7200.00
00964            7200.00
00965            7200.00
00966            6800.00
00967            6800.00
00968            6800.00
00969            6400.00
00970            6200.00
00971            6200.00
00972            6000.00
00973            5800.00
00974            5600.00
00975            5600.00
00976            5400.00
00977            5200.00
00978            5000.00
00979            4800.00
00980            4600.00
00981            4400.00
00982            4400.00
00983            4200.00
00984            4000.00
00985            3800.00
00986            3600.00
00987            3600.00
00988            3200.00
00989            3200.00
00990            3000.00
00991            2800.00
00992            2600.00
00993            2400.00
00994            2200.00
00995            2000.00
00996            1800.00
00997            1600.00
00998            1400.00
00999            1400.00
01000            1200.00
01001             800.00
01002             600.00
01003             400.00
01004             400.00
01005               0.00
01006            -200.00
01007            -200.00
01008            -400.00
01009            -400.00
01010            -800.00
01011           -1000.00
01012           -1200.00
01013           -1200.00
01014           -1400.00
01015           -1800.00
01016           -2000.00
01017           -2400.00
01018           -2600.00
01019           -2400.00
01020           -2400.00
01021           -3000.00
01022           -2800.00
01023           -3200.00
01024           -3400.00
01025           -3600.00
01026           -3600.00
01027           -4000.00
01028           -4200.00
01029           -4200.00
01030           -4200.00
01031           -4800.00
01032           -4600.00
01033           -4800.00
01034           -5000.00
01035           -5200.00
01036           -5600.00
01037           -5800.00
01038           -5800.00
01039           -5800.00
01040           -6200.00
01041           -6200.00
01042           -6400.00
01043           -6600.00
01044           -6600.00
01045           -6800.00
01046           -7000.00
01047           -7200.00
01048           -7200.00
01049           -7200.00
01050           -7400.00
01051           -7600.00
01052           -7800.00
01053           -8000.00
01054           -8200.00
01055           -8200.00
01056           -8200.00
01057           -8400.00
01058           -8400.00
01059           -8400.00
01060           -8800.00
01061           -8800.00
01062           -8800.00
01063           -9000.00
01064           -9200.00
01065           -9200.00
01066           -9200.00
01067           -9200.00
01068           -9200.00
01069           -9400.00
01070           -9600.00
01071           -9600.00
01072           -9600.00
01073           -9600.00
01074           -9600.00
01075           -9800.00
01076           -9600.00
01077           -9800.00
01078          -10000.00
01079          -10000.00
01080          -10000.00
01081          -10000.00
01082          -10000.00
01083          -10000.00
01084          -10200.00
01085          -10200.00
01086          -10200.00
01087          -10000.00
01088          -10000.00
01089          -10000.00
01090          -10000.00
01091          -10000.00
01092          -10000.00
01093          -10000.00
01094          -10000.00
01095          -10000.00
01096          -10000.00
01097          -10000.00
01098           -9800.00
01099          -10000.00
01100           -9800.00
01101          -10000.00
01102           -9800.00
01103           -9800.00
01104           -9600.00
01105           -9600.00
01106           -9600.00
01107           -9600.00
01108           -9600.00
01109           -9200.00
01110           -9200.00
01111           -9200.00
01112           -9000.00
01113           -9000.00
01114           -9000.00
01115           -8800.00
01116           -8800.00
01117           -8400.00
01118           -8400.00
01119           -8400.00
01120           -8400.00
01121           -8400.00
01122           -8000.00
01123           -8000.00
01124           -7800.00
01125           -7800.00
01126           -7400.00
01127           -7400.00
01128           -7400.00
01129           -7200.00
01130           -7200.00
01131           -6800.00
01132           -6800.00
01133           -6600.00
01134           -6600.00
01135           -6400.00
01136           -6200.00
01137           -6000.00
01138           -6000.00
01139           -5800.00
01140           -5600.00
01141           -5600.00
01142           -5400.00
01143           -5200.00
01144           -5000.00
01145           -4600.00
01146           -4600.00
01147           -4400.00
01148           -4200.00
01149           -4000.00
01150           -4000.00
01151           -3600.00
01152           -3600.00
01153           -3400.00
01154           -3200.00
01155           -3000.00
01156           -2800.00
01157           -2600.00
01158           -2400.00
01159           -2400.00
01160           -2000.00
01161           -2000.00
01162           -1800.00
01163           -1600.00
01164           -1200.00
01165           -1000.00
01166           -1000.00
01167            -800.00
01168            -600.00
01169            -400.00
01170            -200.00
01171               0.00
01172               0.00
01173             400.00
01174             600.00
01175             800.00
01176             800.00
01177            1200.00
01178            1200.00
01179            1400.00
01180            1600.00
01181            2000.00
01182            2000.00
01183            2400.00
01184            2400.00
01185            2400.00
01186            2800.00
01187            2800.00
01188            3000.00
01189            3200.00
01190            3600.00
01191            3600.00
01192            3800.00
01193            4000.00
01194            4200.00
01195            4400.00
01196            4600.00
01197            4800.00
01198            4800.00
01199            5200.00
01200            5200.00
01201            5600.00
01202            5600.00
01203            5800.00
01204            6000.00
01205            6000.00
01206            6200.00
01207            6400.00
01208            6600.00
01209            6600.00
01210            6800.00
01211            7200.00
01212            7200.00
01213            7200.00
01214            7400.00
01215            7600.00
01216            7600.00
01217            7800.00
01218            8000.00
01219            8200.00
01220            8200.00
01221            8400.00
01222            8400.00
01223            8600.00
01224            8600.00
01225            8800.00
01226            8800.00
01227            8800.00
01228            9000.00
01229            9200.00
01230            9200.00
01231            9200.00
01232            9400.00
01233            9400.00
01234            9400.00
01235            9400.00
01236            9600.00
01237            9600.00
01238           10000.00
01239            9600.00
01240           10000.00
01241           10000.00
01242           10000.00
01243           10000.00
01244           10000.00
01245           10000.00
01246           10000.00
01247           10000.00
01248           10200.00
01249           10000.00
01250           10200.00
01251           10200.00
01252           10200.00
01253           10200.00
01254           10200.00
01255           10200.00
01256           10200.00
01257           10200.00
01258           10200.00
01259           10200.00
01260           10200.00
01261           10000.00
01262           10000.00
01263           10200.00
01264           10000.00
01265           10000.00
01266           10000.00
01267           10000.00
01268            9600.00
01269            9800.00
01270            9800.00
01271            9800.00
01272            9600.00
01273            9400.00
01274            9400.00
01275            9400.00
01276            9400.00
01277            9400.00
01278            9200.00
01279            9000.00
01280            9000.00
01281            8800.00
01282            8800.00
01283            8800.00
01284            8600.00
01285            8600.00
01286            8400.00
01287            8400.00
01288            8200.00
01289            8000.00
01290            8000.00
01291            8000.00
01292            7800.00
01293            7600.00
01294            7400.00
01295            7200.00
01296            7000.00
01297            7000.00
01298            7000.00
01299            6800.00
01300            6800.00
01301            6400.00
01302            6400.00
01303            6200.00
01304            6000.00
01305            6000.00
01306            5600.00
01307            5600.00
01308            5400.00
01309            5000.00
01310            5200.00
01311            4800.00
01312            4800.00
01313            4400.00
01314            4400.00
01315            4000.00
01316            4000.00
01317            3800.00
01318            3600.00
01319            3600.00
01320            3200.00
01321            3200.00
01322            2800.00
01323            2800.00
01324            2400.00
01325            2200.00
01326            2200.00
01327            2000.00
01328            1800.00
01329            1600.00
01330            1400.00
01331            1200.00
01332            1000.00
01333             800.00
01334             600.00
01335             400.00
01336             400.00
01337             200.00
01338            -200.00
01339            -200.00
01340            -400.00
01341            -600.00
01342            -800.00
01343           -1000.00
01344           -1200.00
01345           -1200.00
01346           -1600.00
01347           -1800.00
01348           -2200.00
01349           -2400.00
01350           -2400.00
01351           -2200.00
01352           -2600.00
01353           -3200.00
01354           -3000.00
01355           -3200.00
01356           -3400.00
01357           -3600.00
01358           -3600.00
01359           -4000.00
01360           -4200.00
01361           -4200.00
01362           -4400.00
01363           -4800.00
01364           -4600.00
01365           -5000.00
01366           -5000.00
01367           -5000.00
01368           -5600.00
01369           -5600.00
01370           -5600.00
01371           -6000.00
01372           -6000.00
01373           -6000.00
01374           -6400.00
01375           -6600.00
01376           -6600.00
01377           -6800.00
01378           -7000.00
01379           -7000.00
01380           -7200.00
01381           -7400.00
01382           -7600.00
01383           -7600.00
01384           -7800.00
01385           -7800.00
01386           -8000.00
01387           -8200.00
01388           -8200.00
01389           -8400.00
01390           -8600.00
01391           -8600.00
01392           -8800.00
01393           -8800.00
01394           -8800.00
01395           -9200.00
01396           -9000.00
01397           -9200.00
01398           -9200.00
01399           -9400.00
01400           -9400.00
01401           -9600.00
01402           -9600.00
01403           -9600.00
01404           -9600.00
01405           -9600.00
01406           -9800.00
01407           -9800.00
01408           -9800.00
01409           -9800.00
01410          -10000.00
01411          -10000.00
01412          -10000.00
01413          -10000.00
01414          -10000.00
01415          -10000.00
01416          -10200.00
01417          -10000.00
01418          -10000.00
01419          -10200.00
01420          -10000.00
01421          -10000.00
01422          -10000.00
01423          -10000.00
01424          -10000.00
01425          -10000.00
01426          -10000.00
01427          -10000.00
01428          -10000.00
01429          -10000.00
01430           -9800.00
01431           -9800.00
01432           -9800.00
01433           -9800.00
01434           -9800.00
01435           -9600.00
01436           -9600.00
01437           -9800.00
01438           -9600.00
01439           -9600.00
01440           -9200.00
01441           -9400.00
01442           -9200.00
01443           -9200.00
01444           -9000.00
01445           -9000.00
01446           -8800.00
01447           -8800.00
01448           -8600.00
01449           -8800.00
01450           -8400.00
01451           -8400.00
01452           -8200.00
01453           -8200.00
01454           -8200.00
01455           -8000.00
01456           -7800.00
01457           -7600.00
01458           -7600.00
01459           -7400.00
01460           -7200.00
01461           -7200.00
01462           -7200.00
01463           -6800.00
01464           -6800.00
01465           -6600.00
01466           -6400.00
01467           -6400.00
01468           -6200.00
01469           -6000.00
01470           -6000.00
01471           -5800.00
01472           -5600.00
01473           -5400.00
01474           -5200.00
01475           -5200.00
01476           -4800.00
01477           -4600.00
01478           -4400.00
01479           -4200.00
01480           -4200.00
01481           -4000.00
01482           -4000.00
01483           -3600.00
01484           -3400.00
01485           -3400.00
01486           -3200.00
01487           -3000.00
01488           -2800.00
01489           -2600.00
01490           -2400.00
01491           -2200.00
01492           -2000.00
01493           -2000.00
01494           -1600.00
01495           -1400.00
01496           -1200.00
01497           -1000.00
01498           -1000.00
01499            -600.00
01500            -400.00
01501            -200.00
01502            -200.00
01503               0.00
01504             200.00
01505             400.00
01506             600.00
01507             800.00
01508            1000.00
01509            1200.00
01510            1200.00
01511            1600.00
01512            1800.00
01513            2000.00
01514            2200.00
01515            2400.00
01516            2400.00
01517            2800.00
01518            2800.00
01519            3000.00
01520            3200.00
01521            3200.00
01522            3600.00
01523            3600.00
01524            3800.00
01525            4000.00
01526            4200.00
01527            4400.00
01528            4600.00
01529            4800.00
01530            5000.00
01531            5200.00
01532            5400.00
01533            5400.00
01534            5600.00
01535            5600.00
01536            6000.00
01537            6000.00
01538            6400.00
01539            6400.00
01540            6400.00
01541            6800.00
01542            7000.00
01543            7000.00
01544            7200.00
01545            7200.00
01546            7200.00
01547            7600.00
01548            7800.00
01549            7800.00
01550            8000.00
01551            8200.00
01552            8200.00
01553            8400.00
01554            8400.00
01555            8600.00
01556            8600.00
01557            8600.00
01558            8800.00
01559            8800.00
01560            8800.00
01561            9000.00
01562            9200.00
01563            9200.00
01564            9400.00
01565            9400.00
01566            9400.00
01567            9600.00
01568            9600.00
01569            9600.00
01570            9600.00
01571            9800.00
01572           10000.00
01573           10000.00
01574           10000.00
01575           10000.00
01576           10200.00
01577           10000.00
01578           10000.00
01579           10200.00
01580           10200.00
01581           10200.00
01582           10200.00
01583           10400.00
01584           10200.00
01585           10200.00
01586           10200.00
01587           10200.00
01588           10200.00
01589           10200.00
01590           10200.00
01591           10200.00
01592           10200.00
01593           10200.00
01594           10200.00
01595           10000.00
01596           10000.00
01597           10000.00
01598           10000.00
01599            9800.00
01600           10000.00
01601            9800.00
01602            9600.00
01603            9800.00
01604            9600.00
01605            9600.00
01606            9400.00
01607            9400.00
01608            9200.00
01609            9400.00
01610            9200.00
01611            9200.00
01612            9000.00
01613            9000.00
01614            8800.00
01615            8600.00
01616            8600.00
01617            8600.00
01618            8400.00
01619            8400.00
01620            8200.00
01621            8000.00
01622            8000.00
01623            7800.00
01624            7800.00
01625            7600.00
01626            7400.00
01627            7200.00
01628            7200.00
01629            7000.00
01630            7000.00
01631            6800.00
01632            6600.00
01633            6400.00
01634            6200.00
01635            6200.00
01636            6000.00
01637            6000.00
01638            5600.00
01639            5600.00
01640            5400.00
01641            5400.00
01642            5000.00
01643            4800.00
01644            4600.00
01645            4400.00
01646            4200.00
01647            4000.00
01648            4000.00
01649            3600.00
01650            3600.00
01651            3600.00
01652            3200.00
01653            3000.00
01654            2800.00
01655            2800.00
01656            2400.00
01657            2400.00
01658            2200.00
01659            2000.00
01660            1800.00
01661            1600.00
01662            1400.00
01663            1200.00
01664             800.00
01665             800.00
01666             600.00
01667             400.00
01668               0.00
01669               0.00
01670            -200.00
01671            -400.00
01672            -400.00
01673            -600.00
01674            -800.00
01675           -1000.00
01676           -1200.00
01677           -1400.00
01678           -1600.00
01679           -1800.00
01680           -2200.00
01681           -2600.00
01682           -2400.00
01683           -2200.00
01684           -2800.00
01685           -3200.00
01686           -3000.00
01687           -3200.00
01688           -3600.00
01689           -3600.00
01690           -3600.00
01691           -4000.00
01692           -4200.00
01693           -4200.00
01694           -4600.00
01695           -4800.00
01696           -4600.00
01697           -5000.00
01698           -5200.00
01699           -5400.00
01700           -5600.00
01701           -5800.00
01702           -5800.00
01703           -6000.00
01704           -6400.00
01705           -6400.00
01706           -6400.00
01707           -6600.00
01708           -6800.00
01709           -7000.00
01710           -7000.00
01711           -7200.00
01712           -7400.00
01713           -7400.00
01714           -7600.00
01715           -7600.00
01716           -7800.00
01717           -8200.00
01718           -8200.00
01719           -8200.00
01720           -8400.00
01721           -8200.00
01722           -8400.00
01723           -8600.00
01724           -8800.00
01725           -8800.00
01726           -9000.00
01727           -9000.00
01728           -9200.00
01729           -9200.00
01730           -9200.00
01731           -9200.00
01732           -9400.00
01733           -9600.00
01734           -9600.00
01735           -9600.00
01736           -9600.00
01737           -9800.00
01738           -9800.00
01739           -9800.00
01740           -9800.00
01741           -9800.00
01742          -10000.00
01743          -10000.00
01744          -10000.00
01745          -10000.00
01746          -10000.00
01747          -10000.00
01748           -9800.00
01749          -10000.00
01750          -10200.00
01751          -10000.00
01752          -10000.00
01753          -10000.00
01754          -10000.00
01755          -10000.00
01756          -10000.00
01757          -10000.00
01758          -10000.00
01759          -10000.00
01760           -9800.00
01761           -9800.00
01762          -10000.00
01763           -9800.00
01764           -9800.00
01765           -9800.00
01766           -9800.00
01767           -9800.00
01768           -9600.00
01769           -9600.00
01770           -9600.00
01771           -9600.00
01772           -9400.00
01773           -9200.00
01774           -9200.00
01775           -9200.00
01776           -9000.00
01777           -9000.00
01778           -8800.00
01779           -8800.00
01780           -8800.00
01781           -8800.00
01782           -8600.00
01783           -8400.00
01784           -8400.00
01785           -8200.00
01786           -8000.00
01787           -8000.00
01788           -8000.00
01789           -7600.00
01790           -7600.00
01791           -7400.00
01792           -7200.00
01793           -7200.00
01794           -7200.00
01795           -6800.00
01796           -6600.00
01797           -6600.00
01798           -6400.00
01799           -6200.00
01800           -6000.00
01801           -6000.00
01802           -5800.00
01803           -5600.00
01804           -5600.00
01805           -5400.00
01806           -5200.00
01807           -5000.00
01808           -4800.00
01809           -4600.00
01810           -4400.00
01811           -4400.00
01812           -4200.00
01813           -4000.00
01814           -4000.00
01815           -3600.00
01816           -3400.00
01817           -3200.00
01818           -3200.00
01819           -3000.00
01820           -2800.00
01821           -2600.00
01822           -2400.00
01823           -2200.00
01824           -2000.00
01825           -1800.00
01826           -1600.00
01827           -1400.00
01828           -1200.00
01829           -1000.00
01830            -800.00
01831            -800.00
01832            -400.00
01833            -400.00
01834               0.00
01835               0.00
01836             200.00
01837             400.00
01838             600.00
01839             800.00
01840            1000.00
01841            1200.00
01842            1400.00
01843            1400.00
01844            1800.00
01845            2000.00
01846            2200.00
01847            2400.00
01848            2400.00
01849            2600.00
01850            2800.00
01851            3200.00
01852            3000.00
01853            3400.00
01854            3600.00
01855            3600.00
01856            3800.00
01857            4400.00
01858            4200.00
01859            4400.00
01860            4600.00
01861            4800.00
01862            5000.00
01863            5000.00
01864            5400.00
01865            5400.00
01866            5600.00
01867            6000.00
01868            6000.00
01869            6200.00
01870            6200.00
01871            6400.00
01872            6600.00
01873            6800.00
01874            6800.00
01875            7200.00
01876            7200.00
01877            7200.00
01878            7600.00
01879            7600.00
01880            8000.00
01881            8000.00
01882            8000.00
01883            8000.00
01884            8400.00
01885            8400.00
01886            8400.00
01887            8600.00
01888            8600.00
01889            8800.00
01890            8800.00
01891            8800.00
01892            9000.00
01893            9200.00
01894            9200.00
01895            9200.00
01896            9400.00
01897            9400.00
01898            9400.00
01899            9600.00
01900            9600.00
01901            9600.00
01902            9800.00
01903            9800.00
01904           10000.00
01905           10000.00
01906           10000.00
01907           10000.00
01908           10200.00
01909           10000.00
01910           10200.00
01911           10200.00
01912           10200.00
01913           10200.00
01914           10200.00
01915           10400.00
01916           10400.00
01917           10200.00
01918           10400.00
01919           10200.00
01920           10200.00
01921           10200.00
01922           10000.00
01923           10200.00
01924           10200.00
01925           10200.00
01926           10200.00
01927           10000.00
01928           10000.00
01929           10000.00
01930           10000.00
01931           10000.00
01932            9800.00
01933           10000.00
01934            9800.00
01935            9800.00
01936            9600.00
01937            9600.00
01938            9600.00
01939            9400.00
01940            9400.00
01941            9200.00
01942            9200.00
01943            9200.00
01944            9200.00
01945            9000.00
01946            8800.00
01947            8800.00
01948            8600.00
01949            8600.00
01950            8400.00
01951            8400.00
01952            8400.00
01953            8000.00
01954            8000.00
01955            7800.00
01956            7800.00
01957            7600.00
01958            7400.00
01959            7200.00
01960            7200.00
01961            7000.00
01962            6800.00
01963            6800.00
01964            6600.00
01965            6400.00
01966            6400.00
01967            6200.00
01968            6000.00
01969            5800.00
01970            5600.00
01971            5600.00
01972            5400.00
01973            5200.00
01974            4800.00
01975            4600.00
01976            4600.00
01977            4400.00
01978            4400.00
01979            4000.00
01980            4000.00
01981            3600.00
01982            3600.00
01983            3400.00
01984            3200.00
01985            3000.00
01986            2800.00
01987            2800.00
01988            2400.00
01989            2200.00
01990            2200.00
01991            2000.00
01992            1600.00
01993            1400.00
01994            1400.00
01995            1200.00
01996            1200.00
01997             800.00
01998             600.00
01999             400.00
02000               0.00
02001               0.00
02002            -200.00
02003            -400.00
02004            -400.00
02005            -800.00
02006            -800.00
02007           -1000.00
02008           -1200.00
02009           -1600.00
02010           -1600.00
02011           -2000.00
02012           -2400.00
02013           -2400.00
02014           -2400.00
02015           -2400.00
02016           -2800.00
02017           -3000.00
02018           -3000.00
02019           -3200.00
02020           -3600.00
02021           -3600.00
02022           -3600.00
02023           -4000.00
02024           -4200.00
02025           -4200.00
02026           -4600.00
02027           -4800.00
02028           -4800.00
02029           -5200.00
02030           -5200.00
02031           -5400.00
02032           -5600.00
02033           -5800.00
02034           -5800.00
02035           -6000.00
02036           -6200.00
02037           -6400.00
02038           -6600.00
02039           -6600.00
02040           -6800.00
02041           -7000.00
02042           -7200.00
02043           -7200.00
02044           -7400.00
02045           -7400.00
02046           -7600.00
02047           -7600.00
02048           -7800.00
02049           -8000.00
02050           -8200.00
02051           -8200.00
02052           -8200.00
02053           -8400.00
02054           -8400.00
02055           -8800.00
02056           -8800.00
02057           -8800.00
02058           -8800.00
02059           -9000.00
02060           -9200.00
02061           -9200.00
02062           -9200.00
02063           -9200.00
02064           -9200.00
02065           -9600.00
02066           -9600.00
02067           -9600.00
02068           -9800.00
02069           -9800.00
02070           -9800.00
02071           -9800.00
02072           -9800.00
02073           -9600.00
02074          -10000.00
02075           -9800.00
02076          -10000.00
02077          -10000.00
02078          -10000.00
02079          -10000.00
02080          -10000.00
02081          -10000.00
02082          -10000.00
02083          -10000.00
02084          -10000.00
02085          -10000.00
02086          -10000.00
02087          -10000.00
02088          -10000.00
02089          -10000.00
02090          -10000.00
02091          -10000.00
02092           -9800.00
02093          -10000.00
02094           -9800.00
02095          -10000.00
02096           -9800.00
02097           -9800.00
02098           -9600.00
02099           -9600.00
02100           -9800.00
02101           -9400.00
02102           -9200.00
02103           -9600.00
02104           -9400.00
02105           -9200.00
02106           -9200.00
02107           -9200.00
02108           -9000.00
02109           -8800.00
02110           -8800.00
02111           -8800.00
02112           -8800.00
02113           -8600.00
02114           -8400.00
02115           -8400.00
02116           -8200.00
02117           -8200.00
02118           -8000.00
02119           -8000.00
02120           -7800.00
02121           -7600.00
02122           -7400.00
02123           -7400.00
02124           -7200.00
02125           -7200.00
02126           -6800.00
02127           -6800.00
02128           -6800.00
02129           -6600.00
02130           -6400.00
02131           -6000.00
02132           -6000.00
02133           -6000.00
02134           -5800.00
02135           -5600.00
02136           -5600.00
02137           -5200.00
02138           -5200.00
02139           -5000.00
02140           -4800.00
02141           -4400.00
02142           -4400.00
02143           -4200.00
02144           -4200.00
02145           -4000.00
02146           -3800.00
02147           -3600.00
02148           -3400.00
02149           -3200.00
02150           -3000.00
02151           -2800.00
02152           -2600.00
02153           -2400.00
02154           -2400.00
02155           -2200.00
02156           -2000.00
02157           -1800.00
02158           -1600.00
02159           -1400.00
02160           -1200.00
02161           -1000.00
02162            -800.00
02163            -600.00
02164            -400.00
02165               0.00
02166               0.00
02167             200.00
02168             400.00
02169             400.00
02170             600.00
02171             800.00
02172            1000.00
02173            1200.00
02174            1400.00
02175            1600.00
02176            1800.00
02177            2000.00
02178            2400.00
02179            2400.00
02180            2600.00
02181            2800.00
02182            3000.00
02183            3200.00
02184            3200.00
02185            3600.00
02186            3600.00
02187            3800.00
02188            4000.00
02189            4200.00
02190            4400.00
02191            4400.00
02192            4600.00
02193            4800.00
02194            5000.00
02195            5200.00
02196            5400.00
02197            5600.00
02198            5600.00
02199            6000.00
02200            6200.00
02201            6200.00
02202            6400.00
02203            6400.00
02204            6600.00
02205            6800.00
02206            6800.00
02207            7000.00
02208            7200.00
02209            7400.00
02210            7600.00
02211            7800.00
02212            7800.00
02213            7800.00
02214            8200.00
02215            8000.00
02216            8400.00
02217            8400.00
02218            8600.00
02219            8600.00
02220            8600.00
02221            8600.00
02222            8800.00
02223            8800.00
02224            9000.00
02225            9200.00
02226            9200.00
02227            9400.00
02228            9200.00
02229            9400.00
02230            9600.00
02231            9600.00
02232            9600.00
02233            9600.00
02234            9600.00
02235            9800.00
02236           10000.00
02237            9800.00
02238           10000.00
02239           10000.00
02240           10000.00
02241           10000.00
02242           10200.00
02243           10200.00
02244           10200.00
02245           10200.00
02246           10200.00
02247           10200.00
02248           10200.00
02249           10200.00
02250           10400.00
02251           10200.00
02252           10200.00
02253           10200.00
02254           10200.00
02255           10200.00
02256           10200.00
02257           10000.00
02258           10000.00
02259           10000.00
02260           10000.00
02261           10000.00
02262           10000.00
02263           10000.00
02264           10000.00
02265           10000.00
02266            9600.00
02267            9800.00
02268            9600.00
02269            9600.00
02270            9400.00
02271            9400.00
02272            9400.00
02273            9200.00
02274            9200.00
02275            9200.00
02276            9000.00
02277            9000.00
02278            8800.00
02279            8600.00
02280            8600.00
02281            8400.00
02282            8400.00
02283            8400.00
02284            8200.00
02285            8000.00
02286            7800.00
02287            7800.00
02288            7600.00
02289            7600.00
02290            7600.00
02291            7200.00
02292            7000.00
02293            7000.00
02294            6800.00
02295            6800.00
02296            6600.00
02297            6400.00
02298            6200.00
02299            6200.00
02300            6000.00
02301            5600.00
02302            5600.00
02303            5400.00
02304            5200.00
02305            5000.00
02306            4800.00
02307            4800.00
02308            4600.00
02309            4400.00
02310            4200.00
02311            4000.00
02312            3800.00
02313            3600.00
02314            3600.00
02315            3200.00
02316            3200.00
02317            3000.00
02318            2800.00
02319            2800.00
02320            2400.00
02321            2200.00
02322            2200.00
02323            2000.00
02324            1600.00
02325            1600.00
02326            1400.00
02327            1200.00
02328             800.00
02329             600.00
02330             400.00
02331             400.00
02332             200.00
02333               0.00
02334            -400.00
02335            -400.00
02336            -400.00
02337            -800.00
02338            -800.00
02339           -1200.00
02340           -1200.00
02341           -1400.00
02342           -1800.00
02343           -2000.00
02344           -2400.00
02345           -2400.00
02346           -2400.00
02347           -2400.00
02348           -2800.00
02349           -3000.00
02350           -3000.00
02351           -3200.00
02352           -3600.00
02353           -3600.00
02354           -3600.00
02355           -4200.00
02356           -4200.00
02357           -4400.00
02358           -4600.00
02359           -4600.00
02360           -5000.00
02361           -5200.00
02362           -5000.00
02363           -5400.00
02364           -5800.00
02365           -5600.00
02366           -5800.00
02367           -6200.00
02368           -6000.00
02369           -6400.00
02370           -6600.00
02371           -6600.00
02372           -6800.00
02373           -7000.00
02374           -7000.00
02375           -7200.00
02376           -7200.00
02377           -7400.00
02378           -7600.00
02379           -7800.00
02380           -8000.00
02381           -8000.00
02382           -8200.00
02383           -8200.00
02384           -8400.00
02385           -8400.00
02386           -8600.00
02387           -8800.00
02388           -9000.00
02389           -9000.00
02390           -8800.00
02391           -9000.00
02392           -9200.00
02393           -9200.00
02394           -9200.00
02395           -9200.00
02396           -9600.00
02397           -9600.00
02398           -9600.00
02399           -9600.00
02400           -9800.00
02401           -9600.00
02402           -9800.00
02403           -9800.00
02404           -9800.00
02405          -10000.00
02406          -10000.00
02407          -10000.00
02408          -10000.00
02409          -10000.00
02410          -10000.00
02411          -10000.00
02412          -10000.00
02413          -10000.00
02414          -10200.00
02415          -10000.00
02416          -10000.00
02417          -10000.00
02418          -10000.00
02419          -10000.00
02420          -10000.00
02421          -10000.00
02422          -10000.00
02423           -9800.00
02424          -10000.00
02425           -9800.00
02426           -9800.00
02427           -9800.00
02428           -9800.00
02429           -9800.00
02430           -9800.00
02431           -9600.00
02432           -9600.00
02433           -9600.00
02434           -9600.00
02435           -9400.00
02436           -9200.00
02437           -9200.00
02438           -9000.00
02439           -9000.00
02440           -9000.00
02441           -9000.00
02442           -8800.00
02443           -8800.00
02444           -8800.00
02445           -8400.00
02446           -8400.00
02447           -8400.00
02448           -8200.00
02449           -8000.00
02450           -8200.00
02451           -8000.00
02452           -7800.00
02453           -7600.00
02454           -7400.00
02455           -7400.00
02456           -7200.00
02457           -7000.00
02458           -7200.00
02459           -6800.00
02460           -6800.00
02461           -6600.00
02462           -6400.00
02463           -6400.00
02464           -6200.00
02465           -5800.00
02466           -5800.00
02467           -5600.00
02468           -5400.00
02469           -5200.00
02470           -5200.00
02471           -5000.00
02472           -4600.00
02473           -4600.00
02474           -4400.00
02475           -4200.00
02476           -4000.00
02477           -4000.00
02478           -3600.00
02479           -3600.00
02480           -3400.00
02481           -3200.00
02482           -3200.00
02483           -2800.00
02484           -2800.00
02485           -2600.00
02486           -2400.00
02487           -2200.00
02488           -2000.00
02489           -1800.00
02490           -1600.00
02491           -1400.00
02492           -1200.00
02493           -1000.00
02494            -800.00
02495            -600.00
02496            -400.00
02497            -200.00
02498               0.00
02499               0.00
02500             400.00
02501             400.00
02502             800.00
02503             800.00
02504            1200.00
02505            1200.00
02506            1400.00
02507            1800.00
02508            1800.00
02509            2000.00
02510            2400.00
02511            2400.00
02512            2600.00
02513            2800.00
02514            3000.00
02515            3000.00
02516            3200.00
02517            3600.00
02518            3600.00
02519            3600.00
02520            4000.00
02521            4000.00
02522            4400.00
02523            4600.00
02524            4600.00
02525            4800.00
02526            5200.00
02527            5200.00
02528            5400.00
02529            5600.00
02530            5600.00
02531            5800.00
02532            6200.00
02533            6200.00
02534            6400.00
02535            6400.00
02536            6800.00
02537            6800.00
02538            7000.00
02539            7000.00
02540            7200.00
02541            7200.00
02542            7600.00
02543            7600.00
02544            7800.00
02545            8000.00
02546            8200.00
02547            8200.00
02548            8400.00
02549            8400.00
02550            8400.00
02551            8600.00
02552            8600.00
02553            8800.00
02554            8800.00
02555            8800.00
02556            9200.00
02557            9200.00
02558            9200.00
02559            9400.00
02560            9200.00
02561            9600.00
02562            9600.00
02563            9600.00
02564            9600.00
02565            9600.00
02566            9800.00
02567            9800.00
02568           10000.00
02569           10000.00
02570           10000.00
02571           10000.00
02572           10000.00
02573           10200.00
02574           10000.00
02575           10200.00
02576           10200.00
02577           10000.00
02578           10400.00
02579           10200.00
02580           10200.00
02581           10200.00
02582           10400.00
02583           10200.00
02584           10200.00
02585           10200.00
02586           10400.00
02587           10200.00
02588           10200.00
02589           10000.00
02590           10200.00
02591           10000.00
02592           10000.00
02593           10000.00
02594           10000.00
02595           10000.00
02596            9800.00
02597           10000.00
02598            9800.00
02599            9600.00
02600            9600.00
02601            9600.00
02602            9600.00
02603            9400.00
02604            9400.00
02605            9200.00
02606            9200.00
02607            9200.00
02608            9000.00
02609            8800.00
02610            8800.00
02611            8600.00
02612            8600.00
02613            8400.00
02614            8400.00
02615            8400.00
02616            8000.00
02617            8000.00
02618            7800.00
02619            7800.00
02620            7800.00
02621            7600.00
02622            7200.00
02623            7200.00
02624            7000.00
02625            7000.00
02626            6800.00
02627            6800.00
02628            6400.00
02629            6400.00
02630            6200.00
02631            6000.00
02632            6000.00
02633            5800.00
02634            5600.00
02635            5400.00
02636            5200.00
02637            5200.00
02638            4800.00
02639            4800.00
02640            4600.00
02641            4400.00
02642            4200.00
02643            4000.00
02644            3800.00
02645            3600.00
02646            3600.00
02647            3400.00
02648            3200.00
02649            3000.00
02650            2800.00
02651            2800.00
02652            2400.00
02653            2200.00
02654            2000.00
02655            1800.00
02656            1600.00
02657            1400.00
02658            1200.00
02659            1200.00
02660             800.00
02661             800.00
02662             600.00
02663             400.00
02664             200.00
02665               0.00
02666            -200.00
02667            -400.00
02668            -600.00
02669            -800.00
02670           -1000.00
02671           -1000.00
02672           -1200.00
02673           -1600.00
02674           -1600.00
02675           -2000.00
02676           -2400.00
02677           -2400.00
02678           -2400.00
02679           -2400.00
02680           -3000.00
02681           -2800.00
02682           -3000.00
02683           -3400.00
02684           -3600.00
02685           -3600.00
02686           -3800.00
02687           -4000.00
02688           -4000.00
02689           -4400.00
02690           -4800.00
02691           -4600.00
02692           -4800.00
02693           -5200.00
02694           -5000.00
02695           -5600.00
02696           -5800.00
02697           -5600.00
02698           -6000.00
02699           -6200.00
02700           -6200.00
02701           -6400.00
02702           -6600.00
02703           -6800.00
02704           -6800.00
02705           -7000.00
02706           -7200.00
02707           -7200.00
02708           -7400.00
02709           -7400.00
02710           -7800.00
02711           -7800.00
02712           -8000.00
02713           -8000.00
02714           -8200.00
02715           -8200.00
02716           -8400.00
02717           -8400.00
02718           -8400.00
02719           -8800.00
02720           -8800.00
02721           -9000.00
02722           -9000.00
02723           -9000.00
02724           -9200.00
02725           -9200.00
02726           -9200.00
02727           -9200.00
02728           -9400.00
02729           -9600.00
02730           -9600.00
02731           -9600.00
02732           -9600.00
02733           -9800.00
02734           -9800.00
02735           -9800.00
02736          -10000.00
02737           -9800.00
02738          -10000.00
02739          -10000.00
02740          -10000.00
02741          -10000.00
02742          -10000.00
02743          -10000.00
02744          -10000.00
02745          -10200.00
02746          -10000.00
02747          -10000.00
02748          -10200.00
02749          -10000.00
02750          -10000.00
02751          -10200.00
02752          -10000.00
02753          -10000.00
02754          -10000.00
02755           -9800.00
02756          -10000.00
02757           -9800.00
02758           -9800.00
02759          -10000.00
02760           -9800.00
02761           -9800.00
02762           -9600.00
02763           -9800.00
02764           -9600.00
02765           -9400.00
02766           -9600.00
02767           -9600.00
02768           -9400.00
02769           -9200.00
02770           -9200.00
02771           -9000.00
02772           -9000.00
02773           -9000.00
02774           -8800.00
02775           -8800.00
02776           -8800.00
02777           -8600.00
02778           -8400.00
02779           -8400.00
02780           -8200.00
02781           -8200.00
02782           -8000.00
02783           -7800.00
02784           -8000.00
02785           -7600.00
02786           -7400.00
02787           -7200.00
02788           -7200.00
02789           -7200.00
02790           -6800.00
02791           -6800.00
02792           -6600.00
02793           -6400.00
02794           -6400.00
02795           -6200.00
02796           -6000.00
02797           -6000.00
02798           -5800.00
02799           -5600.00
02800           -5600.00
02801           -5000.00
02802           -5200.00
02803           -5000.00
02804           -4600.00
02805           -4400.00
02806           -4400.00
02807           -4200.00
02808           -4000.00
02809           -4000.00
02810           -3600.00
02811           -3400.00
02812           -3400.00
02813           -3200.00
02814           -3000.00
02815           -2800.00
02816           -2600.00
02817           -2400.00
02818           -2400.00
02819           -2000.00
02820           -1800.00
02821           -1800.00
02822           -1600.00
02823           -1200.00
02824           -1000.00
02825           -1000.00
02826            -800.00
02827            -400.00
02828            -400.00
02829            -200.00
02830               0.00
02831               0.00
02832             400.00
02833             600.00
02834             600.00
02835             800.00
02836            1200.00
02837            1200.00
02838            1400.00
02839            1400.00
02840            1800.00
02841            2200.00
02842            2200.00
02843            2400.00
02844            2400.00
02845            2800.00
02846            3000.00
02847            3000.00
02848            3200.00
02849            3600.00
02850            3600.00
02851            3600.00
02852            4000.00
02853            4200.00
02854            4400.00
02855            4600.00
02856            4600.00
02857            4800.00
02858            5200.00
02859            5200.00
02860            5400.00
02861            5600.00
02862            5800.00
02863            6000.00
02864            6200.00
02865            6200.00
02866            6200.00
02867            6600.00
02868            6800.00
02869            7000.00
02870            7000.00
02871            7000.00
02872            7000.00
02873            7200.00
02874            7400.00
02875            7600.00
02876            7800.00
02877            8000.00
02878            8000.00
02879            8200.00
02880            8400.00
02881            8400.00
02882            8600.00
02883            8800.00
02884            8600.00
02885            8800.00
02886            8800.00
02887            9000.00
02888            9200.00
02889            9200.00
02890            9200.00
02891            9400.00
02892            9600.00
02893            9400.00
02894            9600.00
02895            9600.00
02896            9600.00
02897            9600.00
02898           10000.00
02899           10000.00
02900           10000.00
02901           10000.00
02902           10000.00
02903           10000.00
02904           10000.00
02905           10000.00
02906           10000.00
02907           10200.00
02908           10200.00
02909           10200.00
02910           10200.00
02911           10200.00
02912           10200.00
02913           10400.00
02914           10400.00
02915           10200.00
02916           10200.00
02917           10200.00
02918           10200.00
02919           10200.00
02920           10200.00
02921           10200.00
02922           10200.00
02923           10000.00
02924           10000.00
02925           10000.00
02926            9800.00
02927           10000.00
02928            9800.00
02929           10000.00
02930            9800.00
02931            9600.00
02932            9600.00
02933            9400.00
02934            9400.00
02935            9400.00
02936            9200.00
02937            9200.00
02938            9200.00
02939            9000.00
02940            9000.00
02941            8800.00
02942            8800.00
02943            8800.00
02944            8400.00
02945            8400.00
02946            8400.00
02947            8000.00
02948            8400.00
02949            8000.00
02950            8000.00
02951            7800.00
02952            7600.00
02953            7400.00
02954            7200.00
02955            7200.00
02956            6800.00
02957            6800.00
02958            7000.00
02959            6800.00
02960            6400.00
02961            6200.00
02962            6200.00
02963            6000.00
02964            6000.00
02965            5600.00
02966            5600.00
02967            5400.00
02968            5200.00
02969            4800.00
02970            5000.00
02971            4600.00
02972            4600.00
02973            4400.00
02974            4200.00
02975            4000.00
02976            3800.00
02977            3600.00
02978            3600.00
02979            3200.00
02980            3200.00
02981            3000.00
02982            2800.00
02983            2600.00
02984            2400.00
02985            2200.00
02986            2000.00
02987            1800.00
02988            1600.00
02989            1400.00
02990            1400.00
02991            1200.00
02992             800.00
02993             800.00
02994             400.00
02995             400.00
02996               0.00
02997            -200.00
02998            -200.00
02999            -400.00
03000            -600.00
03001            -800.00
03002           -1000.00
03003           -1200.00
03004           -1200.00
03005           -1600.00
03006           -1800.00
03007           -2000.00
03008           -2400.00
03009           -2400.00
03010           -2400.00
03011           -2600.00
03012           -3000.00
03013           -3200.00
03014           -3200.00
03015           -3400.00
03016           -3600.00
03017           -3600.00
03018           -4000.00
03019           -4200.00
03020           -4200.00
03021           -4400.00
03022           -4800.00
03023           -4600.00
03024           -5000.00
03025           -5200.00
03026           -5400.00
03027           -5600.00
03028           -5600.00
03029           -5800.00
03030           -6000.00
03031           -6200.00
03032           -6200.00
03033           -6400.00
03034           -6600.00
03035           -6800.00
03036           -6800.00
03037           -7000.00
03038           -7200.00
03039           -7400.00
03040           -7400.00
03041           -7600.00
03042           -7800.00
03043           -7800.00
03044           -7600.00
03045           -8200.00
03046           -8200.00
03047           -8200.00
03048           -8200.00
03049           -8400.00
03050           -8600.00
03051           -8800.00
03052           -8800.00
03053           -8800.00
03054           -8800.00
03055           -9000.00
03056           -9200.00
03057           -9200.00
03058           -9200.00
03059           -9200.00
03060           -9400.00
03061           -9600.00
03062           -9600.00
03063           -9600.00
03064           -9600.00
03065           -9800.00
03066           -9600.00
03067           -9800.00
03068          -10000.00
03069          -10000.00
03070          -10000.00
03071          -10000.00
03072           -9800.00
03073          -10000.00
03074          -10000.00
03075          -10000.00
03076          -10000.00
03077          -10000.00
03078          -10000.00
03079          -10200.00
03080          -10000.00
03081          -10000.00
03082          -10000.00
03083          -10000.00
03084          -10000.00
03085          -10000.00
03086          -10000.00
03087          -10000.00
03088          -10000.00
03089          -10000.00
03090           -9800.00
03091           -9800.00
03092          -10000.00
03093           -9600.00
03094           -9600.00
03095           -9600.00
03096           -9600.00
03097           -9600.00
03098           -9400.00
03099           -9400.00
03100           -9200.00
03101           -9200.00
03102           -9200.00
03103           -9000.00
03104           -9000.00
03105           -8800.00
03106           -8800.00
03107           -8800.00
03108           -8800.00
03109           -8600.00
03110           -8400.00
03111           -8400.00
03112           -8200.00
03113           -8000.00
03114           -8000.00
03115           -8000.00
03116           -7800.00
03117           -7400.00
03118           -7400.00
03119           -7200.00
03120           -7400.00
03121           -7200.00
03122           -6800.00
03123           -6800.00
03124           -6600.00
03125           -6400.00
03126           -6400.00
03127           -6200.00
03128           -6000.00
03129           -5800.00
03130           -5600.00
03131           -5600.00
03132           -5200.00
03133           -5200.00
03134           -5000.00
03135           -5000.00
03136           -4600.00
03137           -4400.00
03138           -4400.00
03139           -4200.00
03140           -4000.00
03141           -3800.00
03142           -3800.00
03143           -3400.00
03144           -3400.00
03145           -3200.00
03146           -2800.00
03147           -2800.00
03148           -2600.00
03149           -2400.00
03150           -2400.00
03151           -2000.00
03152           -1800.00
03153           -1600.00
03154           -1400.00
03155           -1200.00
03156           -1200.00
03157           -1000.00
03158            -600.00
03159            -600.00
03160            -400.00
03161            -200.00
03162               0.00
03163             200.00
03164             400.00
03165             600.00
03166             800.00
03167            1000.00
03168            1200.00
03169            1400.00
03170            1400.00
03171            1800.00
03172            2000.00
03173            2200.00
03174            2400.00
03175            2400.00
03176            2400.00
03177            2800.00
03178            3000.00
03179            3200.00
03180            3400.00
03181            3600.00
03182            3600.00
03183            3800.00
03184            4000.00
03185            4200.00
03186            4400.00
03187            4600.00
03188            4800.00
03189            4800.00
03190            5200.00
03191            5200.00
03192            5600.00
03193            5600.00
03194            5600.00
03195            6000.00
03196            6000.00
03197            6200.00
03198            6400.00
03199            6600.00
03200            6800.00
03201            6800.00
03202            7000.00
03203            7200.00
03204            7200.00
03205            7200.00
03206            7600.00
03207            7800.00
03208            7800.00
03209            8000.00
03210            8200.00
03211            8400.00
03212            8400.00
03213            8400.00
03214            8400.00
03215            8600.00
03216            8800.00
03217            8800.00
03218            8800.00
03219            9000.00
03220            9200.00
03221            9200.00
03222            9400.00
03223            9400.00
03224            9400.00
03225            9400.00
03226            9400.00
03227            9600.00
03228            9600.00
03229           10000.00
03230            9600.00
03231           10000.00
03232           10000.00
03233           10000.00
03234           10000.00
03235           10000.00
03236           10200.00
03237           10000.00
03238           10200.00
03239           10200.00
03240           10400.00
03241           10200.00
03242           10200.00
03243           10000.00
03244           10400.00
03245           10200.00
03246           10200.00
03247           10200.00
03248           10200.00
03249           10200.00
03250           10200.00
03251           10200.00
03252           10000.00
03253           10000.00
03254           10200.00
03255           10000.00
03256           10000.00
03257           10000.00
03258           10000.00
03259            9800.00
03260            9800.00
03261            9600.00
03262            9600.00
03263            9600.00
03264            9400.00
03265            9400.00
03266            9400.00
03267            9400.00
03268            9400.00
03269            9200.00
03270            9200.00
03271            9200.00
03272            8800.00
03273            8800.00
03274            8800.00
03275            8800.00
03276            8400.00
03277            8400.00
03278            8400.00
03279            8200.00
03280            8000.00
03281            8000.00
03282            7800.00
03283            7600.00
03284            7600.00
03285            7600.00
03286            7400.00
03287            7000.00
03288            7000.00
03289            6800.00
03290            6800.00
03291            6800.00
03292            6400.00
03293            6200.00
03294            6000.00
03295            6000.00
03296            6000.00
03297            5800.00
03298            5400.00
03299            5400.00
03300            5200.00
03301            5000.00
03302            4800.00
03303            4600.00
03304            4400.00
03305            4400.00
03306            4000.00
03307            4000.00
03308            3600.00
03309            3600.00
03310            3400.00
03311            3200.00
03312            3000.00
03313            3000.00
03314            2800.00
03315            2400.00
03316            2400.00
03317            2200.00
03318            2000.00
03319            2000.00
03320            1600.00
03321            1400.00
03322            1200.00
03323             800.00
03324             800.00
03325             600.00
03326             400.00
03327             400.00
03328             200.00
03329               0.00
03330            -400.00
03331            -400.00
03332            -400.00
03333            -800.00
03334           -1000.00
03335           -1200.00
03336           -1200.00
03337           -1400.00
03338           -1800.00
03339           -2200.00
03340           -2400.00
03341           -2400.00
03342           -2400.00
03343           -2600.00
03344           -3200.00
03345           -3000.00
03346           -3200.00
03347           -3600.00
03348           -3600.00
03349           -3600.00
03350           -4000.00
03351           -4200.00
03352           -4200.00
03353           -4400.00
03354           -4800.00
03355           -4600.00
03356           -5000.00
03357           -5200.00
03358           -5200.00
03359           -5600.00
03360           -5600.00
03361           -5800.00
03362           -6000.00
03363           -6200.00
03364           -6200.00
03365           -6400.00
03366           -6600.00
03367           -6600.00
03368           -7000.00
03369           -7000.00
03370           -7200.00
03371           -7200.00
03372           -7400.00
03373           -7400.00
03374           -8000.00
03375           -7600.00
03376           -8000.00
03377           -8200.00
03378           -8200.00
03379           -8400.00
03380           -8400.00
03381           -8400.00
03382           -8800.00
03383           -8600.00
03384           -8800.00
03385           -8800.00
03386           -9000.00
03387           -9200.00
03388           -9200.00
03389           -9200.00
03390           -9200.00
03391           -9400.00
03392           -9600.00
03393           -9600.00
03394           -9600.00
03395           -9600.00
03396           -9600.00
03397           -9600.00
03398           -9800.00
03399           -9800.00
03400           -9800.00
03401          -10000.00
03402           -9800.00
03403          -10000.00
03404          -10000.00
03405          -10000.00
03406          -10000.00
03407          -10000.00
03408          -10000.00
03409          -10000.00
03410          -10000.00
03411          -10200.00
03412          -10200.00
03413          -10000.00
03414          -10000.00
03415          -10000.00
03416           -9800.00
03417          -10000.00
03418          -10000.00
03419          -10000.00
03420          -10000.00
03421           -9800.00
03422           -9800.00
03423           -9800.00
03424           -9800.00
03425           -9600.00
03426           -9800.00
03427           -9600.00
03428           -9600.00
03429           -9600.00
03430           -9400.00
03431           -9400.00
03432           -9400.00
03433           -9200.00
03434           -9200.00
03435           -9000.00
03436           -8800.00
03437           -8800.00
03438           -8800.00
03439           -8600.00
03440           -8400.00
03441           -8600.00
03442           -8400.00
03443           -8400.00
03444           -8200.00
03445           -8000.00
03446           -8000.00
03447           -7600.00
03448           -7600.00
03449           -7400.00
03450           -7400.00
03451           -7400.00
03452           -7200.00
03453           -6800.00
03454           -6800.00
03455           -6600.00
03456           -6600.00
03457           -6400.00
03458           -6200.00
03459           -6000.00
03460           -6000.00
03461           -5800.00
03462           -5800.00
03463           -5600.00
03464           -5400.00
03465           -5200.00
03466           -5000.00
03467           -4800.00
03468           -4600.00
03469           -4600.00
03470           -4200.00
03471           -4200.00
03472           -4000.00
03473           -3800.00
03474           -3600.00
03475           -3400.00
03476           -3200.00
03477           -3200.00
03478           -2800.00
03479           -2800.00
03480           -2600.00
03481           -2400.00
03482           -2200.00
03483           -2000.00
03484           -1600.00
03485           -1600.00
03486           -1400.00
03487           -1200.00
03488           -1000.00
03489            -800.00
03490            -800.00
03491            -400.00
03492            -200.00
03493            -200.00
03494               0.00
03495             200.00
03496             400.00
03497             600.00
03498             600.00
03499            1000.00
03500            1200.00
03501            1400.00
03502            1400.00
03503            1800.00
03504            2000.00
03505            2200.00
03506            2400.00
03507            2400.00
03508            2600.00
03509            2800.00
03510            3000.00
03511            3200.00
03512            3400.00
03513            3600.00
03514            3600.00
03515            3800.00
03516            4200.00
03517            4400.00
03518            4400.00
03519            4600.00
03520            4800.00
03521            5200.00
03522            5400.00
03523            5400.00
03524            5600.00
03525            5600.00
03526            5800.00
03527            6000.00
03528            6200.00
03529            6400.00
03530            6200.00
03531            6400.00
03532            6800.00
03533            7000.00
03534            7000.00
03535            7200.00
03536            7400.00
03537            7200.00
03538            7600.00
03539            7600.00
03540            7800.00
03541            7800.00
03542            8200.00
03543            8200.00
03544            8400.00
03545            8400.00
03546            8600.00
03547            8600.00
03548            8800.00
03549            8800.00
03550            9000.00
03551            9000.00
03552            9200.00
03553            9200.00
03554            9200.00
03555            9400.00
03556            9400.00
03557            9600.00
03558            9600.00
03559            9800.00
03560            9600.00
03561            9800.00
03562            9800.00
03563           10000.00
03564           10000.00
03565           10000.00
03566           10000.00
03567           10000.00
03568           10200.00
03569           10200.00
03570           10200.00
03571           10200.00
03572           10200.00
03573           10400.00
03574           10000.00
03575           10200.00
03576           10200.00
03577           10400.00
03578           10400.00
03579           10200.00
03580           10200.00
03581           10200.00
03582           10200.00
03583           10000.00
03584           10200.00
03585           10000.00
03586           10000.00
03587           10000.00
03588           10000.00
03589           10000.00
03590            9800.00
03591           10000.00
03592            9600.00
03593            9800.00
03594            9600.00
03595            9600.00
03596            9600.00
03597            9400.00
03598            9400.00
03599            9400.00
03600            9200.00
03601            9200.00
03602            9200.00
03603            9000.00
03604            8800.00
03605            8800.00
03606            8800.00
03607            8400.00
03608            8600.00
03609            8400.00
03610            8200.00
03611            8000.00
03612            8200.00
03613            8000.00
03614            7800.00
03615            7800.00
03616            7600.00
03617            7600.00
03618            7200.00
03619            7200.00
03620            7000.00
03621            6800.00
03622            6800.00
03623            6800.00
03624            6400.00
03625            6200.00
03626            6000.00
03627            6000.00
03628            5800.00
03629            5600.00
03630            5400.00
03631            5400.00
03632            5000.00
03633            5000.00
03634            4800.00
03635            4600.00
03636            4600.00
03637            4200.00
03638            4200.00
03639            4000.00
03640            3800.00
03641            3600.00
03642            3400.00
03643            3200.00
03644            3000.00
03645            2800.00
03646            2800.00
03647            2400.00
03648            2400.00
03649            2200.00
03650            2000.00
03651            1800.00
03652            1600.00
03653            1400.00
03654            1200.00
03655            1000.00
03656             800.00
03657             600.00
03658             400.00
03659             400.00
03660               0.00
03661               0.00
03662            -400.00
03663            -400.00
03664            -800.00
03665            -800.00
03666           -1000.00
03667           -1200.00
03668           -1400.00
03669           -1600.00
03670           -1800.00
03671           -2200.00
03672           -2400.00
03673           -2400.00
03674           -2400.00
03675           -2800.00
03676           -3200.00
03677           -3000.00
03678           -3200.00
03679           -3600.00
03680           -3600.00
03681           -3600.00
03682           -4000.00
03683           -4200.00
03684           -4000.00
03685           -4400.00
03686           -4800.00
03687           -4600.00
03688           -5000.00
03689           -5000.00
03690           -5200.00
03691           -5600.00
03692           -5600.00
03693           -5800.00
03694           -6000.00
03695           -6200.00
03696           -6200.00
03697           -6600.00
03698           -6600.00
03699           -6800.00
03700           -6800.00
03701           -7200.00
03702           -7200.00
03703           -7200.00
03704           -7400.00
03705           -7600.00
03706           -7800.00
03707           -7800.00
03708           -8000.00
03709           -8200.00
03710           -8200.00
03711           -8400.00
03712           -8400.00
03713           -8400.00
03714           -8800.00
03715           -8800.00
03716           -8800.00
03717           -9000.00
03718           -9000.00
03719           -9200.00
03720           -9200.00
03721           -9200.00
03722           -9200.00
03723           -9600.00
03724           -9400.00
03725           -9600.00
03726           -9600.00
03727           -9600.00
03728           -9800.00
03729           -9800.00
03730           -9800.00
03731           -9800.00
03732          -10000.00
03733           -9800.00
03734           -9800.00
03735          -10000.00
03736          -10000.00
03737          -10000.00
03738          -10000.00
03739          -10200.00
03740          -10000.00
03741          -10000.00
03742          -10000.00
03743          -10200.00
03744          -10000.00
03745          -10000.00
03746          -10000.00
03747          -10000.00
03748          -10000.00
03749          -10000.00
03750          -10000.00
03751          -10000.00
03752           -9800.00
03753           -9800.00
03754           -9800.00
03755           -9800.00
03756           -9800.00
03757           -9800.00
03758           -9600.00
03759           -9600.00
03760           -9600.00
03761           -9400.00
03762           -9600.00
03763           -9400.00
03764           -9200.00
03765           -9200.00
03766           -9200.00
03767           -9000.00
03768           -9000.00
03769           -8800.00
03770           -8800.00
03771           -8800.00
03772           -8600.00
03773           -8400.00
03774           -8400.00
03775           -8200.00
03776           -8000.00
03777           -8000.00
03778           -8000.00
03779           -7800.00
03780           -7600.00
03781           -7600.00
03782           -7400.00
03783           -7200.00
03784           -7200.00
03785           -7000.00
03786           -6800.00
03787           -6800.00
03788           -6600.00
03789           -6400.00
03790           -6400.00
03791           -6000.00
03792           -6000.00
03793           -5800.00
03794           -5800.00
03795           -5400.00
03796           -5400.00
03797           -5200.00
03798           -5000.00
03799           -4600.00
03800           -4600.00
03801           -4400.00
03802           -4200.00
03803           -4200.00
03804           -4000.00
03805           -3800.00
03806           -3600.00
03807           -3600.00
03808           -3200.00
03809           -3200.00
03810           -2800.00
03811           -2600.00
03812           -2400.00
03813           -2400.00
03814           -2000.00
03815           -2000.00
03816           -1800.00
03817           -1600.00
03818           -1200.00
03819           -1200.00
03820            -800.00
03821            -800.00
03822            -800.00
03823            -400.00
03824            -400.00
03825            -200.00
03826               0.00
03827             400.00
03828             600.00
03829             600.00
03830             800.00
03831             800.00
03832            1200.00
03833            1400.00
03834            1600.00
03835            1800.00
03836            2000.00
03837            2200.00
03838            2400.00
03839            2600.00
03840            2800.00
03841            2800.00
03842            3000.00
03843            3200.00
03844            3400.00
03845            3600.00
03846            3600.00
03847            4000.00
03848            4400.00
03849            4200.00
03850            4400.00
03851            4600.00
03852            4800.00
03853            5000.00
03854            5200.00
03855            5400.00
03856            5600.00
03857            5800.00
03858            5800.00
03859            6000.00
03860            6200.00
03861            6200.00
03862            6400.00
03863            6600.00
03864            6800.00
03865            6800.00
03866            7200.00
03867            7200.00
03868            7200.00
03869            7200.00
03870            7600.00
03871            7800.00
03872            7800.00
03873            8200.00
03874            8200.00
03875            8400.00
03876            8400.00
03877            8400.00
03878            8600.00
03879            8600.00
03880            8800.00
03881            8800.00
03882            9000.00
03883            9200.00
03884            9200.00
03885            9200.00
03886            9200.00
03887            9400.00
03888            9400.00
03889            9400.00
03890            9600.00
03891            9600.00
03892            9600.00
03893            9800.00
03894           10000.00
03895           10000.00
03896           10000.00
03897           10000.00
03898           10000.00
03899           10000.00
03900           10200.00
03901           10200.00
03902           10200.00
03903           10200.00
03904           10200.00
03905           10200.00
03906           10400.00
03907           10200.00
03908           10200.00
03909           10200.00
03910           10200.00
03911           10400.00
03912           10200.00
03913           10200.00
03914           10200.00
03915           10000.00
03916           10000.00
03917           10000.00
03918           10200.00
03919           10000.00
03920           10000.00
03921           10000.00
03922            9800.00
03923           10000.00
03924            9800.00
03925            9600.00
03926            9600.00
03927            9600.00
03928            9400.00
03929            9400.00
03930            9400.00
03931            9400.00
03932            9200.00
03933            9200.00
03934            9200.00
03935            9000.00
03936            8800.00
03937            8800.00
03938            8800.00
03939            8600.00
03940            8600.00
03941            8400.00
03942            8400.00
03943            8200.00
03944            8000.00
03945            8000.00
03946            7800.00
03947            7600.00
03948            7600.00
03949            7600.00
03950            7200.00
03951            7200.00
03952            7000.00
03953            6800.00
03954            6800.00
03955            6400.00
03956            6400.00
03957            6200.00
03958            6000.00
03959            6000.00
03960            5800.00
03961            5600.00
03962            5600.00
03963            5400.00
03964            5200.00
03965            4800.00
03966            4800.00
03967            4600.00
03968            4400.00
03969            4400.00
03970            4000.00
03971            3800.00
03972            3800.00
03973            3600.00
03974            3400.00
03975            3200.00
03976            3000.00
03977            2800.00
03978            2600.00
03979            2400.00
03980            2200.00
03981            2000.00
03982            2000.00
03983            1800.00
03984            1600.00
03985            1400.00
03986            1200.00
03987             800.00
03988             600.00
03989             400.00
03990             400.00
03991               0.00
03992               0.00
03993               0.00
03994            -400.00
03995            -400.00
03996            -800.00
03997            -800.00
03998           -1000.00
03999           -1200.00
04000           -1400.00
04001           -1800.00
04002           -2000.00
04003           -2400.00
04004           -2600.00
04005           -2200.00
04006           -2400.00
04007           -2800.00
04008           -3000.00
04009           -2800.00
04010           -3400.00
04011           -3600.00
04012           -3600.00
04013           -3800.00
04014           -4200.00
04015           -4200.00
04016           -4400.00
04017           -4800.00
04018           -4600.00
04019           -5000.00
04020           -5000.00
04021           -5000.00
04022           -5400.00
04023           -5600.00
04024           -5600.00
04025           -5800.00
04026           -6000.00
04027           -6200.00
04028           -6400.00
04029           -6600.00
04030           -6600.00
04031           -6800.00
04032           -7000.00
04033           -7200.00
04034           -7200.00
04035           -7400.00
04036           -7400.00
04037           -7800.00
04038           -7600.00
04039           -7800.00
04040           -8000.00
04041           -8200.00
04042           -8400.00
04043           -8400.00
04044           -8400.00
04045           -8600.00
04046           -8800.00
04047           -8800.00
04048           -8800.00
04049           -9000.00
04050           -9000.00
04051           -9200.00
04052           -9000.00
04053           -9200.00
04054           -9200.00
04055           -9400.00
04056           -9600.00
04057           -9600.00
04058           -9800.00
04059           -9600.00
04060           -9600.00
04061           -9800.00
04062           -9800.00
04063           -9800.00
04064          -10000.00
04065           -9800.00
04066          -10000.00
04067          -10000.00
04068          -10000.00
04069          -10000.00
04070          -10000.00
04071          -10000.00
04072          -10200.00
04073          -10000.00
04074          -10000.00
04075          -10000.00
04076          -10000.00
04077          -10000.00
04078          -10200.00
04079          -10000.00
04080           -9800.00
04081          -10000.00
04082          -10000.00
04083          -10000.00
04084          -10000.00
04085           -9800.00
04086           -9800.00
04087           -9800.00
04088           -9800.00
04089           -9800.00
04090           -9600.00
04091           -9600.00
04092           -9600.00
04093           -9400.00
04094           -9600.00
04095           -9400.00
04096           -9200.00
04097           -9200.00
04098           -9200.00
04099           -9000.00
04100           -9000.00
04101           -8800.00
04102           -8800.00
04103           -8800.00
04104           -8400.00
04105           -8400.00
04106           -8400.00
04107           -8400.00
04108           -8200.00
04109           -8000.00
04110           -8000.00
04111           -8000.00
04112           -7600.00
04113           -7400.00
04114           -7400.00
04115           -7200.00
04116           -7000.00
04117           -6800.00
04118           -6800.00
04119           -6600.00
04120           -6600.00
04121           -6400.00
04122           -6000.00
04123           -6000.00
04124           -6000.00
04125           -5800.00
04126           -5600.00
04127           -5600.00
04128           -5200.00
04129           -5000.00
04130           -5000.00
04131           -4600.00
04132           -4600.00
04133           -4400.00
04134           -4200.00
04135           -4200.00
04136           -4000.00
04137           -3600.00
04138           -3600.00
04139           -3400.00
04140           -3200.00
04141           -3000.00
04142           -2800.00
04143           -2800.00
04144           -2400.00
04145           -2400.00
04146           -2000.00
04147           -2000.00
04148           -1800.00
04149           -1600.00
04150           -1600.00
04151           -1200.00
04152           -1000.00
04153            -800.00
04154            -600.00
04155            -400.00
04156            -200.00
04157               0.00
04158               0.00
04159             400.00
04160             400.00
04161             600.00
04162             800.00
04163            1000.00
04164            1200.00
04165            1400.00
04166            1600.00
04167            1800.00
04168            2000.00
04169            2200.00
04170            2400.00
04171            2600.00
04172            2800.00
04173            2800.00
04174            3000.00
04175            3200.00
04176            3600.00
04177            3600.00
04178            3800.00
04179            4000.00
04180            4200.00
04181            4000.00
04182            4400.00
04183            4600.00
04184            4800.00
04185            5000.00
04186            5200.00
04187            5400.00
04188            5600.00
04189            5800.00
04190            6000.00
04191            6000.00
04192            6200.00
04193            6200.00
04194            6400.00
04195            6600.00
04196            6800.00
04197            7000.00
04198            7200.00
04199            7200.00
04200            7200.00
04201            7400.00
04202            7600.00
04203            7800.00
04204            7800.00
04205            8000.00
04206            8200.00
04207            8400.00
04208            8400.00
04209            8600.00
04210            8600.00
04211            8800.00
04212            8800.00
04213            8800.00
04214            8800.00
04215            8800.00
04216            9200.00
04217            9200.00
04218            9400.00
04219            9200.00
04220            9400.00
04221            9600.00
04222            9600.00
04223            9600.00
04224            9600.00
04225            9800.00
04226           10000.00
04227            9800.00
04228           10000.00
04229           10000.00
04230           10200.00
04231           10000.00
04232           10200.00
04233           10000.00
04234           10200.00
04235           10400.00
04236           10200.00
04237           10200.00
04238           10200.00
04239           10200.00
04240           10200.00
04241           10400.00
04242           10200.00
04243           10200.00
04244           10200.00
04245           10200.00
04246           10000.00
04247           10200.00
04248           10200.00
04249           10000.00
04250           10000.00
04251           10000.00
04252           10000.00
04253           10000.00
04254           10000.00
04255           10000.00
04256            9800.00
04257            9600.00
04258            9600.00
04259            9600.00
04260            9600.00
04261            9400.00
04262            9400.00
04263            9200.00
04264            9400.00
04265            9200.00
04266            9000.00
04267            9000.00
04268            8800.00
04269            8800.00
04270            8600.00
04271            8600.00
04272            8400.00
04273            8400.00
04274            8400.00
04275            8000.00
04276            8000.00
04277            8000.00
04278            7800.00
04279            7600.00
04280            7600.00
04281            7400.00
04282            7000.00
04283            7000.00
04284            7000.00
04285            6800.00
04286            6800.00
04287            6400.00
04288            6400.00
04289            6200.00
04290            6000.00
04291            6000.00
04292            5800.00
04293            5600.00
04294            5400.00
04295            5400.00
04296            5200.00
04297            4800.00
04298            4800.00
04299            4600.00
04300            4400.00
04301            4400.00
04302            4000.00
04303            3800.00
04304            3800.00
04305            3400.00
04306            3200.00
04307            3200.00
04308            3000.00
04309            2800.00
04310            2600.00
04311            2400.00
04312            2200.00
04313            2000.00
04314            2000.00
04315            1600.00
04316            1400.00
04317            1400.00
04318            1000.00
04319            1000.00
04320             600.00
04321             400.00
04322             400.00
04323             200.00
04324            -200.00
04325            -200.00
04326            -400.00
04327            -600.00
04328            -800.00
04329            -800.00
04330           -1200.00
04331           -1200.00
04332           -1400.00
04333           -1600.00
04334           -2000.00
04335           -2400.00
04336           -2400.00
04337           -2400.00
04338           -2400.00
04339           -3200.00
04340           -3200.00
04341           -3000.00
04342           -3600.00
04343           -3600.00
04344           -3600.00
04345           -4000.00
04346           -4200.00
04347           -4200.00
04348           -4400.00
04349           -4600.00
04350           -4800.00
04351           -5000.00
04352           -5000.00
04353           -5200.00
04354           -5400.00
04355           -5800.00
04356           -5600.00
04357           -6000.00
04358           -6000.00
04359           -6200.00
04360           -6400.00
04361           -6400.00
04362           -6600.00
04363           -6800.00
04364           -7000.00
04365           -7200.00
04366           -7200.00
04367           -7400.00
04368           -7600.00
04369           -7600.00
04370           -7800.00
04371           -8000.00
04372           -8200.00
04373           -8200.00
04374           -8400.00
04375           -8400.00
04376           -8400.00
04377           -8600.00
04378           -8600.00
04379           -8800.00
04380           -9000.00
04381           -8800.00
04382           -9200.00
04383           -9200.00
04384           -9200.00
04385           -9200.00
04386           -9200.00
04387           -9400.00
04388           -9600.00
04389           -9600.00
04390           -9600.00
04391           -9800.00
04392           -9800.00
04393           -9800.00
04394           -9800.00
04395           -9800.00
04396          -10000.00
04397          -10000.00
04398          -10000.00
04399          -10000.00
04400          -10000.00
04401          -10000.00
04402          -10000.00
04403          -10000.00
04404          -10200.00
04405          -10000.00
04406          -10000.00
04407          -10000.00
04408          -10200.00
04409          -10200.00
04410          -10000.00
04411          -10000.00
04412          -10000.00
04413          -10000.00
04414          -10000.00
04415          -10000.00
04416           -9800.00
04417          -10000.00
04418           -9800.00
04419           -9800.00
04420           -9800.00
04421           -9600.00
04422           -9800.00
04423           -9600.00
04424           -9600.00
04425           -9400.00
04426           -9600.00
04427           -9200.00
04428           -9200.00
04429           -9200.00
04430           -9200.00
04431           -9000.00
04432           -8800.00
04433           -8800.00
04434           -8800.00
04435           -8800.00
04436           -8600.00
04437           -8400.00
04438           -8400.00
04439           -8200.00
04440           -8200.00
04441           -8000.00
04442           -8000.00
04443           -7600.00
04444           -7600.00
04445           -7400.00
04446           -7400.00
04447           -7200.00
04448           -7000.00
04449           -6800.00
04450           -6800.00
04451           -6600.00
04452           -6600.00
04453           -6400.00
04454           -6200.00
04455           -6000.00
04456           -6000.00
04457           -5800.00
04458           -5600.00
04459           -5400.00
04460           -5200.00
04461           -5000.00
04462           -4800.00
04463           -4600.00
04464           -4600.00
04465           -4400.00
04466           -4400.00
04467           -4000.00
04468           -4000.00
04469           -3600.00
04470           -3600.00
04471           -3400.00
04472           -3200.00
04473           -3200.00
04474           -2800.00
04475           -2600.00
04476           -2600.00
04477           -2400.00
04478           -2200.00
04479           -1800.00
04480           -1800.00
04481           -1600.00
04482           -1200.00
04483           -1000.00
04484           -1000.00
04485            -400.00
04486            -600.00
04487            -400.00
04488            -200.00
04489               0.00
04490             200.00
04491             400.00
04492             400.00
04493             600.00
04494            1000.00
04495            1200.00
04496            1200.00
04497            1400.00
04498            1600.00
04499            2000.00
04500            2000.00
04501            2400.00
04502            2400.00
04503            2600.00
04504            2800.00
04505            3000.00
04506            3200.00
04507            3200.00
04508            3600.00
04509            3600.00
04510            3600.00
04511            4000.00
04512            4200.00
04513            4200.00
04514            4600.00
04515            4800.00
04516            4800.00
04517            5200.00
04518            5200.00
04519            5400.00
04520            5600.00
04521            5600.00
04522            5800.00
04523            6200.00
04524            6200.00
04525            6400.00
04526            6600.00
04527            6600.00
04528            6800.00
04529            7000.00
04530            7200.00
04531            7200.00
04532            7400.00
04533            7200.00
04534            7800.00
04535            7800.00
04536            8000.00
04537            8200.00
04538            8200.00
04539            8400.00
04540            8400.00
04541            8400.00
04542            8600.00
04543            8800.00
04544            8800.00
04545            8800.00
04546            8800.00
04547            9200.00
04548            9200.00
04549            9400.00
04550            9400.00
04551            9200.00
04552            9600.00
04553            9400.00
04554            9600.00
04555            9600.00
04556            9600.00
04557            9800.00
04558           10000.00
04559           10000.00
04560           10000.00
04561           10000.00
04562           10000.00
04563           10200.00
04564           10000.00
04565           10000.00
04566           10200.00
04567           10200.00
04568           10200.00
04569           10200.00
04570           10200.00
04571           10200.00
04572           10200.00
04573           10200.00
04574           10200.00
04575           10200.00
04576           10000.00
04577           10200.00
04578           10000.00
04579           10000.00
04580           10200.00
04581           10000.00
04582           10200.00
04583           10000.00
04584           10000.00
04585            9800.00
04586           10000.00
04587            9600.00
04588            9600.00
04589            9600.00
04590            9600.00
04591            9600.00
04592            9600.00
04593            9400.00
04594            9200.00
04595            9200.00
04596            9400.00
04597            9200.00
04598            9000.00
04599            8800.00
04600            8800.00
04601            8800.00
04602            8600.00
04603            8600.00
04604            8400.00
04605            8400.00
04606            8200.00
04607            8200.00
04608            8200.00
04609            7800.00
04610            7800.00
04611            7600.00
04612            7600.00
04613            7200.00
04614            7200.00
04615            7000.00
04616            6800.00
04617            6800.00
04618            6600.00
04619            6400.00
04620            6400.00
04621            6200.00
04622            6200.00
04623            6000.00
04624            5600.00
04625            5600.00
04626            5400.00
04627            5400.00
04628            5200.00
04629            4800.00
04630            4600.00
04631            4600.00
04632            4400.00
04633            4400.00
04634            4000.00
04635            3800.00
04636            3600.00
04637            3600.00
04638            3200.00
04639            3200.00
04640            3000.00
04641            2600.00
04642            2600.00
04643            2400.00
04644            2200.00
04645            2000.00
04646            1800.00
04647            1600.00
04648            1400.00
04649            1400.00
04650            1000.00
04651             800.00
04652             600.00
04653             400.00
04654             400.00
04655               0.00
04656            -200.00
04657            -200.00
04658            -400.00
04659            -600.00
04660            -800.00
04661           -1000.00
04662           -1000.00
04663           -1200.00
04664           -1400.00
04665           -1600.00
04666           -2000.00
04667           -2400.00
04668           -2400.00
04669           -2200.00
04670           -2600.00
04671           -3000.00
04672           -3000.00
04673           -3000.00
04674           -3400.00
04675           -3600.00
04676           -3600.00
04677           -4000.00
04678           -4200.00
04679           -4200.00
04680           -4400.00
04681           -4600.00
04682           -4800.00
04683           -4800.00
04684           -5000.00
04685           -5200.00
04686           -5600.00
04687           -5800.00
04688           -5800.00
04689           -6000.00
04690           -6200.00
04691           -6000.00
04692           -6400.00
04693           -6400.00
04694           -6600.00
04695           -6800.00
04696           -7000.00
04697           -6800.00
04698           -7400.00
04699           -7200.00
04700           -7600.00
04701           -7600.00
04702           -7800.00
04703           -8000.00
04704           -8200.00
04705           -8200.00
04706           -8400.00
04707           -8400.00
04708           -8400.00
04709           -8800.00
04710           -8800.00
04711           -8800.00
04712           -9000.00
04713           -9000.00
04714           -9000.00
04715           -9200.00
04716           -9200.00
04717           -9400.00
04718           -9200.00
04719           -9400.00
04720           -9600.00
04721           -9600.00
04722           -9600.00
04723           -9800.00
04724           -9800.00
04725           -9800.00
04726           -9800.00
04727           -9800.00
04728           -9800.00
04729          -10000.00
04730          -10000.00
04731          -10000.00
04732          -10000.00
04733          -10000.00
04734          -10000.00
04735          -10000.00
04736          -10000.00
04737          -10000.00
04738          -10000.00
04739          -10000.00
04740          -10000.00
04741          -10000.00
04742          -10200.00
04743          -10000.00
04744          -10000.00
04745          -10000.00
04746          -10000.00
04747          -10000.00
04748          -10000.00
04749           -9800.00
04750          -10000.00
04751           -9800.00
04752           -9600.00
04753           -9800.00
04754           -9600.00
04755           -9600.00
04756           -9600.00
04757           -9600.00
04758           -9400.00
04759           -9200.00
04760           -9200.00
04761           -9200.00
04762           -9200.00
04763           -9000.00
04764           -8800.00
04765           -8800.00
04766           -8800.00
04767           -8800.00
04768           -8400.00
04769           -8400.00
04770           -8200.00
04771           -8200.00
04772           -8200.00
04773           -8000.00
04774           -8000.00
04775           -7600.00
04776           -7600.00
04777           -7400.00
04778           -7200.00
04779           -7200.00
04780           -7200.00
04781           -6800.00
04782           -6800.00
04783           -6600.00
04784           -6600.00
04785           -6400.00
04786           -6200.00
04787           -6000.00
04788           -5800.00
04789           -5800.00
04790           -5600.00
04791           -5400.00
04792           -5200.00
04793           -5000.00
04794           -5000.00
04795           -4600.00
04796           -4400.00
04797           -4400.00
04798           -4200.00
04799           -4000.00
04800           -4000.00
04801           -3600.00
04802           -3400.00
04803           -3400.00
04804           -3200.00
04805           -3000.00
04806           -2800.00
04807           -2600.00
04808           -2400.00
04809           -2200.00
04810           -2000.00
04811           -2000.00
04812           -1800.00
04813           -1600.00
04814           -1200.00
04815           -1000.00
04816           -1000.00
04817            -800.00
04818            -400.00
04819            -400.00
04820            -200.00
04821               0.00
04822             200.00
04823             400.00
04824             600.00
04825             800.00
04826             800.00
04827            1000.00
04828            1400.00
04829            1400.00
04830            1600.00
04831            2000.00
04832            2200.00
04833            2400.00
04834            2400.00
04835            2600.00
04836            2800.00
04837            3000.00
04838            3000.00
04839            3200.00
04840            3600.00
04841            3600.00
04842            3800.00
04843            4000.00
04844            4200.00
04845            4400.00
04846            4400.00
04847            4600.00
04848            5000.00
04849            5200.00
04850            5200.00
04851            5600.00
04852            5600.00
04853            5800.00
04854            6000.00
04855            6000.00
04856            6200.00
04857            6400.00
04858            6600.00
04859            6600.00
04860            6800.00
04861            7000.00
04862            7200.00
04863            7200.00
04864            7400.00
04865            7600.00
04866            7600.00
04867            7800.00
04868            8000.00
04869            8200.00
04870            8200.00
04871            8400.00
04872            8400.00
04873            8400.00
04874            8600.00
04875            8600.00
04876            8800.00
04877            8800.00
04878            8800.00
04879            9200.00
04880            9200.00
04881            9200.00
04882            9400.00
04883            9400.00
04884            9400.00
04885            9600.00
04886            9600.00
04887            9800.00
04888            9600.00
04889            9800.00
04890           10000.00
04891           10000.00
04892           10000.00
04893           10000.00
04894           10200.00
04895           10200.00
04896           10200.00
04897           10200.00
04898           10200.00
04899           10200.00
04900           10200.00
04901           10200.00
04902           10200.00
04903           10400.00
04904           10000.00
04905           10200.00
04906           10200.00
04907           10200.00
04908           10200.00
04909           10200.00
04910           10200.00
04911           10000.00
04912           10200.00
04913           10000.00
04914           10000.00
04915           10000.00
04916           10000.00
04917           10000.00
04918            9800.00
04919            9800.00
04920            9600.00
04921            9600.00
04922            9600.00
04923            9400.00
04924            9600.00
04925            9200.00
04926            9400.00
04927            9400.00
04928            9200.00
04929            9200.00
04930            9200.00
04931            9000.00
04932            8800.00
04933            8600.00
04934            8800.00
04935            8600.00
04936            8400.00
04937            8400.00
04938            8200.00
04939            8000.00
04940            8000.00
04941            7800.00
04942            7800.00
04943            7600.00
04944            7600.00
04945            7200.00
04946            7200.00
04947            7000.00
04948            6800.00
04949            6800.00
04950            6600.00
04951            6400.00
04952            6200.00
04953            6200.00
04954            6000.00
04955            6000.00
04956            5600.00
04957            5600.00
04958            5400.00
04959            5200.00
04960            4800.00
04961            4800.00
04962            4600.00
04963            4400.00
04964            4400.00
04965            4000.00
04966            4000.00
04967            3800.00
04968            3600.00
04969            3600.00
04970            3200.00
04971            3200.00
04972            2800.00
04973            2800.00
04974            2600.00
04975            2400.00
04976            2000.00
04977            2000.00
04978            1600.00
04979            1800.00
04980            1600.00
04981            1200.00
04982            1000.00
04983             800.00
04984             600.00
04985             400.00
04986             200.00
04987               0.00
04988            -200.00
04989            -400.00
04990            -400.00
04991            -600.00
04992            -800.00
04993           -1000.00
04994           -1200.00
04995           -1400.00
04996           -1600.00
04997           -1800.00
04998           -2200.00
04999           -2400.00
05000           -2200.00
