Unit:(mV)
                     CH2
Frequency    301.632 kHz
00001            1800.00
00002            1800.00
00003            1600.00
00004            1400.00
00005            1200.00
00006            1000.00
00007            1000.00
00008             800.00
00009             600.00
00010             400.00
00011             200.00
00012             200.00
00013            -200.00
00014            -200.00
00015            -400.00
00016            -400.00
00017            -600.00
00018            -800.00
00019            -800.00
00020           -1000.00
00021           -1000.00
00022           -1400.00
00023           -1800.00
00024           -2000.00
00025           -1600.00
00026           -1800.00
00027           -2400.00
00028           -2400.00
00029           -2400.00
00030           -2600.00
00031           -3000.00
00032           -2800.00
00033           -3200.00
00034           -3200.00
00035           -3600.00
00036           -3400.00
00037           -3600.00
00038           -3800.00
00039           -3800.00
00040           -4000.00
00041           -4200.00
00042           -4400.00
00043           -4400.00
00044           -4400.00
00045           -4600.00
00046           -4800.00
00047           -5000.00
00048           -5200.00
00049           -5200.00
00050           -5600.00
00051           -5400.00
00052           -5600.00
00053           -5800.00
00054           -5800.00
00055           -6000.00
00056           -6000.00
00057           -6000.00
00058           -6400.00
00059           -6400.00
00060           -6600.00
00061           -6600.00
00062           -6600.00
00063           -6800.00
00064           -6800.00
00065           -7000.00
00066           -7200.00
00067           -7200.00
00068           -7200.00
00069           -7400.00
00070           -7400.00
00071           -7400.00
00072           -7600.00
00073           -7400.00
00074           -7600.00
00075           -7800.00
00076           -8000.00
00077           -8000.00
00078           -8000.00
00079           -8000.00
00080           -8000.00
00081           -8000.00
00082           -8000.00
00083           -8200.00
00084           -8200.00
00085           -8400.00
00086           -8200.00
00087           -8200.00
00088           -8400.00
00089           -8200.00
00090           -8400.00
00091           -8200.00
00092           -8200.00
00093           -8200.00
00094           -8400.00
00095           -8200.00
00096           -8200.00
00097           -8400.00
00098           -8200.00
00099           -8200.00
00100           -8200.00
00101           -8200.00
00102           -8200.00
00103           -8200.00
00104           -8200.00
00105           -8200.00
00106           -8200.00
00107           -8200.00
00108           -8200.00
00109           -8000.00
00110           -8000.00
00111           -7800.00
00112           -8000.00
00113           -8000.00
00114           -7800.00
00115           -7600.00
00116           -7600.00
00117           -7600.00
00118           -7400.00
00119           -7400.00
00120           -7400.00
00121           -7200.00
00122           -7400.00
00123           -7200.00
00124           -7200.00
00125           -7000.00
00126           -6800.00
00127           -6800.00
00128           -6600.00
00129           -6600.00
00130           -6600.00
00131           -6400.00
00132           -6400.00
00133           -6200.00
00134           -6000.00
00135           -6000.00
00136           -5800.00
00137           -5800.00
00138           -5600.00
00139           -5600.00
00140           -5600.00
00141           -5200.00
00142           -5200.00
00143           -5000.00
00144           -5000.00
00145           -4600.00
00146           -4600.00
00147           -4400.00
00148           -4400.00
00149           -4200.00
00150           -4000.00
00151           -4000.00
00152           -4000.00
00153           -3800.00
00154           -3600.00
00155           -3600.00
00156           -3400.00
00157           -3200.00
00158           -3000.00
00159           -2800.00
00160           -2600.00
00161           -2400.00
00162           -2400.00
00163           -2400.00
00164           -2000.00
00165           -2000.00
00166           -1800.00
00167           -1600.00
00168           -1600.00
00169           -1200.00
00170           -1200.00
00171           -1000.00
00172            -800.00
00173            -800.00
00174            -400.00
00175            -400.00
00176            -200.00
00177               0.00
00178               0.00
00179             200.00
00180             400.00
00181             600.00
00182             800.00
00183             800.00
00184            1200.00
00185            1200.00
00186            1200.00
00187            1400.00
00188            1600.00
00189            2000.00
00190            2000.00
00191            2000.00
00192            2200.00
00193            2400.00
00194            2600.00
00195            2600.00
00196            2800.00
00197            3000.00
00198            3000.00
00199            3200.00
00200            3600.00
00201            3600.00
00202            3600.00
00203            3800.00
00204            4000.00
00205            4000.00
00206            4200.00
00207            4400.00
00208            4600.00
00209            4600.00
00210            4800.00
00211            4800.00
00212            5200.00
00213            5200.00
00214            5400.00
00215            5400.00
00216            5600.00
00217            5800.00
00218            6000.00
00219            6000.00
00220            6200.00
00221            6200.00
00222            6200.00
00223            6600.00
00224            6400.00
00225            6400.00
00226            6800.00
00227            7000.00
00228            6800.00
00229            7000.00
00230            7000.00
00231            7200.00
00232            7200.00
00233            7400.00
00234            7400.00
00235            7600.00
00236            7600.00
00237            7800.00
00238            7600.00
00239            7800.00
00240            7800.00
00241            8000.00
00242            8000.00
00243            8200.00
00244            8000.00
00245            8000.00
00246            8200.00
00247            8200.00
00248            8000.00
00249            8200.00
00250            8400.00
00251            8400.00
00252            8400.00
00253            8400.00
00254            8400.00
00255            8400.00
00256            8600.00
00257            8400.00
00258            8400.00
00259            8600.00
00260            8400.00
00261            8400.00
00262            8400.00
00263            8400.00
00264            8400.00
00265            8400.00
00266            8400.00
00267            8400.00
00268            8400.00
00269            8400.00
00270            8400.00
00271            8400.00
00272            8200.00
00273            8400.00
00274            8400.00
00275            8200.00
00276            8000.00
00277            8200.00
00278            8200.00
00279            8000.00
00280            8000.00
00281            8000.00
00282            7800.00
00283            7800.00
00284            7800.00
00285            7600.00
00286            7600.00
00287            7400.00
00288            7200.00
00289            7200.00
00290            7200.00
00291            7000.00
00292            7000.00
00293            7000.00
00294            7000.00
00295            6800.00
00296            6800.00
00297            6800.00
00298            6400.00
00299            6200.00
00300            6400.00
00301            6200.00
00302            6000.00
00303            6000.00
00304            6000.00
00305            5800.00
00306            5600.00
00307            5400.00
00308            5400.00
00309            5200.00
00310            5200.00
00311            4800.00
00312            4800.00
00313            4600.00
00314            4400.00
00315            4400.00
00316            4200.00
00317            4200.00
00318            4000.00
00319            3800.00
00320            3800.00
00321            3600.00
00322            3400.00
00323            3200.00
00324            3000.00
00325            2800.00
00326            3000.00
00327            2800.00
00328            2400.00
00329            2400.00
00330            2200.00
00331            2000.00
00332            2000.00
00333            1800.00
00334            1600.00
00335            1400.00
00336            1400.00
00337            1200.00
00338            1000.00
00339             800.00
00340             600.00
00341             400.00
00342             400.00
00343             200.00
00344               0.00
00345               0.00
00346            -200.00
00347            -400.00
00348            -600.00
00349            -800.00
00350            -800.00
00351           -1000.00
00352           -1200.00
00353           -1200.00
00354           -1600.00
00355           -2000.00
00356           -1800.00
00357           -1800.00
00358           -2000.00
00359           -2400.00
00360           -2400.00
00361           -2400.00
00362           -2600.00
00363           -3000.00
00364           -3000.00
00365           -3200.00
00366           -3400.00
00367           -3400.00
00368           -3600.00
00369           -3600.00
00370           -4000.00
00371           -4000.00
00372           -4200.00
00373           -4200.00
00374           -4400.00
00375           -4600.00
00376           -4400.00
00377           -4800.00
00378           -5000.00
00379           -5000.00
00380           -5200.00
00381           -5400.00
00382           -5400.00
00383           -5600.00
00384           -5800.00
00385           -5800.00
00386           -5800.00
00387           -6200.00
00388           -6000.00
00389           -6000.00
00390           -6400.00
00391           -6400.00
00392           -6400.00
00393           -6800.00
00394           -6800.00
00395           -6800.00
00396           -6800.00
00397           -7000.00
00398           -7200.00
00399           -7200.00
00400           -7200.00
00401           -7400.00
00402           -7400.00
00403           -7600.00
00404           -7600.00
00405           -7400.00
00406           -7600.00
00407           -7800.00
00408           -7800.00
00409           -7800.00
00410           -7800.00
00411           -8000.00
00412           -8200.00
00413           -8000.00
00414           -8000.00
00415           -8200.00
00416           -8200.00
00417           -8200.00
00418           -8200.00
00419           -8200.00
00420           -8400.00
00421           -8400.00
00422           -8400.00
00423           -8400.00
00424           -8400.00
00425           -8400.00
00426           -8200.00
00427           -8400.00
00428           -8200.00
00429           -8200.00
00430           -8400.00
00431           -8400.00
00432           -8400.00
00433           -8200.00
00434           -8400.00
00435           -8200.00
00436           -8200.00
00437           -8200.00
00438           -8200.00
00439           -8000.00
00440           -8000.00
00441           -8000.00
00442           -8000.00
00443           -8000.00
00444           -7800.00
00445           -8000.00
00446           -7600.00
00447           -7600.00
00448           -7600.00
00449           -7600.00
00450           -7400.00
00451           -7400.00
00452           -7200.00
00453           -7200.00
00454           -7200.00
00455           -7000.00
00456           -7200.00
00457           -6800.00
00458           -6800.00
00459           -6800.00
00460           -6600.00
00461           -6800.00
00462           -6400.00
00463           -6400.00
00464           -6200.00
00465           -6000.00
00466           -6000.00
00467           -6000.00
00468           -5800.00
00469           -5800.00
00470           -5600.00
00471           -5600.00
00472           -5400.00
00473           -5200.00
00474           -5000.00
00475           -5000.00
00476           -4800.00
00477           -4600.00
00478           -4600.00
00479           -4400.00
00480           -4400.00
00481           -4200.00
00482           -4200.00
00483           -3800.00
00484           -4000.00
00485           -3600.00
00486           -3600.00
00487           -3400.00
00488           -3200.00
00489           -3200.00
00490           -2800.00
00491           -2800.00
00492           -2600.00
00493           -2400.00
00494           -2400.00
00495           -2200.00
00496           -2000.00
00497           -2000.00
00498           -1800.00
00499           -1600.00
00500           -1600.00
00501           -1200.00
00502           -1000.00
00503           -1000.00
00504            -800.00
00505            -600.00
00506            -400.00
00507            -400.00
00508            -200.00
00509               0.00
00510               0.00
00511             400.00
00512             400.00
00513             600.00
00514             800.00
00515             800.00
00516             800.00
00517            1200.00
00518            1400.00
00519            1600.00
00520            1800.00
00521            1800.00
00522            2000.00
00523            2200.00
00524            2200.00
00525            2400.00
00526            2400.00
00527            2800.00
00528            2800.00
00529            3000.00
00530            3200.00
00531            3400.00
00532            3600.00
00533            3400.00
00534            3800.00
00535            3800.00
00536            4000.00
00537            4000.00
00538            4400.00
00539            4400.00
00540            4400.00
00541            4800.00
00542            4800.00
00543            4800.00
00544            5200.00
00545            5400.00
00546            5400.00
00547            5600.00
00548            5600.00
00549            5600.00
00550            6000.00
00551            6000.00
00552            6200.00
00553            6200.00
00554            6400.00
00555            6400.00
00556            6400.00
00557            6800.00
00558            6800.00
00559            6800.00
00560            6800.00
00561            7000.00
00562            7000.00
00563            7200.00
00564            7200.00
00565            7400.00
00566            7400.00
00567            7400.00
00568            7600.00
00569            7600.00
00570            7800.00
00571            7800.00
00572            7800.00
00573            7800.00
00574            8200.00
00575            8000.00
00576            8200.00
00577            8200.00
00578            8200.00
00579            8400.00
00580            8200.00
00581            8200.00
00582            8400.00
00583            8400.00
00584            8400.00
00585            8400.00
00586            8400.00
00587            8400.00
00588            8600.00
00589            8400.00
00590            8400.00
00591            8600.00
00592            8400.00
00593            8400.00
00594            8400.00
00595            8400.00
00596            8400.00
00597            8400.00
00598            8400.00
00599            8400.00
00600            8400.00
00601            8400.00
00602            8400.00
00603            8400.00
00604            8400.00
00605            8200.00
00606            8200.00
00607            8000.00
00608            8000.00
00609            8200.00
00610            8000.00
00611            7800.00
00612            8000.00
00613            7800.00
00614            7800.00
00615            7800.00
00616            7600.00
00617            7600.00
00618            7600.00
00619            7600.00
00620            7200.00
00621            7200.00
00622            7200.00
00623            7000.00
00624            7000.00
00625            6800.00
00626            6800.00
00627            6800.00
00628            6600.00
00629            6400.00
00630            6400.00
00631            6200.00
00632            6200.00
00633            6000.00
00634            6000.00
00635            5800.00
00636            5800.00
00637            5600.00
00638            5400.00
00639            5400.00
00640            5400.00
00641            5200.00
00642            4800.00
00643            4800.00
00644            4600.00
00645            4600.00
00646            4400.00
00647            4400.00
00648            4400.00
00649            4000.00
00650            3800.00
00651            3800.00
00652            3600.00
00653            3600.00
00654            3400.00
00655            3000.00
00656            3000.00
00657            2800.00
00658            2800.00
00659            2800.00
00660            2400.00
00661            2200.00
00662            2200.00
00663            2000.00
00664            1800.00
00665            1800.00
00666            1600.00
00667            1400.00
00668            1200.00
00669            1000.00
00670             800.00
00671             800.00
00672             600.00
00673             400.00
00674             200.00
00675             200.00
00676               0.00
00677            -200.00
00678            -200.00
00679            -400.00
00680            -600.00
00681            -800.00
00682           -1000.00
00683           -1000.00
00684           -1200.00
00685           -1600.00
00686           -1800.00
00687           -1800.00
00688           -1800.00
00689           -1800.00
00690           -2200.00
00691           -2400.00
00692           -2400.00
00693           -2400.00
00694           -2800.00
00695           -2800.00
00696           -3000.00
00697           -3200.00
00698           -3600.00
00699           -3400.00
00700           -3600.00
00701           -4000.00
00702           -4000.00
00703           -4000.00
00704           -4200.00
00705           -4400.00
00706           -4400.00
00707           -4600.00
00708           -4800.00
00709           -4800.00
00710           -5000.00
00711           -5000.00
00712           -5200.00
00713           -5400.00
00714           -5600.00
00715           -5600.00
00716           -5800.00
00717           -5800.00
00718           -6000.00
00719           -6200.00
00720           -6200.00
00721           -6200.00
00722           -6600.00
00723           -6600.00
00724           -6600.00
00725           -6800.00
00726           -6800.00
00727           -7000.00
00728           -7200.00
00729           -7000.00
00730           -7200.00
00731           -7200.00
00732           -7200.00
00733           -7400.00
00734           -7400.00
00735           -7600.00
00736           -7600.00
00737           -7600.00
00738           -7800.00
00739           -7600.00
00740           -8000.00
00741           -8000.00
00742           -8000.00
00743           -8000.00
00744           -8000.00
00745           -8000.00
00746           -8000.00
00747           -8400.00
00748           -8200.00
00749           -8200.00
00750           -8200.00
00751           -8400.00
00752           -8400.00
00753           -8400.00
00754           -8400.00
00755           -8400.00
00756           -8200.00
00757           -8400.00
00758           -8400.00
00759           -8200.00
00760           -8400.00
00761           -8200.00
00762           -8400.00
00763           -8200.00
00764           -8400.00
00765           -8200.00
00766           -8200.00
00767           -8200.00
00768           -8200.00
00769           -8200.00
00770           -8000.00
00771           -8000.00
00772           -8200.00
00773           -8000.00
00774           -8000.00
00775           -8000.00
00776           -8000.00
00777           -7800.00
00778           -7600.00
00779           -7600.00
00780           -7600.00
00781           -7600.00
00782           -7400.00
00783           -7200.00
00784           -7200.00
00785           -7200.00
00786           -7200.00
00787           -7200.00
00788           -6800.00
00789           -7000.00
00790           -6800.00
00791           -6600.00
00792           -6800.00
00793           -6400.00
00794           -6400.00
00795           -6400.00
00796           -6200.00
00797           -6000.00
00798           -6000.00
00799           -6000.00
00800           -5800.00
00801           -5800.00
00802           -5600.00
00803           -5400.00
00804           -5400.00
00805           -5200.00
00806           -5000.00
00807           -5000.00
00808           -4800.00
00809           -4600.00
00810           -4400.00
00811           -4400.00
00812           -4400.00
00813           -4200.00
00814           -4000.00
00815           -4000.00
00816           -3600.00
00817           -3600.00
00818           -3600.00
00819           -3400.00
00820           -3200.00
00821           -3000.00
00822           -2800.00
00823           -2600.00
00824           -2600.00
00825           -2400.00
00826           -2400.00
00827           -2000.00
00828           -2000.00
00829           -1800.00
00830           -1600.00
00831           -1600.00
00832           -1200.00
00833           -1200.00
00834           -1000.00
00835            -800.00
00836            -800.00
00837            -600.00
00838            -400.00
00839            -200.00
00840            -200.00
00841               0.00
00842             200.00
00843             400.00
00844             600.00
00845             600.00
00846             800.00
00847             800.00
00848            1000.00
00849            1400.00
00850            1400.00
00851            1800.00
00852            2000.00
00853            2000.00
00854            2000.00
00855            2200.00
00856            2400.00
00857            2400.00
00858            2800.00
00859            2800.00
00860            3000.00
00861            3000.00
00862            3200.00
00863            3600.00
00864            3400.00
00865            3600.00
00866            3800.00
00867            4000.00
00868            4000.00
00869            4200.00
00870            4400.00
00871            4600.00
00872            4600.00
00873            4800.00
00874            4800.00
00875            5200.00
00876            5200.00
00877            5400.00
00878            5400.00
00879            5600.00
00880            5800.00
00881            5800.00
00882            6000.00
00883            6000.00
00884            6200.00
00885            6200.00
00886            6400.00
00887            6400.00
00888            6400.00
00889            6600.00
00890            6800.00
00891            6800.00
00892            7000.00
00893            7000.00
00894            7200.00
00895            7400.00
00896            7200.00
00897            7200.00
00898            7400.00
00899            7600.00
00900            7600.00
00901            7800.00
00902            7800.00
00903            7800.00
00904            7800.00
00905            8000.00
00906            8200.00
00907            8200.00
00908            8200.00
00909            8200.00
00910            8200.00
00911            8400.00
00912            8400.00
00913            8400.00
00914            8400.00
00915            8400.00
00916            8400.00
00917            8400.00
00918            8400.00
00919            8600.00
00920            8400.00
00921            8400.00
00922            8400.00
00923            8400.00
00924            8400.00
00925            8600.00
00926            8600.00
00927            8400.00
00928            8600.00
00929            8600.00
00930            8400.00
00931            8400.00
00932            8400.00
00933            8400.00
00934            8400.00
00935            8400.00
00936            8200.00
00937            8200.00
00938            8200.00
00939            8200.00
00940            8200.00
00941            8000.00
00942            8000.00
00943            8000.00
00944            7800.00
00945            7800.00
00946            7800.00
00947            7800.00
00948            7600.00
00949            7600.00
00950            7600.00
00951            7400.00
00952            7200.00
00953            7200.00
00954            7200.00
00955            7000.00
00956            7000.00
00957            6800.00
00958            6800.00
00959            6800.00
00960            6400.00
00961            6400.00
00962            6400.00
00963            6200.00
00964            6200.00
00965            6000.00
00966            6000.00
00967            6000.00
00968            5600.00
00969            5600.00
00970            5400.00
00971            5200.00
00972            5200.00
00973            5000.00
00974            4800.00
00975            4800.00
00976            4600.00
00977            4600.00
00978            4400.00
00979            4200.00
00980            4200.00
00981            4000.00
00982            3800.00
00983            3800.00
00984            3600.00
00985            3600.00
00986            3200.00
00987            3200.00
00988            3000.00
00989            2800.00
00990            2800.00
00991            2400.00
00992            2400.00
00993            2200.00
00994            2000.00
00995            2000.00
00996            1800.00
00997            1600.00
00998            1600.00
00999            1400.00
01000            1200.00
01001             800.00
01002             800.00
01003             600.00
01004             400.00
01005             400.00
01006               0.00
01007               0.00
01008               0.00
01009            -200.00
01010            -400.00
01011            -400.00
01012            -800.00
01013            -800.00
01014           -1000.00
01015           -1200.00
01016           -1200.00
01017           -1600.00
01018           -1800.00
01019           -1800.00
01020           -1800.00
01021           -2000.00
01022           -2600.00
01023           -2400.00
01024           -2400.00
01025           -2800.00
01026           -3000.00
01027           -2800.00
01028           -3000.00
01029           -3400.00
01030           -3400.00
01031           -3400.00
01032           -3600.00
01033           -3800.00
01034           -4000.00
01035           -4200.00
01036           -4200.00
01037           -4400.00
01038           -4600.00
01039           -4600.00
01040           -4800.00
01041           -4800.00
01042           -5000.00
01043           -5200.00
01044           -5400.00
01045           -5400.00
01046           -5600.00
01047           -5800.00
01048           -5800.00
01049           -6000.00
01050           -6000.00
01051           -6000.00
01052           -6200.00
01053           -6400.00
01054           -6400.00
01055           -6600.00
01056           -6800.00
01057           -6800.00
01058           -6800.00
01059           -6800.00
01060           -6800.00
01061           -7200.00
01062           -7200.00
01063           -7200.00
01064           -7200.00
01065           -7400.00
01066           -7400.00
01067           -7600.00
01068           -7600.00
01069           -7600.00
01070           -7800.00
01071           -8000.00
01072           -8000.00
01073           -8000.00
01074           -8000.00
01075           -8000.00
01076           -8000.00
01077           -8000.00
01078           -8000.00
01079           -8200.00
01080           -8200.00
01081           -8200.00
01082           -8200.00
01083           -8400.00
01084           -8400.00
01085           -8200.00
01086           -8400.00
01087           -8400.00
01088           -8200.00
01089           -8400.00
01090           -8200.00
01091           -8200.00
01092           -8400.00
01093           -8400.00
01094           -8400.00
01095           -8200.00
01096           -8200.00
01097           -8200.00
01098           -8200.00
01099           -8200.00
01100           -8200.00
01101           -8000.00
01102           -8000.00
01103           -8000.00
01104           -8200.00
01105           -8000.00
01106           -8000.00
01107           -8000.00
01108           -7800.00
01109           -7800.00
01110           -7800.00
01111           -7800.00
01112           -7400.00
01113           -7600.00
01114           -7400.00
01115           -7400.00
01116           -7400.00
01117           -7200.00
01118           -7200.00
01119           -6800.00
01120           -7000.00
01121           -6800.00
01122           -6600.00
01123           -6800.00
01124           -6600.00
01125           -6400.00
01126           -6400.00
01127           -6400.00
01128           -6000.00
01129           -6000.00
01130           -6000.00
01131           -5800.00
01132           -5800.00
01133           -5600.00
01134           -5600.00
01135           -5200.00
01136           -5200.00
01137           -5200.00
01138           -5000.00
01139           -4800.00
01140           -4600.00
01141           -4400.00
01142           -4400.00
01143           -4400.00
01144           -4200.00
01145           -4000.00
01146           -4000.00
01147           -3600.00
01148           -3600.00
01149           -3600.00
01150           -3400.00
01151           -3200.00
01152           -3200.00
01153           -3000.00
01154           -2800.00
01155           -2600.00
01156           -2400.00
01157           -2400.00
01158           -2200.00
01159           -2000.00
01160           -2000.00
01161           -1800.00
01162           -1600.00
01163           -1600.00
01164           -1200.00
01165           -1000.00
01166           -1000.00
01167            -800.00
01168            -600.00
01169            -400.00
01170            -200.00
01171            -200.00
01172               0.00
01173               0.00
01174             400.00
01175             400.00
01176             400.00
01177             600.00
01178             800.00
01179             800.00
01180            1200.00
01181            1200.00
01182            1600.00
01183            1800.00
01184            1800.00
01185            2000.00
01186            2000.00
01187            2200.00
01188            2400.00
01189            2400.00
01190            2800.00
01191            3000.00
01192            2800.00
01193            3200.00
01194            3200.00
01195            3600.00
01196            3400.00
01197            3800.00
01198            3800.00
01199            4000.00
01200            4000.00
01201            4200.00
01202            4400.00
01203            4600.00
01204            4600.00
01205            4800.00
01206            5000.00
01207            5000.00
01208            5200.00
01209            5400.00
01210            5400.00
01211            5600.00
01212            5800.00
01213            6000.00
01214            6000.00
01215            6000.00
01216            6200.00
01217            6400.00
01218            6400.00
01219            6400.00
01220            6600.00
01221            6800.00
01222            6800.00
01223            7000.00
01224            6800.00
01225            7000.00
01226            7200.00
01227            7200.00
01228            7200.00
01229            7400.00
01230            7400.00
01231            7600.00
01232            7600.00
01233            7800.00
01234            7800.00
01235            8000.00
01236            7800.00
01237            8000.00
01238            8000.00
01239            8200.00
01240            8400.00
01241            8200.00
01242            8200.00
01243            8200.00
01244            8400.00
01245            8400.00
01246            8400.00
01247            8400.00
01248            8400.00
01249            8400.00
01250            8400.00
01251            8600.00
01252            8400.00
01253            8400.00
01254            8600.00
01255            8400.00
01256            8600.00
01257            8400.00
01258            8600.00
01259            8400.00
01260            8400.00
01261            8400.00
01262            8400.00
01263            8400.00
01264            8400.00
01265            8400.00
01266            8400.00
01267            8400.00
01268            8400.00
01269            8200.00
01270            8200.00
01271            8000.00
01272            8000.00
01273            8200.00
01274            8000.00
01275            8000.00
01276            7800.00
01277            7800.00
01278            7600.00
01279            7600.00
01280            7600.00
01281            7400.00
01282            7400.00
01283            7200.00
01284            7200.00
01285            7000.00
01286            7000.00
01287            7000.00
01288            7000.00
01289            6800.00
01290            6800.00
01291            6600.00
01292            6400.00
01293            6400.00
01294            6400.00
01295            6000.00
01296            6000.00
01297            6000.00
01298            5800.00
01299            5600.00
01300            5600.00
01301            5600.00
01302            5400.00
01303            5200.00
01304            5000.00
01305            5000.00
01306            4800.00
01307            4600.00
01308            4600.00
01309            4400.00
01310            4400.00
01311            4000.00
01312            4000.00
01313            3800.00
01314            3600.00
01315            3600.00
01316            3400.00
01317            3400.00
01318            3200.00
01319            3000.00
01320            2800.00
01321            2800.00
01322            2800.00
01323            2400.00
01324            2200.00
01325            2200.00
01326            2000.00
01327            2000.00
01328            1600.00
01329            1600.00
01330            1400.00
01331            1200.00
01332            1200.00
01333             800.00
01334             600.00
01335             600.00
01336             400.00
01337             200.00
01338             200.00
01339               0.00
01340            -200.00
01341            -200.00
01342            -400.00
01343            -800.00
01344            -800.00
01345           -1000.00
01346           -1000.00
01347           -1200.00
01348           -1600.00
01349           -1800.00
01350           -1800.00
01351           -2000.00
01352           -1800.00
01353           -2200.00
01354           -2400.00
01355           -2400.00
01356           -2400.00
01357           -2800.00
01358           -2800.00
01359           -2800.00
01360           -3200.00
01361           -3400.00
01362           -3400.00
01363           -3600.00
01364           -4000.00
01365           -4000.00
01366           -4000.00
01367           -4200.00
01368           -4400.00
01369           -4400.00
01370           -4600.00
01371           -4600.00
01372           -5000.00
01373           -5200.00
01374           -5000.00
01375           -5200.00
01376           -5200.00
01377           -5600.00
01378           -5800.00
01379           -5800.00
01380           -5800.00
01381           -5800.00
01382           -6200.00
01383           -6000.00
01384           -6200.00
01385           -6400.00
01386           -6400.00
01387           -6600.00
01388           -6600.00
01389           -6800.00
01390           -6800.00
01391           -7000.00
01392           -7200.00
01393           -7200.00
01394           -7200.00
01395           -7200.00
01396           -7400.00
01397           -7400.00
01398           -7400.00
01399           -7600.00
01400           -7600.00
01401           -7800.00
01402           -7800.00
01403           -8000.00
01404           -8000.00
01405           -8000.00
01406           -8000.00
01407           -8000.00
01408           -8000.00
01409           -8200.00
01410           -8000.00
01411           -8200.00
01412           -8200.00
01413           -8400.00
01414           -8200.00
01415           -8200.00
01416           -8200.00
01417           -8400.00
01418           -8200.00
01419           -8400.00
01420           -8400.00
01421           -8200.00
01422           -8200.00
01423           -8400.00
01424           -8200.00
01425           -8400.00
01426           -8200.00
01427           -8400.00
01428           -8200.00
01429           -8200.00
01430           -8200.00
01431           -8200.00
01432           -8200.00
01433           -8200.00
01434           -8000.00
01435           -8000.00
01436           -8000.00
01437           -8000.00
01438           -8000.00
01439           -7800.00
01440           -8000.00
01441           -7800.00
01442           -7600.00
01443           -7600.00
01444           -7600.00
01445           -7400.00
01446           -7400.00
01447           -7400.00
01448           -7200.00
01449           -7200.00
01450           -7000.00
01451           -7000.00
01452           -6800.00
01453           -6800.00
01454           -6800.00
01455           -6600.00
01456           -6600.00
01457           -6400.00
01458           -6400.00
01459           -6200.00
01460           -6000.00
01461           -6000.00
01462           -5800.00
01463           -5800.00
01464           -5600.00
01465           -5600.00
01466           -5400.00
01467           -5400.00
01468           -5200.00
01469           -5000.00
01470           -5000.00
01471           -4800.00
01472           -4600.00
01473           -4400.00
01474           -4400.00
01475           -4400.00
01476           -4200.00
01477           -4000.00
01478           -3800.00
01479           -3600.00
01480           -3600.00
01481           -3400.00
01482           -3200.00
01483           -3200.00
01484           -3200.00
01485           -2800.00
01486           -2600.00
01487           -2600.00
01488           -2400.00
01489           -2400.00
01490           -2200.00
01491           -2000.00
01492           -1800.00
01493           -1600.00
01494           -1600.00
01495           -1200.00
01496           -1200.00
01497           -1200.00
01498            -800.00
01499            -800.00
01500            -600.00
01501            -400.00
01502            -200.00
01503            -200.00
01504               0.00
01505               0.00
01506             400.00
01507             400.00
01508             600.00
01509            1000.00
01510             800.00
01511            1200.00
01512            1200.00
01513            1400.00
01514            1800.00
01515            1800.00
01516            2000.00
01517            2000.00
01518            2200.00
01519            2400.00
01520            2400.00
01521            2600.00
01522            3000.00
01523            3000.00
01524            3000.00
01525            3200.00
01526            3400.00
01527            3600.00
01528            3600.00
01529            3800.00
01530            4000.00
01531            4000.00
01532            4400.00
01533            4400.00
01534            4600.00
01535            4600.00
01536            4800.00
01537            4800.00
01538            5200.00
01539            5200.00
01540            5400.00
01541            5400.00
01542            5400.00
01543            5600.00
01544            6000.00
01545            6000.00
01546            6000.00
01547            6200.00
01548            6200.00
01549            6400.00
01550            6400.00
01551            6600.00
01552            6600.00
01553            6800.00
01554            6800.00
01555            6800.00
01556            7000.00
01557            7200.00
01558            7200.00
01559            7200.00
01560            7400.00
01561            7400.00
01562            7600.00
01563            7600.00
01564            7600.00
01565            7600.00
01566            7800.00
01567            7800.00
01568            8200.00
01569            8000.00
01570            8200.00
01571            8200.00
01572            8000.00
01573            8400.00
01574            8200.00
01575            8400.00
01576            8400.00
01577            8400.00
01578            8400.00
01579            8400.00
01580            8400.00
01581            8400.00
01582            8600.00
01583            8400.00
01584            8400.00
01585            8400.00
01586            8600.00
01587            8400.00
01588            8400.00
01589            8400.00
01590            8400.00
01591            8600.00
01592            8400.00
01593            8400.00
01594            8400.00
01595            8400.00
01596            8400.00
01597            8200.00
01598            8400.00
01599            8200.00
01600            8200.00
01601            8200.00
01602            8200.00
01603            8000.00
01604            8000.00
01605            7800.00
01606            8000.00
01607            7800.00
01608            7800.00
01609            7800.00
01610            7600.00
01611            7600.00
01612            7600.00
01613            7400.00
01614            7200.00
01615            7200.00
01616            7200.00
01617            7200.00
01618            7000.00
01619            6800.00
01620            7000.00
01621            6800.00
01622            6600.00
01623            6600.00
01624            6600.00
01625            6400.00
01626            6200.00
01627            6000.00
01628            6200.00
01629            6000.00
01630            5800.00
01631            5600.00
01632            5600.00
01633            5600.00
01634            5400.00
01635            5200.00
01636            5000.00
01637            4800.00
01638            4800.00
01639            4800.00
01640            4600.00
01641            4400.00
01642            4400.00
01643            4200.00
01644            4000.00
01645            3800.00
01646            3800.00
01647            3600.00
01648            3400.00
01649            3200.00
01650            3200.00
01651            3000.00
01652            2800.00
01653            2800.00
01654            2600.00
01655            2400.00
01656            2400.00
01657            2000.00
01658            2000.00
01659            1800.00
01660            1600.00
01661            1600.00
01662            1400.00
01663            1200.00
01664             800.00
01665             800.00
01666             600.00
01667             600.00
01668             400.00
01669             200.00
01670               0.00
01671            -200.00
01672            -200.00
01673            -400.00
01674            -400.00
01675            -800.00
01676            -800.00
01677            -800.00
01678           -1200.00
01679           -1200.00
01680           -1800.00
01681           -1800.00
01682           -1800.00
01683           -1800.00
01684           -2000.00
01685           -2400.00
01686           -2400.00
01687           -2400.00
01688           -2800.00
01689           -3000.00
01690           -2800.00
01691           -3000.00
01692           -3400.00
01693           -3400.00
01694           -3600.00
01695           -3600.00
01696           -4000.00
01697           -4000.00
01698           -4200.00
01699           -4200.00
01700           -4400.00
01701           -4600.00
01702           -4800.00
01703           -4600.00
01704           -5000.00
01705           -5000.00
01706           -5000.00
01707           -5400.00
01708           -5400.00
01709           -5600.00
01710           -5800.00
01711           -5800.00
01712           -5800.00
01713           -6000.00
01714           -6200.00
01715           -6200.00
01716           -6400.00
01717           -6400.00
01718           -6400.00
01719           -6800.00
01720           -6800.00
01721           -6800.00
01722           -7000.00
01723           -6800.00
01724           -7000.00
01725           -7200.00
01726           -7200.00
01727           -7400.00
01728           -7400.00
01729           -7600.00
01730           -7600.00
01731           -7600.00
01732           -7600.00
01733           -7600.00
01734           -7600.00
01735           -7800.00
01736           -8000.00
01737           -8000.00
01738           -8000.00
01739           -8000.00
01740           -8000.00
01741           -8000.00
01742           -8200.00
01743           -8400.00
01744           -8200.00
01745           -8200.00
01746           -8200.00
01747           -8200.00
01748           -8200.00
01749           -8400.00
01750           -8200.00
01751           -8400.00
01752           -8400.00
01753           -8200.00
01754           -8400.00
01755           -8400.00
01756           -8400.00
01757           -8200.00
01758           -8400.00
01759           -8200.00
01760           -8200.00
01761           -8200.00
01762           -8200.00
01763           -8200.00
01764           -8200.00
01765           -8000.00
01766           -8000.00
01767           -8200.00
01768           -8000.00
01769           -8000.00
01770           -7800.00
01771           -8000.00
01772           -8000.00
01773           -7800.00
01774           -7600.00
01775           -7600.00
01776           -7400.00
01777           -7400.00
01778           -7400.00
01779           -7200.00
01780           -7400.00
01781           -7200.00
01782           -7000.00
01783           -7000.00
01784           -6800.00
01785           -6800.00
01786           -6600.00
01787           -6600.00
01788           -6600.00
01789           -6400.00
01790           -6400.00
01791           -6400.00
01792           -6000.00
01793           -6000.00
01794           -6000.00
01795           -5800.00
01796           -5600.00
01797           -5600.00
01798           -5400.00
01799           -5200.00
01800           -5200.00
01801           -4800.00
01802           -4800.00
01803           -4800.00
01804           -4600.00
01805           -4400.00
01806           -4400.00
01807           -4200.00
01808           -4200.00
01809           -4000.00
01810           -4000.00
01811           -3600.00
01812           -3600.00
01813           -3400.00
01814           -3200.00
01815           -3000.00
01816           -3000.00
01817           -2800.00
01818           -2800.00
01819           -2600.00
01820           -2400.00
01821           -2200.00
01822           -2000.00
01823           -2000.00
01824           -1800.00
01825           -1600.00
01826           -1600.00
01827           -1200.00
01828           -1200.00
01829           -1000.00
01830            -800.00
01831            -800.00
01832            -600.00
01833            -400.00
01834            -200.00
01835               0.00
01836               0.00
01837             400.00
01838             400.00
01839             600.00
01840             600.00
01841             800.00
01842            1000.00
01843            1200.00
01844            1400.00
01845            1400.00
01846            2000.00
01847            2000.00
01848            2200.00
01849            2000.00
01850            2400.00
01851            2400.00
01852            2400.00
01853            2800.00
01854            3000.00
01855            3000.00
01856            3200.00
01857            3400.00
01858            3600.00
01859            3600.00
01860            3600.00
01861            3800.00
01862            4000.00
01863            4000.00
01864            4400.00
01865            4400.00
01866            4600.00
01867            4600.00
01868            4800.00
01869            5000.00
01870            5200.00
01871            5400.00
01872            5200.00
01873            5600.00
01874            5600.00
01875            5600.00
01876            6000.00
01877            6000.00
01878            6000.00
01879            6200.00
01880            6200.00
01881            6400.00
01882            6400.00
01883            6800.00
01884            6800.00
01885            6800.00
01886            6800.00
01887            7000.00
01888            7000.00
01889            7200.00
01890            7200.00
01891            7400.00
01892            7200.00
01893            7600.00
01894            7400.00
01895            7800.00
01896            7800.00
01897            7600.00
01898            8000.00
01899            8000.00
01900            7800.00
01901            8200.00
01902            8000.00
01903            8200.00
01904            8200.00
01905            8200.00
01906            8200.00
01907            8400.00
01908            8400.00
01909            8400.00
01910            8400.00
01911            8400.00
01912            8600.00
01913            8400.00
01914            8600.00
01915            8400.00
01916            8600.00
01917            8400.00
01918            8400.00
01919            8400.00
01920            8400.00
01921            8600.00
01922            8400.00
01923            8400.00
01924            8400.00
01925            8400.00
01926            8400.00
01927            8400.00
01928            8400.00
01929            8200.00
01930            8400.00
01931            8200.00
01932            8000.00
01933            8200.00
01934            8000.00
01935            8000.00
01936            8000.00
01937            8000.00
01938            7800.00
01939            8200.00
01940            7800.00
01941            7600.00
01942            7600.00
01943            7600.00
01944            7600.00
01945            7200.00
01946            7200.00
01947            7200.00
01948            7200.00
01949            7000.00
01950            7000.00
01951            7000.00
01952            6800.00
01953            6800.00
01954            6600.00
01955            6400.00
01956            6400.00
01957            6200.00
01958            6200.00
01959            6000.00
01960            6000.00
01961            6000.00
01962            5800.00
01963            5600.00
01964            5400.00
01965            5400.00
01966            5200.00
01967            5200.00
01968            5000.00
01969            4800.00
01970            4800.00
01971            4600.00
01972            4400.00
01973            4400.00
01974            4200.00
01975            4000.00
01976            4000.00
01977            3800.00
01978            3600.00
01979            3600.00
01980            3200.00
01981            3200.00
01982            3000.00
01983            3200.00
01984            3000.00
01985            2800.00
01986            2400.00
01987            2400.00
01988            2200.00
01989            2000.00
01990            2000.00
01991            1600.00
01992            1600.00
01993            1400.00
01994            1400.00
01995            1200.00
01996            1000.00
01997             600.00
01998             600.00
01999             400.00
02000             400.00
02001               0.00
02002               0.00
02003            -200.00
02004            -400.00
02005            -400.00
02006            -800.00
02007            -800.00
02008            -800.00
02009            -800.00
02010           -1200.00
02011           -1400.00
02012           -1600.00
02013           -2000.00
02014           -1800.00
02015           -1800.00
02016           -2000.00
02017           -2400.00
02018           -2400.00
02019           -2400.00
02020           -2800.00
02021           -3000.00
02022           -2800.00
02023           -3200.00
02024           -3400.00
02025           -3400.00
02026           -3600.00
02027           -3800.00
02028           -4000.00
02029           -4000.00
02030           -4200.00
02031           -4400.00
02032           -4400.00
02033           -4600.00
02034           -4600.00
02035           -4800.00
02036           -5000.00
02037           -5000.00
02038           -5200.00
02039           -5400.00
02040           -5600.00
02041           -5600.00
02042           -5800.00
02043           -5800.00
02044           -6000.00
02045           -6000.00
02046           -6400.00
02047           -6400.00
02048           -6400.00
02049           -6400.00
02050           -6600.00
02051           -6600.00
02052           -6800.00
02053           -6800.00
02054           -7200.00
02055           -7000.00
02056           -7200.00
02057           -7200.00
02058           -7200.00
02059           -7400.00
02060           -7400.00
02061           -7400.00
02062           -7600.00
02063           -7400.00
02064           -7800.00
02065           -7800.00
02066           -8000.00
02067           -8000.00
02068           -7800.00
02069           -8000.00
02070           -8000.00
02071           -8000.00
02072           -8200.00
02073           -8200.00
02074           -8200.00
02075           -8400.00
02076           -8200.00
02077           -8200.00
02078           -8200.00
02079           -8200.00
02080           -8200.00
02081           -8200.00
02082           -8400.00
02083           -8400.00
02084           -8400.00
02085           -8200.00
02086           -8400.00
02087           -8200.00
02088           -8400.00
02089           -8400.00
02090           -8200.00
02091           -8200.00
02092           -8200.00
02093           -8200.00
02094           -8200.00
02095           -8200.00
02096           -8000.00
02097           -8000.00
02098           -8000.00
02099           -8000.00
02100           -8000.00
02101           -8000.00
02102           -8000.00
02103           -7600.00
02104           -7800.00
02105           -7600.00
02106           -7600.00
02107           -7600.00
02108           -7400.00
02109           -7400.00
02110           -7200.00
02111           -7200.00
02112           -7200.00
02113           -7200.00
02114           -6800.00
02115           -7000.00
02116           -6800.00
02117           -6800.00
02118           -6600.00
02119           -6600.00
02120           -6400.00
02121           -6400.00
02122           -6200.00
02123           -6200.00
02124           -6000.00
02125           -5800.00
02126           -6000.00
02127           -5600.00
02128           -5600.00
02129           -5400.00
02130           -5200.00
02131           -5200.00
02132           -5000.00
02133           -5000.00
02134           -4800.00
02135           -4600.00
02136           -4800.00
02137           -4400.00
02138           -4400.00
02139           -4200.00
02140           -4000.00
02141           -4000.00
02142           -4000.00
02143           -3400.00
02144           -3600.00
02145           -3400.00
02146           -3200.00
02147           -3000.00
02148           -2800.00
02149           -2800.00
02150           -2600.00
02151           -2400.00
02152           -2400.00
02153           -2200.00
02154           -2000.00
02155           -1800.00
02156           -1600.00
02157           -1600.00
02158           -1200.00
02159           -1200.00
02160           -1000.00
02161           -1000.00
02162            -800.00
02163            -400.00
02164            -400.00
02165            -200.00
02166            -200.00
02167               0.00
02168             200.00
02169             400.00
02170             400.00
02171             600.00
02172             600.00
02173             800.00
02174            1000.00
02175            1200.00
02176            1400.00
02177            1800.00
02178            1800.00
02179            2000.00
02180            2000.00
02181            2000.00
02182            2400.00
02183            2400.00
02184            2600.00
02185            3000.00
02186            3000.00
02187            3000.00
02188            3200.00
02189            3400.00
02190            3400.00
02191            3600.00
02192            3800.00
02193            4000.00
02194            4000.00
02195            4400.00
02196            4400.00
02197            4400.00
02198            4600.00
02199            4800.00
02200            4800.00
02201            5000.00
02202            5200.00
02203            5400.00
02204            5400.00
02205            5400.00
02206            5600.00
02207            5800.00
02208            6000.00
02209            6000.00
02210            6000.00
02211            6200.00
02212            6400.00
02213            6400.00
02214            6400.00
02215            6600.00
02216            6800.00
02217            6800.00
02218            7000.00
02219            7000.00
02220            7200.00
02221            7200.00
02222            7200.00
02223            7400.00
02224            7600.00
02225            7600.00
02226            7600.00
02227            7600.00
02228            7800.00
02229            7800.00
02230            7800.00
02231            7800.00
02232            8200.00
02233            8000.00
02234            8200.00
02235            8200.00
02236            8200.00
02237            8400.00
02238            8200.00
02239            8400.00
02240            8400.00
02241            8400.00
02242            8400.00
02243            8400.00
02244            8600.00
02245            8400.00
02246            8400.00
02247            8400.00
02248            8400.00
02249            8400.00
02250            8400.00
02251            8600.00
02252            8400.00
02253            8400.00
02254            8400.00
02255            8400.00
02256            8400.00
02257            8400.00
02258            8400.00
02259            8400.00
02260            8200.00
02261            8200.00
02262            8200.00
02263            8400.00
02264            8000.00
02265            8200.00
02266            8000.00
02267            8200.00
02268            7800.00
02269            8000.00
02270            7800.00
02271            7800.00
02272            7800.00
02273            7800.00
02274            7800.00
02275            7600.00
02276            7400.00
02277            7600.00
02278            7200.00
02279            7200.00
02280            7000.00
02281            7200.00
02282            7000.00
02283            6800.00
02284            6800.00
02285            6600.00
02286            6600.00
02287            6600.00
02288            6200.00
02289            6200.00
02290            6200.00
02291            6000.00
02292            6000.00
02293            6000.00
02294            5800.00
02295            5600.00
02296            5600.00
02297            5400.00
02298            5400.00
02299            5200.00
02300            5000.00
02301            4800.00
02302            4600.00
02303            4600.00
02304            4400.00
02305            4400.00
02306            4200.00
02307            4000.00
02308            3800.00
02309            3600.00
02310            3600.00
02311            3400.00
02312            3200.00
02313            3200.00
02314            3000.00
02315            2800.00
02316            2800.00
02317            2400.00
02318            2400.00
02319            2400.00
02320            2200.00
02321            2000.00
02322            2000.00
02323            1800.00
02324            1600.00
02325            1400.00
02326            1200.00
02327            1000.00
02328             800.00
02329             800.00
02330             400.00
02331             400.00
02332             200.00
02333               0.00
02334            -200.00
02335            -200.00
02336            -400.00
02337            -400.00
02338            -800.00
02339            -800.00
02340           -1000.00
02341           -1000.00
02342           -1200.00
02343           -1600.00
02344           -1800.00
02345           -2000.00
02346           -1800.00
02347           -1800.00
02348           -2400.00
02349           -2400.00
02350           -2400.00
02351           -2600.00
02352           -3000.00
02353           -2800.00
02354           -2800.00
02355           -3400.00
02356           -3400.00
02357           -3400.00
02358           -3600.00
02359           -4000.00
02360           -4000.00
02361           -4200.00
02362           -4400.00
02363           -4400.00
02364           -4400.00
02365           -4600.00
02366           -4600.00
02367           -4800.00
02368           -5000.00
02369           -5000.00
02370           -5400.00
02371           -5400.00
02372           -5600.00
02373           -5600.00
02374           -5800.00
02375           -5800.00
02376           -6000.00
02377           -6000.00
02378           -6200.00
02379           -6400.00
02380           -6400.00
02381           -6600.00
02382           -6600.00
02383           -6600.00
02384           -6800.00
02385           -7000.00
02386           -7000.00
02387           -7200.00
02388           -7200.00
02389           -7200.00
02390           -7400.00
02391           -7400.00
02392           -7400.00
02393           -7600.00
02394           -7600.00
02395           -7600.00
02396           -7600.00
02397           -7800.00
02398           -7800.00
02399           -8000.00
02400           -8000.00
02401           -8000.00
02402           -8000.00
02403           -8000.00
02404           -8200.00
02405           -8200.00
02406           -8200.00
02407           -8200.00
02408           -8400.00
02409           -8200.00
02410           -8400.00
02411           -8200.00
02412           -8400.00
02413           -8400.00
02414           -8400.00
02415           -8200.00
02416           -8200.00
02417           -8400.00
02418           -8400.00
02419           -8400.00
02420           -8200.00
02421           -8200.00
02422           -8200.00
02423           -8200.00
02424           -8200.00
02425           -8200.00
02426           -8200.00
02427           -8200.00
02428           -8000.00
02429           -8000.00
02430           -8000.00
02431           -8000.00
02432           -8000.00
02433           -8000.00
02434           -7800.00
02435           -8000.00
02436           -7800.00
02437           -7800.00
02438           -7600.00
02439           -7600.00
02440           -7200.00
02441           -7400.00
02442           -7200.00
02443           -7200.00
02444           -7200.00
02445           -7000.00
02446           -6800.00
02447           -6800.00
02448           -6800.00
02449           -6800.00
02450           -6800.00
02451           -6600.00
02452           -6400.00
02453           -6400.00
02454           -6400.00
02455           -6000.00
02456           -6000.00
02457           -5800.00
02458           -5800.00
02459           -5600.00
02460           -5600.00
02461           -5200.00
02462           -5200.00
02463           -5200.00
02464           -5000.00
02465           -4800.00
02466           -4800.00
02467           -4600.00
02468           -4600.00
02469           -4400.00
02470           -4400.00
02471           -4200.00
02472           -4000.00
02473           -3600.00
02474           -3600.00
02475           -3600.00
02476           -3400.00
02477           -3400.00
02478           -3200.00
02479           -3000.00
02480           -2800.00
02481           -2800.00
02482           -2600.00
02483           -2400.00
02484           -2400.00
02485           -2000.00
02486           -1800.00
02487           -1800.00
02488           -1600.00
02489           -1600.00
02490           -1400.00
02491           -1200.00
02492           -1000.00
02493            -800.00
02494            -600.00
02495            -400.00
02496            -400.00
02497            -200.00
02498               0.00
02499               0.00
02500             200.00
02501             400.00
02502             600.00
02503             600.00
02504             800.00
02505             800.00
02506            1200.00
02507            1200.00
02508            1600.00
02509            1800.00
02510            2000.00
02511            2000.00
02512            2000.00
02513            2400.00
02514            2400.00
02515            2400.00
02516            2800.00
02517            3000.00
02518            2800.00
02519            3000.00
02520            3200.00
02521            3600.00
02522            3600.00
02523            3600.00
02524            4000.00
02525            4000.00
02526            4200.00
02527            4200.00
02528            4400.00
02529            4600.00
02530            4600.00
02531            4800.00
02532            4800.00
02533            5200.00
02534            5400.00
02535            5400.00
02536            5400.00
02537            5600.00
02538            5800.00
02539            6000.00
02540            6000.00
02541            6000.00
02542            6200.00
02543            6200.00
02544            6400.00
02545            6400.00
02546            6600.00
02547            6800.00
02548            6800.00
02549            6800.00
02550            7000.00
02551            7000.00
02552            7200.00
02553            7200.00
02554            7200.00
02555            7400.00
02556            7600.00
02557            7600.00
02558            7600.00
02559            7800.00
02560            7800.00
02561            7800.00
02562            8000.00
02563            8000.00
02564            8200.00
02565            8000.00
02566            8200.00
02567            8200.00
02568            8400.00
02569            8400.00
02570            8400.00
02571            8400.00
02572            8400.00
02573            8400.00
02574            8200.00
02575            8400.00
02576            8400.00
02577            8400.00
02578            8400.00
02579            8400.00
02580            8400.00
02581            8600.00
02582            8400.00
02583            8400.00
02584            8600.00
02585            8400.00
02586            8400.00
02587            8400.00
02588            8400.00
02589            8400.00
02590            8400.00
02591            8400.00
02592            8400.00
02593            8400.00
02594            8200.00
02595            8400.00
02596            8000.00
02597            8200.00
02598            8000.00
02599            8000.00
02600            8000.00
02601            8000.00
02602            7800.00
02603            7800.00
02604            7800.00
02605            7800.00
02606            7600.00
02607            7600.00
02608            7600.00
02609            7200.00
02610            7200.00
02611            7200.00
02612            7200.00
02613            7200.00
02614            6800.00
02615            6800.00
02616            6800.00
02617            6600.00
02618            6400.00
02619            6400.00
02620            6400.00
02621            6200.00
02622            6200.00
02623            6000.00
02624            6000.00
02625            5800.00
02626            5600.00
02627            5600.00
02628            5400.00
02629            5400.00
02630            5200.00
02631            5000.00
02632            4800.00
02633            4800.00
02634            4400.00
02635            4400.00
02636            4400.00
02637            4000.00
02638            4200.00
02639            4000.00
02640            3800.00
02641            3800.00
02642            3600.00
02643            3200.00
02644            3200.00
02645            3000.00
02646            3000.00
02647            2800.00
02648            2400.00
02649            2400.00
02650            2400.00
02651            2200.00
02652            2000.00
02653            2000.00
02654            1600.00
02655            1600.00
02656            1400.00
02657            1400.00
02658            1200.00
02659             800.00
02660             800.00
02661             600.00
02662             600.00
02663             400.00
02664               0.00
02665               0.00
02666            -200.00
02667            -200.00
02668            -400.00
02669            -600.00
02670            -800.00
02671           -1000.00
02672           -1000.00
02673           -1200.00
02674           -1400.00
02675           -1600.00
02676           -1800.00
02677           -1800.00
02678           -1800.00
02679           -2000.00
02680           -2400.00
02681           -2600.00
02682           -2400.00
02683           -2800.00
02684           -3000.00
02685           -2800.00
02686           -3200.00
02687           -3400.00
02688           -3400.00
02689           -3600.00
02690           -3600.00
02691           -3800.00
02692           -3800.00
02693           -4000.00
02694           -4400.00
02695           -4400.00
02696           -4600.00
02697           -4600.00
02698           -4800.00
02699           -5000.00
02700           -5000.00
02701           -5200.00
02702           -5400.00
02703           -5600.00
02704           -5600.00
02705           -5800.00
02706           -5800.00
02707           -6000.00
02708           -6000.00
02709           -6200.00
02710           -6400.00
02711           -6400.00
02712           -6400.00
02713           -6600.00
02714           -6800.00
02715           -6800.00
02716           -6800.00
02717           -7000.00
02718           -7200.00
02719           -7200.00
02720           -7200.00
02721           -7400.00
02722           -7400.00
02723           -7400.00
02724           -7400.00
02725           -7400.00
02726           -7600.00
02727           -7600.00
02728           -7800.00
02729           -7600.00
02730           -7800.00
02731           -8000.00
02732           -8000.00
02733           -8000.00
02734           -8000.00
02735           -8000.00
02736           -8200.00
02737           -8200.00
02738           -8200.00
02739           -8200.00
02740           -8200.00
02741           -8400.00
02742           -8200.00
02743           -8400.00
02744           -8200.00
02745           -8200.00
02746           -8400.00
02747           -8400.00
02748           -8200.00
02749           -8400.00
02750           -8400.00
02751           -8400.00
02752           -8400.00
02753           -8400.00
02754           -8200.00
02755           -8200.00
02756           -8400.00
02757           -8200.00
02758           -8200.00
02759           -8200.00
02760           -8000.00
02761           -8000.00
02762           -8000.00
02763           -8000.00
02764           -8000.00
02765           -8000.00
02766           -8000.00
02767           -7600.00
02768           -7600.00
02769           -7600.00
02770           -7600.00
02771           -7400.00
02772           -7200.00
02773           -7400.00
02774           -7200.00
02775           -7000.00
02776           -7200.00
02777           -6800.00
02778           -6800.00
02779           -6800.00
02780           -6600.00
02781           -6600.00
02782           -6600.00
02783           -6400.00
02784           -6400.00
02785           -6000.00
02786           -6200.00
02787           -6000.00
02788           -6000.00
02789           -5800.00
02790           -5600.00
02791           -5600.00
02792           -5400.00
02793           -5400.00
02794           -5200.00
02795           -5000.00
02796           -5000.00
02797           -5000.00
02798           -4600.00
02799           -4400.00
02800           -4400.00
02801           -4200.00
02802           -4200.00
02803           -4000.00
02804           -4000.00
02805           -3800.00
02806           -3600.00
02807           -3600.00
02808           -3400.00
02809           -3400.00
02810           -3000.00
02811           -2800.00
02812           -2800.00
02813           -2600.00
02814           -2400.00
02815           -2400.00
02816           -2200.00
02817           -2000.00
02818           -1800.00
02819           -1800.00
02820           -1600.00
02821           -1400.00
02822           -1200.00
02823           -1200.00
02824           -1000.00
02825            -800.00
02826            -600.00
02827            -400.00
02828            -400.00
02829            -200.00
02830               0.00
02831             200.00
02832             400.00
02833             400.00
02834             600.00
02835             600.00
02836            1000.00
02837            1200.00
02838            1200.00
02839            1400.00
02840            1400.00
02841            1800.00
02842            2000.00
02843            2000.00
02844            2200.00
02845            2400.00
02846            2400.00
02847            2600.00
02848            2800.00
02849            3000.00
02850            3000.00
02851            3200.00
02852            3600.00
02853            3200.00
02854            3600.00
02855            3800.00
02856            3800.00
02857            4200.00
02858            4200.00
02859            4400.00
02860            4400.00
02861            4600.00
02862            4800.00
02863            4800.00
02864            4800.00
02865            5200.00
02866            5400.00
02867            5400.00
02868            5600.00
02869            5600.00
02870            5800.00
02871            6000.00
02872            6200.00
02873            6000.00
02874            6200.00
02875            6400.00
02876            6400.00
02877            6400.00
02878            6600.00
02879            6800.00
02880            6800.00
02881            7000.00
02882            6800.00
02883            7200.00
02884            7200.00
02885            7200.00
02886            7400.00
02887            7200.00
02888            7600.00
02889            7600.00
02890            7800.00
02891            7800.00
02892            7800.00
02893            7800.00
02894            8200.00
02895            8000.00
02896            8000.00
02897            8200.00
02898            8200.00
02899            8000.00
02900            8400.00
02901            8400.00
02902            8400.00
02903            8400.00
02904            8400.00
02905            8400.00
02906            8400.00
02907            8400.00
02908            8400.00
02909            8400.00
02910            8400.00
02911            8400.00
02912            8400.00
02913            8400.00
02914            8400.00
02915            8400.00
02916            8400.00
02917            8400.00
02918            8400.00
02919            8400.00
02920            8400.00
02921            8400.00
02922            8400.00
02923            8400.00
02924            8200.00
02925            8400.00
02926            8000.00
02927            8200.00
02928            8200.00
02929            8200.00
02930            8200.00
02931            8000.00
02932            8000.00
02933            7800.00
02934            7800.00
02935            7600.00
02936            7800.00
02937            7600.00
02938            7600.00
02939            7400.00
02940            7400.00
02941            7200.00
02942            7200.00
02943            7200.00
02944            7200.00
02945            7000.00
02946            6800.00
02947            6800.00
02948            6800.00
02949            6400.00
02950            6600.00
02951            6400.00
02952            6400.00
02953            6200.00
02954            6200.00
02955            6000.00
02956            5800.00
02957            5600.00
02958            5600.00
02959            5600.00
02960            5400.00
02961            5400.00
02962            5200.00
02963            5000.00
02964            4800.00
02965            4800.00
02966            4400.00
02967            4400.00
02968            4400.00
02969            4400.00
02970            4000.00
02971            3800.00
02972            3800.00
02973            3600.00
02974            3600.00
02975            3400.00
02976            3200.00
02977            3000.00
02978            3000.00
02979            2800.00
02980            2800.00
02981            2400.00
02982            2400.00
02983            2200.00
02984            2000.00
02985            2000.00
02986            1600.00
02987            1600.00
02988            1400.00
02989            1200.00
02990            1000.00
02991             800.00
02992             600.00
02993             600.00
02994             400.00
02995             200.00
02996               0.00
02997               0.00
02998            -200.00
02999            -200.00
03000            -400.00
03001            -800.00
03002            -800.00
03003            -800.00
03004           -1000.00
03005           -1200.00
03006           -1600.00
03007           -1800.00
03008           -2000.00
03009           -1600.00
03010           -1800.00
03011           -2400.00
03012           -2400.00
03013           -2400.00
03014           -2600.00
03015           -3000.00
03016           -2800.00
03017           -2800.00
03018           -3200.00
03019           -3600.00
03020           -3600.00
03021           -3600.00
03022           -4000.00
03023           -4000.00
03024           -4200.00
03025           -4200.00
03026           -4400.00
03027           -4600.00
03028           -4600.00
03029           -4600.00
03030           -4800.00
03031           -5000.00
03032           -5000.00
03033           -5200.00
03034           -5200.00
03035           -5600.00
03036           -5600.00
03037           -5800.00
03038           -5800.00
03039           -6000.00
03040           -6000.00
03041           -6000.00
03042           -6400.00
03043           -6400.00
03044           -6400.00
03045           -6600.00
03046           -6600.00
03047           -6800.00
03048           -6800.00
03049           -6800.00
03050           -7200.00
03051           -7200.00
03052           -7200.00
03053           -7200.00
03054           -7400.00
03055           -7400.00
03056           -7400.00
03057           -7400.00
03058           -7600.00
03059           -7600.00
03060           -7600.00
03061           -8000.00
03062           -8000.00
03063           -7800.00
03064           -8000.00
03065           -8000.00
03066           -8200.00
03067           -8200.00
03068           -8200.00
03069           -8200.00
03070           -8200.00
03071           -8200.00
03072           -8200.00
03073           -8000.00
03074           -8200.00
03075           -8200.00
03076           -8400.00
03077           -8200.00
03078           -8400.00
03079           -8400.00
03080           -8200.00
03081           -8400.00
03082           -8200.00
03083           -8400.00
03084           -8200.00
03085           -8400.00
03086           -8200.00
03087           -8200.00
03088           -8200.00
03089           -8200.00
03090           -8200.00
03091           -8000.00
03092           -8000.00
03093           -8000.00
03094           -8000.00
03095           -8000.00
03096           -8000.00
03097           -7600.00
03098           -7800.00
03099           -7800.00
03100           -7400.00
03101           -7600.00
03102           -7600.00
03103           -7400.00
03104           -7400.00
03105           -7200.00
03106           -7200.00
03107           -7200.00
03108           -7000.00
03109           -6800.00
03110           -6800.00
03111           -6800.00
03112           -6600.00
03113           -6800.00
03114           -6400.00
03115           -6400.00
03116           -6400.00
03117           -6200.00
03118           -6000.00
03119           -6000.00
03120           -6000.00
03121           -5800.00
03122           -5600.00
03123           -5600.00
03124           -5400.00
03125           -5400.00
03126           -5200.00
03127           -5000.00
03128           -4800.00
03129           -4600.00
03130           -4600.00
03131           -4400.00
03132           -4400.00
03133           -4200.00
03134           -4200.00
03135           -4000.00
03136           -3800.00
03137           -3600.00
03138           -3600.00
03139           -3400.00
03140           -3200.00
03141           -3200.00
03142           -3000.00
03143           -2800.00
03144           -2800.00
03145           -2600.00
03146           -2400.00
03147           -2400.00
03148           -2200.00
03149           -2000.00
03150           -2000.00
03151           -1600.00
03152           -1600.00
03153           -1400.00
03154           -1200.00
03155           -1000.00
03156            -800.00
03157            -800.00
03158            -600.00
03159            -400.00
03160            -200.00
03161               0.00
03162               0.00
03163             200.00
03164             400.00
03165             600.00
03166             600.00
03167             800.00
03168             800.00
03169            1200.00
03170            1400.00
03171            1600.00
03172            1800.00
03173            2000.00
03174            2000.00
03175            2000.00
03176            2200.00
03177            2400.00
03178            2400.00
03179            2600.00
03180            2800.00
03181            2800.00
03182            3000.00
03183            3200.00
03184            3400.00
03185            3600.00
03186            3600.00
03187            3800.00
03188            4000.00
03189            4000.00
03190            4200.00
03191            4400.00
03192            4600.00
03193            4800.00
03194            4800.00
03195            4800.00
03196            5000.00
03197            5200.00
03198            5400.00
03199            5600.00
03200            5400.00
03201            5600.00
03202            5800.00
03203            6000.00
03204            6000.00
03205            6000.00
03206            6200.00
03207            6400.00
03208            6400.00
03209            6600.00
03210            6800.00
03211            6800.00
03212            6800.00
03213            7000.00
03214            7000.00
03215            7200.00
03216            7200.00
03217            7200.00
03218            7400.00
03219            7600.00
03220            7600.00
03221            7800.00
03222            7600.00
03223            7800.00
03224            8000.00
03225            8000.00
03226            8000.00
03227            8200.00
03228            8000.00
03229            8200.00
03230            8200.00
03231            8200.00
03232            8400.00
03233            8400.00
03234            8400.00
03235            8400.00
03236            8400.00
03237            8400.00
03238            8400.00
03239            8400.00
03240            8400.00
03241            8400.00
03242            8600.00
03243            8400.00
03244            8400.00
03245            8400.00
03246            8400.00
03247            8600.00
03248            8600.00
03249            8400.00
03250            8600.00
03251            8400.00
03252            8400.00
03253            8400.00
03254            8400.00
03255            8400.00
03256            8400.00
03257            8200.00
03258            8200.00
03259            8200.00
03260            8000.00
03261            8200.00
03262            8000.00
03263            8000.00
03264            7800.00
03265            7800.00
03266            7800.00
03267            7600.00
03268            7600.00
03269            7600.00
03270            7600.00
03271            7600.00
03272            7200.00
03273            7200.00
03274            7200.00
03275            7000.00
03276            7200.00
03277            7000.00
03278            6800.00
03279            6800.00
03280            6800.00
03281            6600.00
03282            6400.00
03283            6400.00
03284            6200.00
03285            6000.00
03286            6000.00
03287            6000.00
03288            5800.00
03289            5600.00
03290            5600.00
03291            5400.00
03292            5400.00
03293            5200.00
03294            5000.00
03295            4800.00
03296            4800.00
03297            4600.00
03298            4600.00
03299            4400.00
03300            4400.00
03301            4000.00
03302            3800.00
03303            3800.00
03304            3800.00
03305            3600.00
03306            3600.00
03307            3200.00
03308            3000.00
03309            3000.00
03310            2800.00
03311            2400.00
03312            2600.00
03313            2400.00
03314            2200.00
03315            2000.00
03316            1800.00
03317            1600.00
03318            1600.00
03319            1400.00
03320            1200.00
03321            1200.00
03322            1000.00
03323             600.00
03324             600.00
03325             400.00
03326             400.00
03327               0.00
03328               0.00
03329               0.00
03330            -200.00
03331            -400.00
03332            -600.00
03333            -800.00
03334            -800.00
03335           -1000.00
03336           -1200.00
03337           -1400.00
03338           -1600.00
03339           -2000.00
03340           -1800.00
03341           -1800.00
03342           -2000.00
03343           -2400.00
03344           -2400.00
03345           -2400.00
03346           -2800.00
03347           -3000.00
03348           -2800.00
03349           -3200.00
03350           -3400.00
03351           -3400.00
03352           -3600.00
03353           -3800.00
03354           -4000.00
03355           -4000.00
03356           -4200.00
03357           -4400.00
03358           -4400.00
03359           -4600.00
03360           -4600.00
03361           -4800.00
03362           -5000.00
03363           -5000.00
03364           -5200.00
03365           -5200.00
03366           -5600.00
03367           -5600.00
03368           -5800.00
03369           -5800.00
03370           -6000.00
03371           -6200.00
03372           -6000.00
03373           -6200.00
03374           -6400.00
03375           -6400.00
03376           -6600.00
03377           -6800.00
03378           -6800.00
03379           -6800.00
03380           -7000.00
03381           -7000.00
03382           -7200.00
03383           -7200.00
03384           -7200.00
03385           -7200.00
03386           -7400.00
03387           -7400.00
03388           -7600.00
03389           -7600.00
03390           -7600.00
03391           -8000.00
03392           -7800.00
03393           -7800.00
03394           -8000.00
03395           -8000.00
03396           -8000.00
03397           -8000.00
03398           -8200.00
03399           -8200.00
03400           -8200.00
03401           -8200.00
03402           -8200.00
03403           -8200.00
03404           -8200.00
03405           -8200.00
03406           -8200.00
03407           -8400.00
03408           -8400.00
03409           -8200.00
03410           -8400.00
03411           -8400.00
03412           -8400.00
03413           -8400.00
03414           -8200.00
03415           -8400.00
03416           -8200.00
03417           -8200.00
03418           -8400.00
03419           -8000.00
03420           -8200.00
03421           -8000.00
03422           -8200.00
03423           -8200.00
03424           -8000.00
03425           -8000.00
03426           -8000.00
03427           -8000.00
03428           -8000.00
03429           -7800.00
03430           -7600.00
03431           -7600.00
03432           -7600.00
03433           -7600.00
03434           -7400.00
03435           -7400.00
03436           -7400.00
03437           -7400.00
03438           -7200.00
03439           -7200.00
03440           -6800.00
03441           -6800.00
03442           -6800.00
03443           -6800.00
03444           -6600.00
03445           -6600.00
03446           -6400.00
03447           -6400.00
03448           -6400.00
03449           -6000.00
03450           -6000.00
03451           -6000.00
03452           -5800.00
03453           -5600.00
03454           -5600.00
03455           -5600.00
03456           -5400.00
03457           -5200.00
03458           -5000.00
03459           -5000.00
03460           -4600.00
03461           -4800.00
03462           -4600.00
03463           -4400.00
03464           -4400.00
03465           -4200.00
03466           -4000.00
03467           -4000.00
03468           -3800.00
03469           -3600.00
03470           -3400.00
03471           -3400.00
03472           -3200.00
03473           -3200.00
03474           -3000.00
03475           -2800.00
03476           -2600.00
03477           -2400.00
03478           -2400.00
03479           -2400.00
03480           -2000.00
03481           -1800.00
03482           -1800.00
03483           -1600.00
03484           -1400.00
03485           -1200.00
03486           -1000.00
03487            -800.00
03488            -800.00
03489            -600.00
03490            -400.00
03491            -200.00
03492               0.00
03493               0.00
03494               0.00
03495             400.00
03496             600.00
03497             600.00
03498             600.00
03499             800.00
03500            1000.00
03501            1200.00
03502            1200.00
03503            1600.00
03504            1800.00
03505            2000.00
03506            2000.00
03507            2000.00
03508            2400.00
03509            2400.00
03510            2600.00
03511            2800.00
03512            3000.00
03513            2800.00
03514            3200.00
03515            3400.00
03516            3400.00
03517            3600.00
03518            3600.00
03519            4000.00
03520            4000.00
03521            4000.00
03522            4400.00
03523            4400.00
03524            4600.00
03525            4800.00
03526            4800.00
03527            5000.00
03528            5200.00
03529            5400.00
03530            5400.00
03531            5600.00
03532            5600.00
03533            5600.00
03534            6000.00
03535            6000.00
03536            6000.00
03537            6200.00
03538            6400.00
03539            6400.00
03540            6400.00
03541            6600.00
03542            6800.00
03543            6800.00
03544            7000.00
03545            7000.00
03546            7000.00
03547            7200.00
03548            7200.00
03549            7200.00
03550            7200.00
03551            7600.00
03552            7800.00
03553            7600.00
03554            7800.00
03555            7800.00
03556            8000.00
03557            7800.00
03558            8000.00
03559            8000.00
03560            8200.00
03561            8200.00
03562            8000.00
03563            8200.00
03564            8400.00
03565            8400.00
03566            8400.00
03567            8400.00
03568            8400.00
03569            8400.00
03570            8400.00
03571            8400.00
03572            8600.00
03573            8600.00
03574            8400.00
03575            8400.00
03576            8400.00
03577            8400.00
03578            8600.00
03579            8400.00
03580            8400.00
03581            8400.00
03582            8400.00
03583            8400.00
03584            8400.00
03585            8400.00
03586            8400.00
03587            8400.00
03588            8200.00
03589            8200.00
03590            8400.00
03591            8000.00
03592            8200.00
03593            8000.00
03594            8000.00
03595            8000.00
03596            8000.00
03597            7800.00
03598            7800.00
03599            7600.00
03600            7600.00
03601            7600.00
03602            7400.00
03603            7400.00
03604            7200.00
03605            7200.00
03606            7200.00
03607            7000.00
03608            7000.00
03609            6800.00
03610            6800.00
03611            6800.00
03612            6600.00
03613            6400.00
03614            6400.00
03615            6200.00
03616            6200.00
03617            6000.00
03618            6000.00
03619            5600.00
03620            5800.00
03621            5600.00
03622            5600.00
03623            5400.00
03624            5200.00
03625            5200.00
03626            5000.00
03627            4800.00
03628            4600.00
03629            4600.00
03630            4400.00
03631            4400.00
03632            4000.00
03633            4000.00
03634            4000.00
03635            3800.00
03636            3600.00
03637            3400.00
03638            3200.00
03639            3200.00
03640            3200.00
03641            3000.00
03642            2800.00
03643            2600.00
03644            2400.00
03645            2200.00
03646            2200.00
03647            2000.00
03648            2000.00
03649            1600.00
03650            1600.00
03651            1200.00
03652            1200.00
03653            1200.00
03654             800.00
03655             800.00
03656             600.00
03657             400.00
03658             200.00
03659             200.00
03660            -200.00
03661            -200.00
03662            -400.00
03663            -400.00
03664            -600.00
03665            -800.00
03666           -1000.00
03667           -1200.00
03668           -1200.00
03669           -1600.00
03670           -1800.00
03671           -2000.00
03672           -1600.00
03673           -1800.00
03674           -2400.00
03675           -2600.00
03676           -2400.00
03677           -2600.00
03678           -3000.00
03679           -2800.00
03680           -3000.00
03681           -3200.00
03682           -3400.00
03683           -3400.00
03684           -3600.00
03685           -3800.00
03686           -4000.00
03687           -4000.00
03688           -4200.00
03689           -4400.00
03690           -4400.00
03691           -4400.00
03692           -4600.00
03693           -4800.00
03694           -5000.00
03695           -5000.00
03696           -5200.00
03697           -5400.00
03698           -5600.00
03699           -5600.00
03700           -5800.00
03701           -5800.00
03702           -6000.00
03703           -6000.00
03704           -6200.00
03705           -6400.00
03706           -6400.00
03707           -6600.00
03708           -6600.00
03709           -6600.00
03710           -6800.00
03711           -6800.00
03712           -7000.00
03713           -7000.00
03714           -7200.00
03715           -7200.00
03716           -7400.00
03717           -7200.00
03718           -7400.00
03719           -7600.00
03720           -7600.00
03721           -7600.00
03722           -7600.00
03723           -7600.00
03724           -8000.00
03725           -7800.00
03726           -8000.00
03727           -8000.00
03728           -8000.00
03729           -8000.00
03730           -8200.00
03731           -8200.00
03732           -8200.00
03733           -8200.00
03734           -8200.00
03735           -8200.00
03736           -8400.00
03737           -8200.00
03738           -8200.00
03739           -8400.00
03740           -8200.00
03741           -8400.00
03742           -8200.00
03743           -8400.00
03744           -8200.00
03745           -8200.00
03746           -8400.00
03747           -8200.00
03748           -8200.00
03749           -8200.00
03750           -8200.00
03751           -8000.00
03752           -8200.00
03753           -8000.00
03754           -8000.00
03755           -8200.00
03756           -8000.00
03757           -8000.00
03758           -8000.00
03759           -8000.00
03760           -8000.00
03761           -7800.00
03762           -7600.00
03763           -7600.00
03764           -7600.00
03765           -7400.00
03766           -7400.00
03767           -7400.00
03768           -7200.00
03769           -7200.00
03770           -7200.00
03771           -7000.00
03772           -7000.00
03773           -6800.00
03774           -6800.00
03775           -6800.00
03776           -6600.00
03777           -6600.00
03778           -6400.00
03779           -6200.00
03780           -6200.00
03781           -6000.00
03782           -6000.00
03783           -5800.00
03784           -5800.00
03785           -5800.00
03786           -5600.00
03787           -5400.00
03788           -5400.00
03789           -5200.00
03790           -5000.00
03791           -4800.00
03792           -4800.00
03793           -4600.00
03794           -4600.00
03795           -4400.00
03796           -4400.00
03797           -4200.00
03798           -4000.00
03799           -4000.00
03800           -3600.00
03801           -3600.00
03802           -3400.00
03803           -3400.00
03804           -3200.00
03805           -3000.00
03806           -2800.00
03807           -2600.00
03808           -2600.00
03809           -2400.00
03810           -2400.00
03811           -2000.00
03812           -2000.00
03813           -1800.00
03814           -1600.00
03815           -1600.00
03816           -1200.00
03817           -1000.00
03818           -1000.00
03819            -800.00
03820            -600.00
03821            -400.00
03822            -400.00
03823            -200.00
03824            -200.00
03825               0.00
03826             200.00
03827             400.00
03828             400.00
03829             600.00
03830             600.00
03831             800.00
03832            1200.00
03833            1400.00
03834            1400.00
03835            1800.00
03836            1600.00
03837            2000.00
03838            2000.00
03839            2200.00
03840            2400.00
03841            2400.00
03842            2600.00
03843            2800.00
03844            3000.00
03845            3000.00
03846            3200.00
03847            3600.00
03848            3400.00
03849            3600.00
03850            3800.00
03851            4000.00
03852            4000.00
03853            4400.00
03854            4400.00
03855            4600.00
03856            4800.00
03857            4800.00
03858            4800.00
03859            5000.00
03860            5400.00
03861            5400.00
03862            5400.00
03863            5600.00
03864            5600.00
03865            5600.00
03866            6000.00
03867            6000.00
03868            6200.00
03869            6400.00
03870            6400.00
03871            6400.00
03872            6600.00
03873            6800.00
03874            6800.00
03875            6800.00
03876            7000.00
03877            7000.00
03878            7200.00
03879            7200.00
03880            7200.00
03881            7200.00
03882            7400.00
03883            7600.00
03884            7600.00
03885            7800.00
03886            7800.00
03887            7800.00
03888            7800.00
03889            8000.00
03890            8200.00
03891            8200.00
03892            8000.00
03893            8200.00
03894            8000.00
03895            8200.00
03896            8200.00
03897            8400.00
03898            8400.00
03899            8400.00
03900            8400.00
03901            8200.00
03902            8400.00
03903            8400.00
03904            8600.00
03905            8600.00
03906            8400.00
03907            8400.00
03908            8400.00
03909            8400.00
03910            8600.00
03911            8400.00
03912            8400.00
03913            8400.00
03914            8400.00
03915            8400.00
03916            8400.00
03917            8400.00
03918            8400.00
03919            8200.00
03920            8200.00
03921            8200.00
03922            8400.00
03923            8000.00
03924            8000.00
03925            8000.00
03926            8200.00
03927            8000.00
03928            7800.00
03929            7800.00
03930            7800.00
03931            7800.00
03932            7800.00
03933            7600.00
03934            7400.00
03935            7400.00
03936            7200.00
03937            7200.00
03938            7000.00
03939            7000.00
03940            7000.00
03941            6800.00
03942            6800.00
03943            6800.00
03944            6800.00
03945            6400.00
03946            6400.00
03947            6200.00
03948            6000.00
03949            6000.00
03950            6000.00
03951            6000.00
03952            5800.00
03953            5600.00
03954            5600.00
03955            5400.00
03956            5000.00
03957            4800.00
03958            4800.00
03959            4800.00
03960            4600.00
03961            4600.00
03962            4200.00
03963            4200.00
03964            4000.00
03965            4000.00
03966            3800.00
03967            3600.00
03968            3600.00
03969            3400.00
03970            3200.00
03971            3200.00
03972            3000.00
03973            2800.00
03974            2600.00
03975            2400.00
03976            2400.00
03977            2200.00
03978            2200.00
03979            2000.00
03980            1600.00
03981            1800.00
03982            1400.00
03983            1400.00
03984            1200.00
03985             800.00
03986             800.00
03987             600.00
03988             400.00
03989             400.00
03990             200.00
03991               0.00
03992            -200.00
03993            -400.00
03994            -400.00
03995            -600.00
03996            -600.00
03997            -800.00
03998           -1000.00
03999           -1200.00
04000           -1400.00
04001           -1600.00
04002           -2000.00
04003           -1800.00
04004           -1800.00
04005           -2000.00
04006           -2400.00
04007           -2600.00
04008           -2400.00
04009           -2800.00
04010           -3000.00
04011           -2800.00
04012           -3000.00
04013           -3600.00
04014           -3400.00
04015           -3600.00
04016           -3600.00
04017           -4000.00
04018           -4000.00
04019           -4000.00
04020           -4400.00
04021           -4400.00
04022           -4600.00
04023           -4400.00
04024           -4800.00
04025           -5000.00
04026           -5000.00
04027           -5200.00
04028           -5200.00
04029           -5600.00
04030           -5600.00
04031           -5800.00
04032           -5800.00
04033           -6000.00
04034           -6000.00
04035           -6000.00
04036           -6000.00
04037           -6400.00
04038           -6400.00
04039           -6400.00
04040           -6600.00
04041           -6800.00
04042           -7000.00
04043           -7000.00
04044           -6800.00
04045           -7200.00
04046           -7200.00
04047           -7200.00
04048           -7400.00
04049           -7400.00
04050           -7400.00
04051           -7400.00
04052           -7600.00
04053           -7600.00
04054           -7800.00
04055           -7800.00
04056           -7800.00
04057           -8000.00
04058           -8000.00
04059           -8000.00
04060           -8200.00
04061           -8200.00
04062           -8200.00
04063           -8000.00
04064           -8200.00
04065           -8200.00
04066           -8200.00
04067           -8400.00
04068           -8400.00
04069           -8200.00
04070           -8400.00
04071           -8200.00
04072           -8200.00
04073           -8200.00
04074           -8400.00
04075           -8400.00
04076           -8400.00
04077           -8400.00
04078           -8400.00
04079           -8200.00
04080           -8400.00
04081           -8200.00
04082           -8200.00
04083           -8400.00
04084           -8200.00
04085           -8200.00
04086           -8200.00
04087           -8000.00
04088           -8000.00
04089           -8000.00
04090           -8000.00
04091           -7800.00
04092           -7800.00
04093           -7600.00
04094           -7600.00
04095           -7600.00
04096           -7600.00
04097           -7200.00
04098           -7400.00
04099           -7400.00
04100           -7200.00
04101           -7200.00
04102           -7200.00
04103           -7200.00
04104           -6800.00
04105           -6800.00
04106           -6600.00
04107           -6600.00
04108           -6600.00
04109           -6400.00
04110           -6400.00
04111           -6400.00
04112           -6200.00
04113           -6000.00
04114           -6000.00
04115           -5800.00
04116           -5800.00
04117           -5800.00
04118           -5600.00
04119           -5400.00
04120           -5400.00
04121           -5000.00
04122           -5000.00
04123           -4800.00
04124           -4600.00
04125           -4600.00
04126           -4400.00
04127           -4400.00
04128           -4200.00
04129           -4000.00
04130           -4000.00
04131           -3600.00
04132           -3600.00
04133           -3400.00
04134           -3400.00
04135           -3200.00
04136           -3200.00
04137           -3000.00
04138           -2800.00
04139           -2800.00
04140           -2400.00
04141           -2400.00
04142           -2200.00
04143           -2000.00
04144           -1800.00
04145           -1800.00
04146           -1600.00
04147           -1400.00
04148           -1200.00
04149           -1200.00
04150           -1000.00
04151            -800.00
04152            -600.00
04153            -400.00
04154            -400.00
04155            -200.00
04156               0.00
04157             200.00
04158             200.00
04159             400.00
04160             600.00
04161             600.00
04162             800.00
04163             800.00
04164            1200.00
04165            1400.00
04166            1800.00
04167            1800.00
04168            2000.00
04169            2000.00
04170            2200.00
04171            2400.00
04172            2400.00
04173            2400.00
04174            2800.00
04175            3000.00
04176            3000.00
04177            3200.00
04178            3200.00
04179            3600.00
04180            3400.00
04181            3600.00
04182            4000.00
04183            4000.00
04184            4200.00
04185            4400.00
04186            4400.00
04187            4600.00
04188            4800.00
04189            4800.00
04190            4800.00
04191            5200.00
04192            5400.00
04193            5400.00
04194            5600.00
04195            5600.00
04196            5800.00
04197            6000.00
04198            6000.00
04199            6000.00
04200            6200.00
04201            6400.00
04202            6400.00
04203            6400.00
04204            6400.00
04205            6800.00
04206            6800.00
04207            7000.00
04208            7000.00
04209            7000.00
04210            7200.00
04211            7200.00
04212            7200.00
04213            7200.00
04214            7600.00
04215            7600.00
04216            7800.00
04217            7600.00
04218            7800.00
04219            8000.00
04220            8000.00
04221            8000.00
04222            8000.00
04223            8200.00
04224            8200.00
04225            8400.00
04226            8400.00
04227            8200.00
04228            8200.00
04229            8400.00
04230            8400.00
04231            8400.00
04232            8400.00
04233            8400.00
04234            8400.00
04235            8400.00
04236            8400.00
04237            8600.00
04238            8400.00
04239            8400.00
04240            8400.00
04241            8400.00
04242            8400.00
04243            8400.00
04244            8400.00
04245            8400.00
04246            8400.00
04247            8400.00
04248            8400.00
04249            8400.00
04250            8400.00
04251            8200.00
04252            8200.00
04253            8200.00
04254            8200.00
04255            8000.00
04256            8000.00
04257            8200.00
04258            8000.00
04259            7800.00
04260            7800.00
04261            7800.00
04262            7600.00
04263            7600.00
04264            7600.00
04265            7600.00
04266            7200.00
04267            7200.00
04268            7200.00
04269            7000.00
04270            7000.00
04271            6800.00
04272            7000.00
04273            6800.00
04274            6600.00
04275            6600.00
04276            6400.00
04277            6400.00
04278            6200.00
04279            6200.00
04280            6200.00
04281            6000.00
04282            6000.00
04283            5800.00
04284            5600.00
04285            5600.00
04286            5400.00
04287            5200.00
04288            5200.00
04289            5000.00
04290            4800.00
04291            4600.00
04292            4600.00
04293            4400.00
04294            4400.00
04295            4200.00
04296            4000.00
04297            4000.00
04298            3800.00
04299            3800.00
04300            3600.00
04301            3400.00
04302            3200.00
04303            3000.00
04304            3000.00
04305            2800.00
04306            2800.00
04307            2400.00
04308            2400.00
04309            2200.00
04310            2000.00
04311            1800.00
04312            1800.00
04313            1600.00
04314            1400.00
04315            1200.00
04316            1200.00
04317             800.00
04318             800.00
04319             600.00
04320             400.00
04321             200.00
04322             200.00
04323               0.00
04324            -200.00
04325            -400.00
04326            -400.00
04327            -400.00
04328            -800.00
04329            -800.00
04330           -1000.00
04331           -1200.00
04332           -1600.00
04333           -1800.00
04334           -1800.00
04335           -1800.00
04336           -1800.00
04337           -2400.00
04338           -2400.00
04339           -2200.00
04340           -2600.00
04341           -2800.00
04342           -2800.00
04343           -3000.00
04344           -3200.00
04345           -3400.00
04346           -3400.00
04347           -3600.00
04348           -3800.00
04349           -4000.00
04350           -4000.00
04351           -4200.00
04352           -4200.00
04353           -4400.00
04354           -4600.00
04355           -4600.00
04356           -4800.00
04357           -5000.00
04358           -5200.00
04359           -5200.00
04360           -5600.00
04361           -5600.00
04362           -5600.00
04363           -5800.00
04364           -5800.00
04365           -6000.00
04366           -6200.00
04367           -6000.00
04368           -6400.00
04369           -6400.00
04370           -6400.00
04371           -6600.00
04372           -6800.00
04373           -6800.00
04374           -6800.00
04375           -6800.00
04376           -7200.00
04377           -7200.00
04378           -7200.00
04379           -7200.00
04380           -7400.00
04381           -7400.00
04382           -7600.00
04383           -7600.00
04384           -7600.00
04385           -7800.00
04386           -7800.00
04387           -8000.00
04388           -8000.00
04389           -8000.00
04390           -8000.00
04391           -8000.00
04392           -8000.00
04393           -8000.00
04394           -8200.00
04395           -8000.00
04396           -8200.00
04397           -8200.00
04398           -8200.00
04399           -8400.00
04400           -8400.00
04401           -8400.00
04402           -8400.00
04403           -8400.00
04404           -8200.00
04405           -8400.00
04406           -8200.00
04407           -8200.00
04408           -8400.00
04409           -8400.00
04410           -8200.00
04411           -8400.00
04412           -8200.00
04413           -8200.00
04414           -8200.00
04415           -8000.00
04416           -8000.00
04417           -8200.00
04418           -8200.00
04419           -8000.00
04420           -8000.00
04421           -8000.00
04422           -8000.00
04423           -7800.00
04424           -7800.00
04425           -7600.00
04426           -7400.00
04427           -7600.00
04428           -7600.00
04429           -7400.00
04430           -7400.00
04431           -7200.00
04432           -7400.00
04433           -7200.00
04434           -7000.00
04435           -7000.00
04436           -6800.00
04437           -6800.00
04438           -6600.00
04439           -6600.00
04440           -6600.00
04441           -6400.00
04442           -6400.00
04443           -6400.00
04444           -6200.00
04445           -6000.00
04446           -6000.00
04447           -5800.00
04448           -5600.00
04449           -5600.00
04450           -5400.00
04451           -5200.00
04452           -5200.00
04453           -5000.00
04454           -4800.00
04455           -4600.00
04456           -4600.00
04457           -4400.00
04458           -4400.00
04459           -4200.00
04460           -4200.00
04461           -4000.00
04462           -4000.00
04463           -3600.00
04464           -3600.00
04465           -3400.00
04466           -3200.00
04467           -3200.00
04468           -3200.00
04469           -2800.00
04470           -2800.00
04471           -2600.00
04472           -2400.00
04473           -2400.00
04474           -2000.00
04475           -2000.00
04476           -1800.00
04477           -1600.00
04478           -1600.00
04479           -1400.00
04480           -1200.00
04481           -1000.00
04482            -800.00
04483            -800.00
04484            -400.00
04485            -400.00
04486            -200.00
04487            -200.00
04488               0.00
04489               0.00
04490             400.00
04491             600.00
04492             600.00
04493             800.00
04494             800.00
04495            1000.00
04496            1200.00
04497            1400.00
04498            1600.00
04499            2000.00
04500            2000.00
04501            2000.00
04502            2200.00
04503            2400.00
04504            2400.00
04505            2600.00
04506            3000.00
04507            3000.00
04508            3000.00
04509            3200.00
04510            3600.00
04511            3600.00
04512            3600.00
04513            4000.00
04514            4000.00
04515            4000.00
04516            4000.00
04517            4400.00
04518            4400.00
04519            4800.00
04520            4800.00
04521            5000.00
04522            5000.00
04523            5200.00
04524            5400.00
04525            5600.00
04526            5600.00
04527            5600.00
04528            6000.00
04529            6000.00
04530            6000.00
04531            6200.00
04532            6200.00
04533            6400.00
04534            6400.00
04535            6600.00
04536            6800.00
04537            6800.00
04538            6800.00
04539            7000.00
04540            7000.00
04541            7200.00
04542            7200.00
04543            7200.00
04544            7200.00
04545            7600.00
04546            7600.00
04547            7600.00
04548            7600.00
04549            7600.00
04550            7800.00
04551            7800.00
04552            8000.00
04553            8000.00
04554            8200.00
04555            8200.00
04556            8200.00
04557            8200.00
04558            8200.00
04559            8400.00
04560            8400.00
04561            8400.00
04562            8400.00
04563            8400.00
04564            8400.00
04565            8400.00
04566            8400.00
04567            8400.00
04568            8400.00
04569            8400.00
04570            8400.00
04571            8400.00
04572            8400.00
04573            8400.00
04574            8600.00
04575            8400.00
04576            8400.00
04577            8400.00
04578            8400.00
04579            8400.00
04580            8400.00
04581            8400.00
04582            8400.00
04583            8400.00
04584            8000.00
04585            8200.00
04586            8200.00
04587            8200.00
04588            8000.00
04589            8000.00
04590            7800.00
04591            8000.00
04592            8000.00
04593            8000.00
04594            7800.00
04595            7600.00
04596            7600.00
04597            7600.00
04598            7400.00
04599            7400.00
04600            7200.00
04601            7200.00
04602            7000.00
04603            7000.00
04604            6800.00
04605            6800.00
04606            6600.00
04607            6800.00
04608            6600.00
04609            6400.00
04610            6200.00
04611            6200.00
04612            6200.00
04613            6000.00
04614            5800.00
04615            5600.00
04616            5600.00
04617            5600.00
04618            5400.00
04619            5200.00
04620            5200.00
04621            4800.00
04622            4800.00
04623            4600.00
04624            4600.00
04625            4400.00
04626            4200.00
04627            4000.00
04628            3800.00
04629            3800.00
04630            3600.00
04631            3600.00
04632            3400.00
04633            3200.00
04634            3000.00
04635            3000.00
04636            2800.00
04637            2800.00
04638            2600.00
04639            2400.00
04640            2200.00
04641            2000.00
04642            2000.00
04643            1800.00
04644            1600.00
04645            1400.00
04646            1400.00
04647            1000.00
04648            1000.00
04649             800.00
04650             800.00
04651             400.00
04652             400.00
04653               0.00
04654               0.00
04655            -200.00
04656            -400.00
04657            -400.00
04658            -400.00
04659            -800.00
04660            -800.00
04661           -1000.00
04662           -1200.00
04663           -1200.00
04664           -1600.00
04665           -2000.00
04666           -1800.00
04667           -1800.00
04668           -2000.00
04669           -2400.00
04670           -2400.00
04671           -2400.00
04672           -2800.00
04673           -3000.00
04674           -2800.00
04675           -3200.00
04676           -3400.00
04677           -3400.00
04678           -3400.00
04679           -3600.00
04680           -3800.00
04681           -3800.00
04682           -4000.00
04683           -4400.00
04684           -4400.00
04685           -4400.00
04686           -4800.00
04687           -4800.00
04688           -5000.00
04689           -5000.00
04690           -5200.00
04691           -5200.00
04692           -5600.00
04693           -5600.00
04694           -5800.00
04695           -5800.00
04696           -5800.00
04697           -6200.00
04698           -6000.00
04699           -6000.00
04700           -6400.00
04701           -6400.00
04702           -6600.00
04703           -6600.00
04704           -6800.00
04705           -6800.00
04706           -6800.00
04707           -7000.00
04708           -7000.00
04709           -7200.00
04710           -7200.00
04711           -7200.00
04712           -7400.00
04713           -7400.00
04714           -7600.00
04715           -7600.00
04716           -7600.00
04717           -7600.00
04718           -8000.00
04719           -8000.00
04720           -8000.00
04721           -8000.00
04722           -8000.00
04723           -8000.00
04724           -8000.00
04725           -8000.00
04726           -8200.00
04727           -8200.00
04728           -8200.00
04729           -8200.00
04730           -8200.00
04731           -8200.00
04732           -8200.00
04733           -8400.00
04734           -8200.00
04735           -8400.00
04736           -8400.00
04737           -8400.00
04738           -8200.00
04739           -8400.00
04740           -8400.00
04741           -8200.00
04742           -8200.00
04743           -8200.00
04744           -8200.00
04745           -8200.00
04746           -8200.00
04747           -8200.00
04748           -8200.00
04749           -8200.00
04750           -8000.00
04751           -8000.00
04752           -8000.00
04753           -8000.00
04754           -8000.00
04755           -8000.00
04756           -7600.00
04757           -7600.00
04758           -7600.00
04759           -7600.00
04760           -7600.00
04761           -7400.00
04762           -7400.00
04763           -7400.00
04764           -7200.00
04765           -7200.00
04766           -7000.00
04767           -6800.00
04768           -6800.00
04769           -6800.00
04770           -6800.00
04771           -6600.00
04772           -6600.00
04773           -6400.00
04774           -6400.00
04775           -6200.00
04776           -6000.00
04777           -6000.00
04778           -5800.00
04779           -5600.00
04780           -5800.00
04781           -5400.00
04782           -5400.00
04783           -5200.00
04784           -5000.00
04785           -5000.00
04786           -4800.00
04787           -4800.00
04788           -4600.00
04789           -4400.00
04790           -4400.00
04791           -4200.00
04792           -4000.00
04793           -4000.00
04794           -3600.00
04795           -3600.00
04796           -3600.00
04797           -3400.00
04798           -3200.00
04799           -3200.00
04800           -3000.00
04801           -2800.00
04802           -2600.00
04803           -2600.00
04804           -2400.00
04805           -2200.00
04806           -2000.00
04807           -1800.00
04808           -1800.00
04809           -1600.00
04810           -1200.00
04811           -1600.00
04812           -1000.00
04813           -1000.00
04814            -800.00
04815            -600.00
04816            -400.00
04817            -400.00
04818               0.00
04819               0.00
04820               0.00
04821             400.00
04822             400.00
04823             600.00
04824             600.00
04825             800.00
04826            1000.00
04827            1200.00
04828            1400.00
04829            1600.00
04830            1800.00
04831            2000.00
04832            2000.00
04833            2000.00
04834            2400.00
04835            2400.00
04836            2600.00
04837            2800.00
04838            3000.00
04839            3000.00
04840            3000.00
04841            3400.00
04842            3400.00
04843            3600.00
04844            3600.00
04845            4000.00
04846            4000.00
04847            4200.00
04848            4200.00
04849            4400.00
04850            4600.00
04851            4800.00
04852            4600.00
04853            5200.00
04854            5000.00
04855            5200.00
04856            5400.00
04857            5600.00
04858            5800.00
04859            6000.00
04860            6000.00
04861            6000.00
04862            6000.00
04863            6000.00
04864            6200.00
04865            6400.00
04866            6400.00
04867            6600.00
04868            6800.00
04869            7000.00
04870            6800.00
04871            7000.00
04872            7200.00
04873            7200.00
04874            7200.00
04875            7200.00
04876            7200.00
04877            7400.00
04878            7600.00
04879            7800.00
04880            7800.00
04881            7800.00
04882            7800.00
04883            8000.00
04884            8200.00
04885            8000.00
04886            8200.00
04887            8200.00
04888            8200.00
04889            8200.00
04890            8400.00
04891            8400.00
04892            8400.00
04893            8400.00
04894            8400.00
04895            8400.00
04896            8400.00
04897            8400.00
04898            8400.00
04899            8400.00
04900            8400.00
04901            8600.00
04902            8400.00
04903            8400.00
04904            8600.00
04905            8600.00
04906            8600.00
04907            8400.00
04908            8400.00
04909            8400.00
04910            8400.00
04911            8400.00
04912            8400.00
04913            8200.00
04914            8400.00
04915            8200.00
04916            8200.00
04917            8000.00
04918            8200.00
04919            8200.00
04920            8000.00
04921            8200.00
04922            7800.00
04923            7800.00
04924            7800.00
04925            7600.00
04926            7600.00
04927            7600.00
04928            7600.00
04929            7400.00
04930            7400.00
04931            7200.00
04932            7200.00
04933            7000.00
04934            7000.00
04935            7000.00
04936            6800.00
04937            6600.00
04938            6800.00
04939            6400.00
04940            6400.00
04941            6400.00
04942            6200.00
04943            6000.00
04944            6000.00
04945            6000.00
04946            5600.00
04947            5600.00
04948            5600.00
04949            5400.00
04950            5200.00
04951            5200.00
04952            4800.00
04953            4800.00
04954            4800.00
04955            4600.00
04956            4400.00
04957            4400.00
04958            4000.00
04959            4000.00
04960            3800.00
04961            3600.00
04962            3600.00
04963            3400.00
04964            3400.00
04965            3200.00
04966            3000.00
04967            2800.00
04968            2800.00
04969            2600.00
04970            2400.00
04971            2400.00
04972            2200.00
04973            2000.00
04974            2000.00
04975            1800.00
04976            1600.00
04977            1400.00
04978            1200.00
04979            1000.00
04980             800.00
04981             800.00
04982             600.00
04983             400.00
04984             400.00
04985               0.00
04986               0.00
04987            -200.00
04988            -400.00
04989            -400.00
04990            -600.00
04991            -800.00
04992           -1000.00
04993           -1000.00
04994           -1200.00
04995           -1400.00
04996           -1800.00
04997           -1800.00
04998           -1800.00
04999           -1800.00
05000           -2200.00
