Unit:(mV)
                     CH2
Frequency    301.311 kHz
00001            2800.00
00002            2400.00
00003            2000.00
00004            1600.00
00005            1400.00
00006             800.00
00007             600.00
00008               0.00
00009            -200.00
00010            -400.00
00011            -800.00
00012           -1200.00
00013           -1600.00
00014           -2000.00
00015           -2200.00
00016           -2600.00
00017           -2800.00
00018           -3400.00
00019           -3600.00
00020           -4400.00
00021           -4600.00
00022           -5000.00
00023           -5000.00
00024           -5200.00
00025           -5800.00
00026           -6200.00
00027           -6600.00
00028           -6800.00
00029           -7200.00
00030           -7400.00
00031           -8000.00
00032           -8200.00
00033           -8800.00
00034           -9200.00
00035           -9200.00
00036           -9600.00
00037          -10000.00
00038          -10200.00
00039          -10800.00
00040          -10800.00
00041          -11200.00
00042          -11600.00
00043          -12000.00
00044          -12400.00
00045          -12600.00
00046          -12800.00
00047          -13200.00
00048          -13200.00
00049          -13600.00
00050          -14000.00
00051          -14000.00
00052          -14400.00
00053          -14800.00
00054          -14800.00
00055          -15200.00
00056          -15400.00
00057          -15600.00
00058          -16000.00
00059          -16000.00
00060          -16400.00
00061          -16400.00
00062          -16800.00
00063          -17000.00
00064          -17200.00
00065          -17200.00
00066          -17600.00
00067          -17600.00
00068          -17800.00
00069          -18000.00
00070          -18000.00
00071          -18400.00
00072          -18400.00
00073          -18600.00
00074          -18600.00
00075          -18800.00
00076          -18800.00
00077          -19000.00
00078          -19200.00
00079          -19200.00
00080          -19200.00
00081          -19400.00
00082          -19600.00
00083          -19600.00
00084          -19600.00
00085          -19600.00
00086          -19600.00
00087          -19600.00
00088          -19800.00
00089          -19800.00
00090          -19600.00
00091          -19600.00
00092          -19800.00
00093          -19600.00
00094          -19600.00
00095          -19600.00
00096          -19600.00
00097          -19600.00
00098          -19600.00
00099          -19600.00
00100          -19400.00
00101          -19400.00
00102          -19200.00
00103          -19400.00
00104          -19200.00
00105          -19000.00
00106          -19000.00
00107          -18800.00
00108          -18800.00
00109          -18600.00
00110          -18600.00
00111          -18400.00
00112          -18200.00
00113          -18200.00
00114          -17800.00
00115          -17800.00
00116          -17600.00
00117          -17400.00
00118          -17200.00
00119          -17000.00
00120          -16800.00
00121          -16600.00
00122          -16600.00
00123          -16200.00
00124          -16200.00
00125          -15800.00
00126          -15600.00
00127          -15400.00
00128          -15200.00
00129          -14800.00
00130          -14600.00
00131          -14400.00
00132          -14200.00
00133          -13800.00
00134          -13600.00
00135          -13400.00
00136          -13200.00
00137          -12800.00
00138          -12400.00
00139          -12200.00
00140          -12000.00
00141          -11600.00
00142          -11200.00
00143          -10800.00
00144          -10600.00
00145          -10200.00
00146          -10000.00
00147           -9600.00
00148           -9400.00
00149           -9000.00
00150           -8600.00
00151           -8200.00
00152           -8000.00
00153           -7600.00
00154           -7400.00
00155           -6800.00
00156           -6600.00
00157           -6400.00
00158           -6000.00
00159           -5600.00
00160           -5000.00
00161           -4600.00
00162           -4400.00
00163           -4000.00
00164           -3600.00
00165           -3200.00
00166           -2800.00
00167           -2600.00
00168           -2200.00
00169           -1800.00
00170           -1400.00
00171           -1000.00
00172            -800.00
00173            -400.00
00174               0.00
00175             400.00
00176             800.00
00177            1200.00
00178            1400.00
00179            1800.00
00180            2000.00
00181            2400.00
00182            2800.00
00183            3000.00
00184            3400.00
00185            3800.00
00186            4400.00
00187            4800.00
00188            5200.00
00189            5400.00
00190            5600.00
00191            6000.00
00192            6400.00
00193            6600.00
00194            7200.00
00195            7400.00
00196            7800.00
00197            8200.00
00198            8400.00
00199            8800.00
00200            9200.00
00201            9400.00
00202           10000.00
00203           10200.00
00204           10400.00
00205           10800.00
00206           11000.00
00207           11200.00
00208           11600.00
00209           12000.00
00210           12400.00
00211           12600.00
00212           12800.00
00213           13200.00
00214           13400.00
00215           13600.00
00216           14000.00
00217           14200.00
00218           14600.00
00219           14800.00
00220           15000.00
00221           15400.00
00222           15600.00
00223           15800.00
00224           16000.00
00225           16400.00
00226           16400.00
00227           16600.00
00228           16800.00
00229           17200.00
00230           17200.00
00231           17400.00
00232           17600.00
00233           18000.00
00234           18000.00
00235           18200.00
00236           18400.00
00237           18400.00
00238           18600.00
00239           18600.00
00240           19000.00
00241           19000.00
00242           19000.00
00243           19200.00
00244           19200.00
00245           19600.00
00246           19200.00
00247           19600.00
00248           19600.00
00249           19600.00
00250           19800.00
00251           19800.00
00252           19800.00
00253           19800.00
00254           20000.00
00255           20000.00
00256           20000.00
00257           19800.00
00258           20000.00
00259           20000.00
00260           19800.00
00261           20000.00
00262           19800.00
00263           19600.00
00264           19800.00
00265           19600.00
00266           19600.00
00267           19600.00
00268           19600.00
00269           19400.00
00270           19200.00
00271           19200.00
00272           19200.00
00273           19000.00
00274           19000.00
00275           19000.00
00276           18600.00
00277           18400.00
00278           18400.00
00279           18200.00
00280           18000.00
00281           18000.00
00282           17600.00
00283           17600.00
00284           17400.00
00285           17200.00
00286           17000.00
00287           16800.00
00288           16600.00
00289           16600.00
00290           16200.00
00291           16000.00
00292           15600.00
00293           15600.00
00294           15200.00
00295           15000.00
00296           14800.00
00297           14400.00
00298           14200.00
00299           14000.00
00300           13600.00
00301           13400.00
00302           13200.00
00303           13000.00
00304           12600.00
00305           12400.00
00306           12000.00
00307           11600.00
00308           11200.00
00309           11000.00
00310           10800.00
00311           10600.00
00312           10000.00
00313            9800.00
00314            9600.00
00315            9200.00
00316            8800.00
00317            8400.00
00318            8000.00
00319            7800.00
00320            7400.00
00321            7200.00
00322            6800.00
00323            6400.00
00324            6000.00
00325            5600.00
00326            5400.00
00327            4800.00
00328            4600.00
00329            4400.00
00330            3800.00
00331            3600.00
00332            3200.00
00333            2800.00
00334            2400.00
00335            2000.00
00336            1600.00
00337            1200.00
00338             800.00
00339             400.00
00340               0.00
00341            -200.00
00342            -600.00
00343            -800.00
00344           -1200.00
00345           -1600.00
00346           -2000.00
00347           -2400.00
00348           -2600.00
00349           -3000.00
00350           -3400.00
00351           -4000.00
00352           -4400.00
00353           -4800.00
00354           -5000.00
00355           -5000.00
00356           -5200.00
00357           -6000.00
00358           -6000.00
00359           -6600.00
00360           -7000.00
00361           -7200.00
00362           -7600.00
00363           -8200.00
00364           -8200.00
00365           -8800.00
00366           -9200.00
00367           -9200.00
00368           -9600.00
00369          -10000.00
00370          -10200.00
00371          -10800.00
00372          -10800.00
00373          -11200.00
00374          -11600.00
00375          -12000.00
00376          -12200.00
00377          -12400.00
00378          -12800.00
00379          -13000.00
00380          -13400.00
00381          -13600.00
00382          -14000.00
00383          -14000.00
00384          -14600.00
00385          -14800.00
00386          -14800.00
00387          -15400.00
00388          -15400.00
00389          -15600.00
00390          -16000.00
00391          -16200.00
00392          -16400.00
00393          -16400.00
00394          -16800.00
00395          -16800.00
00396          -17200.00
00397          -17200.00
00398          -17600.00
00399          -17600.00
00400          -17800.00
00401          -18000.00
00402          -18200.00
00403          -18400.00
00404          -18400.00
00405          -18600.00
00406          -18800.00
00407          -18800.00
00408          -18800.00
00409          -19200.00
00410          -19200.00
00411          -19200.00
00412          -19400.00
00413          -19400.00
00414          -19600.00
00415          -19400.00
00416          -19600.00
00417          -19600.00
00418          -19800.00
00419          -19600.00
00420          -19600.00
00421          -19600.00
00422          -19600.00
00423          -20000.00
00424          -19800.00
00425          -19600.00
00426          -19600.00
00427          -19600.00
00428          -19800.00
00429          -19600.00
00430          -19600.00
00431          -19600.00
00432          -19400.00
00433          -19400.00
00434          -19400.00
00435          -19200.00
00436          -19200.00
00437          -19000.00
00438          -19000.00
00439          -19000.00
00440          -18600.00
00441          -18800.00
00442          -18600.00
00443          -18400.00
00444          -18400.00
00445          -18000.00
00446          -17800.00
00447          -17800.00
00448          -17400.00
00449          -17400.00
00450          -17200.00
00451          -17000.00
00452          -17000.00
00453          -16800.00
00454          -16400.00
00455          -16400.00
00456          -15800.00
00457          -15600.00
00458          -15600.00
00459          -15400.00
00460          -15200.00
00461          -14800.00
00462          -14600.00
00463          -14400.00
00464          -14000.00
00465          -13800.00
00466          -13400.00
00467          -13200.00
00468          -13000.00
00469          -12800.00
00470          -12400.00
00471          -12200.00
00472          -11600.00
00473          -11600.00
00474          -11200.00
00475          -10800.00
00476          -10600.00
00477          -10200.00
00478           -9800.00
00479           -9800.00
00480           -9200.00
00481           -8800.00
00482           -8800.00
00483           -8400.00
00484           -8200.00
00485           -7600.00
00486           -7200.00
00487           -6800.00
00488           -6600.00
00489           -6000.00
00490           -5800.00
00491           -5600.00
00492           -5000.00
00493           -4800.00
00494           -4400.00
00495           -4000.00
00496           -3600.00
00497           -3200.00
00498           -2800.00
00499           -2400.00
00500           -2200.00
00501           -1800.00
00502           -1200.00
00503           -1000.00
00504            -800.00
00505            -200.00
00506               0.00
00507             400.00
00508             800.00
00509            1200.00
00510            1400.00
00511            1800.00
00512            2000.00
00513            2400.00
00514            2800.00
00515            3000.00
00516            3600.00
00517            4000.00
00518            4400.00
00519            4800.00
00520            5200.00
00521            5200.00
00522            5800.00
00523            6200.00
00524            6400.00
00525            6600.00
00526            7200.00
00527            7200.00
00528            7800.00
00529            8200.00
00530            8400.00
00531            8800.00
00532            9200.00
00533            9400.00
00534           10000.00
00535           10200.00
00536           10400.00
00537           10800.00
00538           11000.00
00539           11400.00
00540           11600.00
00541           12000.00
00542           12400.00
00543           12600.00
00544           12800.00
00545           13200.00
00546           13400.00
00547           13800.00
00548           14200.00
00549           14200.00
00550           14800.00
00551           14800.00
00552           15000.00
00553           15400.00
00554           15600.00
00555           15800.00
00556           16000.00
00557           16200.00
00558           16600.00
00559           16800.00
00560           16800.00
00561           17200.00
00562           17400.00
00563           17400.00
00564           17600.00
00565           17800.00
00566           18000.00
00567           18000.00
00568           18400.00
00569           18400.00
00570           18600.00
00571           18600.00
00572           19000.00
00573           19000.00
00574           19000.00
00575           19200.00
00576           19200.00
00577           19400.00
00578           19400.00
00579           19600.00
00580           19600.00
00581           19600.00
00582           19600.00
00583           19800.00
00584           19800.00
00585           20000.00
00586           19800.00
00587           20000.00
00588           19800.00
00589           20000.00
00590           19800.00
00591           19800.00
00592           19800.00
00593           19800.00
00594           19800.00
00595           19800.00
00596           19800.00
00597           19600.00
00598           19600.00
00599           19600.00
00600           19400.00
00601           19400.00
00602           19200.00
00603           19200.00
00604           19200.00
00605           19000.00
00606           18800.00
00607           18800.00
00608           18600.00
00609           18600.00
00610           18400.00
00611           18200.00
00612           18000.00
00613           18000.00
00614           17600.00
00615           17600.00
00616           17400.00
00617           17200.00
00618           17000.00
00619           16800.00
00620           16600.00
00621           16400.00
00622           16200.00
00623           15800.00
00624           15800.00
00625           15600.00
00626           15200.00
00627           15000.00
00628           14800.00
00629           14400.00
00630           14200.00
00631           14000.00
00632           13600.00
00633           13400.00
00634           13200.00
00635           12800.00
00636           12600.00
00637           12200.00
00638           12000.00
00639           11600.00
00640           11200.00
00641           11000.00
00642           10600.00
00643           10400.00
00644           10000.00
00645            9600.00
00646            9400.00
00647            9200.00
00648            8800.00
00649            8400.00
00650            8000.00
00651            7800.00
00652            7200.00
00653            7000.00
00654            6800.00
00655            6400.00
00656            6000.00
00657            5600.00
00658            5400.00
00659            4800.00
00660            4400.00
00661            4000.00
00662            3800.00
00663            3400.00
00664            3000.00
00665            2800.00
00666            2400.00
00667            2000.00
00668            1600.00
00669            1200.00
00670             800.00
00671             400.00
00672               0.00
00673            -200.00
00674            -600.00
00675            -800.00
00676           -1400.00
00677           -1600.00
00678           -2000.00
00679           -2400.00
00680           -2600.00
00681           -2800.00
00682           -3400.00
00683           -4000.00
00684           -4600.00
00685           -4800.00
00686           -5000.00
00687           -5000.00
00688           -5600.00
00689           -6000.00
00690           -6200.00
00691           -6600.00
00692           -7200.00
00693           -7200.00
00694           -7600.00
00695           -8200.00
00696           -8400.00
00697           -8800.00
00698           -9200.00
00699           -9400.00
00700           -9600.00
00701          -10000.00
00702          -10400.00
00703          -10800.00
00704          -11000.00
00705          -11200.00
00706          -11800.00
00707          -11800.00
00708          -12400.00
00709          -12400.00
00710          -13000.00
00711          -13200.00
00712          -13400.00
00713          -13600.00
00714          -14000.00
00715          -14400.00
00716          -14600.00
00717          -14800.00
00718          -14800.00
00719          -15400.00
00720          -15400.00
00721          -15600.00
00722          -16000.00
00723          -16200.00
00724          -16400.00
00725          -16600.00
00726          -16800.00
00727          -17000.00
00728          -17200.00
00729          -17400.00
00730          -17600.00
00731          -17800.00
00732          -18000.00
00733          -18000.00
00734          -18400.00
00735          -18400.00
00736          -18600.00
00737          -18600.00
00738          -18800.00
00739          -18800.00
00740          -18800.00
00741          -19200.00
00742          -19200.00
00743          -19200.00
00744          -19400.00
00745          -19400.00
00746          -19600.00
00747          -19600.00
00748          -19600.00
00749          -19600.00
00750          -19600.00
00751          -19600.00
00752          -19800.00
00753          -19800.00
00754          -19800.00
00755          -19600.00
00756          -19600.00
00757          -19600.00
00758          -19800.00
00759          -19600.00
00760          -19600.00
00761          -19600.00
00762          -19600.00
00763          -19600.00
00764          -19400.00
00765          -19400.00
00766          -19400.00
00767          -19200.00
00768          -19200.00
00769          -19200.00
00770          -18800.00
00771          -18800.00
00772          -18800.00
00773          -18600.00
00774          -18400.00
00775          -18400.00
00776          -18200.00
00777          -18000.00
00778          -17800.00
00779          -17800.00
00780          -17400.00
00781          -17200.00
00782          -17200.00
00783          -17000.00
00784          -16800.00
00785          -16600.00
00786          -16400.00
00787          -16200.00
00788          -16000.00
00789          -15600.00
00790          -15600.00
00791          -15400.00
00792          -15200.00
00793          -14800.00
00794          -14600.00
00795          -14400.00
00796          -14000.00
00797          -13800.00
00798          -13400.00
00799          -13000.00
00800          -12800.00
00801          -12800.00
00802          -12400.00
00803          -12000.00
00804          -11800.00
00805          -11400.00
00806          -11200.00
00807          -10800.00
00808          -10600.00
00809          -10000.00
00810          -10000.00
00811           -9600.00
00812           -9200.00
00813           -9000.00
00814           -8400.00
00815           -8200.00
00816           -8000.00
00817           -7600.00
00818           -7200.00
00819           -6800.00
00820           -6600.00
00821           -6000.00
00822           -5800.00
00823           -5600.00
00824           -5200.00
00825           -4600.00
00826           -4400.00
00827           -4000.00
00828           -3400.00
00829           -3200.00
00830           -2800.00
00831           -2600.00
00832           -2000.00
00833           -1800.00
00834           -1600.00
00835           -1000.00
00836            -800.00
00837            -200.00
00838             200.00
00839             600.00
00840             800.00
00841            1200.00
00842            1600.00
00843            1800.00
00844            2200.00
00845            2600.00
00846            2800.00
00847            3200.00
00848            3600.00
00849            4000.00
00850            4400.00
00851            4800.00
00852            5200.00
00853            5400.00
00854            5600.00
00855            6200.00
00856            6400.00
00857            6800.00
00858            7200.00
00859            7600.00
00860            7800.00
00861            8400.00
00862            8600.00
00863            8800.00
00864            9200.00
00865            9400.00
00866           10200.00
00867           10200.00
00868           10600.00
00869           10800.00
00870           11000.00
00871           11400.00
00872           11800.00
00873           12000.00
00874           12400.00
00875           12800.00
00876           12800.00
00877           13400.00
00878           13600.00
00879           14000.00
00880           14200.00
00881           14400.00
00882           14800.00
00883           14800.00
00884           15000.00
00885           15400.00
00886           15600.00
00887           15800.00
00888           16000.00
00889           16400.00
00890           16600.00
00891           16600.00
00892           17000.00
00893           17200.00
00894           17200.00
00895           17600.00
00896           17600.00
00897           18000.00
00898           17800.00
00899           18200.00
00900           18400.00
00901           18400.00
00902           18600.00
00903           18800.00
00904           19000.00
00905           19000.00
00906           19000.00
00907           19200.00
00908           19400.00
00909           19600.00
00910           19400.00
00911           19600.00
00912           19600.00
00913           19800.00
00914           19800.00
00915           19800.00
00916           19800.00
00917           19800.00
00918           20000.00
00919           19800.00
00920           20000.00
00921           20000.00
00922           20000.00
00923           19800.00
00924           20000.00
00925           19800.00
00926           19800.00
00927           19600.00
00928           19600.00
00929           19800.00
00930           19600.00
00931           19600.00
00932           19600.00
00933           19400.00
00934           19200.00
00935           19200.00
00936           19000.00
00937           19000.00
00938           18800.00
00939           18800.00
00940           18800.00
00941           18400.00
00942           18400.00
00943           18200.00
00944           18000.00
00945           18000.00
00946           17600.00
00947           17600.00
00948           17400.00
00949           17200.00
00950           16800.00
00951           16600.00
00952           16600.00
00953           16400.00
00954           16000.00
00955           16000.00
00956           15600.00
00957           15600.00
00958           15200.00
00959           14800.00
00960           14800.00
00961           14400.00
00962           14200.00
00963           14000.00
00964           13600.00
00965           13400.00
00966           13000.00
00967           12800.00
00968           12600.00
00969           12200.00
00970           12000.00
00971           11600.00
00972           11200.00
00973           11000.00
00974           10800.00
00975           10400.00
00976           10200.00
00977            9800.00
00978            9400.00
00979            9000.00
00980            8800.00
00981            8400.00
00982            8000.00
00983            7800.00
00984            7200.00
00985            7200.00
00986            6600.00
00987            6400.00
00988            6000.00
00989            5600.00
00990            5000.00
00991            4800.00
00992            4400.00
00993            4200.00
00994            3600.00
00995            3200.00
00996            3000.00
00997            2600.00
00998            2400.00
00999            2000.00
01000            1600.00
01001            1200.00
01002             800.00
01003             400.00
01004               0.00
01005            -400.00
01006            -800.00
01007           -1000.00
01008           -1200.00
01009           -1800.00
01010           -2000.00
01011           -2400.00
01012           -2600.00
01013           -3000.00
01014           -3600.00
01015           -4000.00
01016           -4600.00
01017           -4800.00
01018           -5000.00
01019           -5000.00
01020           -5600.00
01021           -6000.00
01022           -6200.00
01023           -6600.00
01024           -7200.00
01025           -7400.00
01026           -7600.00
01027           -8200.00
01028           -8400.00
01029           -8800.00
01030           -9200.00
01031           -9400.00
01032           -9800.00
01033          -10000.00
01034          -10400.00
01035          -10800.00
01036          -11000.00
01037          -11200.00
01038          -11600.00
01039          -12000.00
01040          -12200.00
01041          -12600.00
01042          -12800.00
01043          -13200.00
01044          -13400.00
01045          -13600.00
01046          -14000.00
01047          -14400.00
01048          -14600.00
01049          -14800.00
01050          -14800.00
01051          -15400.00
01052          -15600.00
01053          -15600.00
01054          -16000.00
01055          -16200.00
01056          -16400.00
01057          -16600.00
01058          -16800.00
01059          -17000.00
01060          -17000.00
01061          -17400.00
01062          -17600.00
01063          -17600.00
01064          -17800.00
01065          -18200.00
01066          -18400.00
01067          -18200.00
01068          -18400.00
01069          -18600.00
01070          -18800.00
01071          -18800.00
01072          -19000.00
01073          -19000.00
01074          -19200.00
01075          -19200.00
01076          -19400.00
01077          -19400.00
01078          -19400.00
01079          -19600.00
01080          -19600.00
01081          -19600.00
01082          -19600.00
01083          -19800.00
01084          -19600.00
01085          -19600.00
01086          -19800.00
01087          -19800.00
01088          -19600.00
01089          -19600.00
01090          -19600.00
01091          -19600.00
01092          -19600.00
01093          -19600.00
01094          -19400.00
01095          -19600.00
01096          -19600.00
01097          -19400.00
01098          -19400.00
01099          -19400.00
01100          -19200.00
01101          -19000.00
01102          -19000.00
01103          -18800.00
01104          -18800.00
01105          -18600.00
01106          -18400.00
01107          -18400.00
01108          -18200.00
01109          -18000.00
01110          -17800.00
01111          -17800.00
01112          -17600.00
01113          -17200.00
01114          -17200.00
01115          -17000.00
01116          -16800.00
01117          -16800.00
01118          -16400.00
01119          -16000.00
01120          -16000.00
01121          -15600.00
01122          -15400.00
01123          -15200.00
01124          -15000.00
01125          -14800.00
01126          -14400.00
01127          -14200.00
01128          -14000.00
01129          -13800.00
01130          -13400.00
01131          -13200.00
01132          -12800.00
01133          -12600.00
01134          -12400.00
01135          -12000.00
01136          -12000.00
01137          -11400.00
01138          -11000.00
01139          -10800.00
01140          -10400.00
01141          -10000.00
01142           -9800.00
01143           -9400.00
01144           -9200.00
01145           -8800.00
01146           -8600.00
01147           -8200.00
01148           -8000.00
01149           -7400.00
01150           -7000.00
01151           -6800.00
01152           -6400.00
01153           -6000.00
01154           -5800.00
01155           -5200.00
01156           -5000.00
01157           -4600.00
01158           -4400.00
01159           -4000.00
01160           -3600.00
01161           -3200.00
01162           -2800.00
01163           -2400.00
01164           -2000.00
01165           -1800.00
01166           -1400.00
01167           -1000.00
01168            -600.00
01169            -200.00
01170               0.00
01171             600.00
01172             800.00
01173            1200.00
01174            1400.00
01175            1800.00
01176            2200.00
01177            2600.00
01178            2800.00
01179            3200.00
01180            3600.00
01181            4000.00
01182            4400.00
01183            4800.00
01184            5400.00
01185            5400.00
01186            5800.00
01187            6200.00
01188            6400.00
01189            6800.00
01190            7200.00
01191            7600.00
01192            8000.00
01193            8200.00
01194            8400.00
01195            8800.00
01196            9200.00
01197            9600.00
01198           10000.00
01199           10200.00
01200           10600.00
01201           10800.00
01202           11200.00
01203           11600.00
01204           11800.00
01205           12000.00
01206           12600.00
01207           12800.00
01208           13200.00
01209           13400.00
01210           13600.00
01211           13800.00
01212           14200.00
01213           14600.00
01214           14800.00
01215           15000.00
01216           15200.00
01217           15600.00
01218           15600.00
01219           16000.00
01220           16000.00
01221           16400.00
01222           16600.00
01223           16800.00
01224           17000.00
01225           17200.00
01226           17200.00
01227           17600.00
01228           17600.00
01229           18000.00
01230           18000.00
01231           18200.00
01232           18400.00
01233           18400.00
01234           18600.00
01235           18800.00
01236           18800.00
01237           19000.00
01238           19200.00
01239           19200.00
01240           19200.00
01241           19200.00
01242           19600.00
01243           19800.00
01244           19600.00
01245           19600.00
01246           19800.00
01247           19800.00
01248           19800.00
01249           19800.00
01250           20000.00
01251           20000.00
01252           19800.00
01253           20000.00
01254           20000.00
01255           20000.00
01256           20000.00
01257           19800.00
01258           19800.00
01259           19800.00
01260           19600.00
01261           19800.00
01262           19600.00
01263           19600.00
01264           19400.00
01265           19200.00
01266           19200.00
01267           19200.00
01268           19000.00
01269           19000.00
01270           18800.00
01271           18800.00
01272           18800.00
01273           18400.00
01274           18400.00
01275           18200.00
01276           18000.00
01277           18000.00
01278           17600.00
01279           17600.00
01280           17400.00
01281           17200.00
01282           17000.00
01283           16800.00
01284           16400.00
01285           16400.00
01286           16000.00
01287           15800.00
01288           15600.00
01289           15600.00
01290           15200.00
01291           15000.00
01292           14800.00
01293           14600.00
01294           14200.00
01295           14000.00
01296           13600.00
01297           13400.00
01298           13200.00
01299           12600.00
01300           12400.00
01301           12400.00
01302           12000.00
01303           11600.00
01304           11200.00
01305           11000.00
01306           10600.00
01307           10200.00
01308           10000.00
01309            9600.00
01310            9200.00
01311            9000.00
01312            8600.00
01313            8400.00
01314            8000.00
01315            7600.00
01316            7200.00
01317            7000.00
01318            6800.00
01319            6200.00
01320            6000.00
01321            5400.00
01322            5200.00
01323            4800.00
01324            4400.00
01325            4000.00
01326            3600.00
01327            3200.00
01328            3000.00
01329            2400.00
01330            2200.00
01331            1800.00
01332            1600.00
01333            1200.00
01334             600.00
01335             400.00
01336               0.00
01337            -400.00
01338            -600.00
01339           -1000.00
01340           -1400.00
01341           -1800.00
01342           -2000.00
01343           -2400.00
01344           -2800.00
01345           -3200.00
01346           -3600.00
01347           -4000.00
01348           -4600.00
01349           -4800.00
01350           -5000.00
01351           -5000.00
01352           -5600.00
01353           -6200.00
01354           -6400.00
01355           -6800.00
01356           -7200.00
01357           -7400.00
01358           -8000.00
01359           -8200.00
01360           -8400.00
01361           -8800.00
01362           -9200.00
01363           -9600.00
01364          -10000.00
01365          -10000.00
01366          -10400.00
01367          -10800.00
01368          -11000.00
01369          -11400.00
01370          -11600.00
01371          -12000.00
01372          -12400.00
01373          -12800.00
01374          -13000.00
01375          -13200.00
01376          -13600.00
01377          -13800.00
01378          -14000.00
01379          -14200.00
01380          -14600.00
01381          -14800.00
01382          -15200.00
01383          -15400.00
01384          -15400.00
01385          -16000.00
01386          -16000.00
01387          -16200.00
01388          -16400.00
01389          -16800.00
01390          -17000.00
01391          -17000.00
01392          -17200.00
01393          -17600.00
01394          -17600.00
01395          -17800.00
01396          -18000.00
01397          -18000.00
01398          -18200.00
01399          -18400.00
01400          -18600.00
01401          -18600.00
01402          -18800.00
01403          -18800.00
01404          -19000.00
01405          -19200.00
01406          -19200.00
01407          -19200.00
01408          -19400.00
01409          -19400.00
01410          -19600.00
01411          -19600.00
01412          -19600.00
01413          -19800.00
01414          -19600.00
01415          -19800.00
01416          -19600.00
01417          -19800.00
01418          -19600.00
01419          -20000.00
01420          -20000.00
01421          -19800.00
01422          -19800.00
01423          -19800.00
01424          -19600.00
01425          -19600.00
01426          -19600.00
01427          -19400.00
01428          -19600.00
01429          -19400.00
01430          -19200.00
01431          -19200.00
01432          -19000.00
01433          -19200.00
01434          -19000.00
01435          -18800.00
01436          -18800.00
01437          -18600.00
01438          -18400.00
01439          -18400.00
01440          -18200.00
01441          -18000.00
01442          -17800.00
01443          -17800.00
01444          -17400.00
01445          -17200.00
01446          -17200.00
01447          -17000.00
01448          -16800.00
01449          -16600.00
01450          -16400.00
01451          -16200.00
01452          -16000.00
01453          -15600.00
01454          -15400.00
01455          -15200.00
01456          -15200.00
01457          -14800.00
01458          -14400.00
01459          -14200.00
01460          -14000.00
01461          -13600.00
01462          -13600.00
01463          -13200.00
01464          -12800.00
01465          -12600.00
01466          -12400.00
01467          -12000.00
01468          -11600.00
01469          -11400.00
01470          -11000.00
01471          -10800.00
01472          -10400.00
01473          -10000.00
01474           -9800.00
01475           -9600.00
01476           -9200.00
01477           -8800.00
01478           -8600.00
01479           -8200.00
01480           -7600.00
01481           -7400.00
01482           -7200.00
01483           -6600.00
01484           -6400.00
01485           -6000.00
01486           -5800.00
01487           -5200.00
01488           -5000.00
01489           -4600.00
01490           -4200.00
01491           -3800.00
01492           -3400.00
01493           -3200.00
01494           -2800.00
01495           -2400.00
01496           -2000.00
01497           -1800.00
01498           -1200.00
01499           -1000.00
01500            -600.00
01501            -200.00
01502               0.00
01503             600.00
01504             800.00
01505            1200.00
01506            1600.00
01507            2000.00
01508            2200.00
01509            2400.00
01510            2800.00
01511            3200.00
01512            3600.00
01513            4000.00
01514            4600.00
01515            5000.00
01516            5200.00
01517            5400.00
01518            5800.00
01519            6200.00
01520            6400.00
01521            7000.00
01522            7200.00
01523            7600.00
01524            7800.00
01525            8400.00
01526            8600.00
01527            9000.00
01528            9200.00
01529            9600.00
01530           10000.00
01531           10200.00
01532           10600.00
01533           11000.00
01534           11000.00
01535           11600.00
01536           11800.00
01537           12200.00
01538           12400.00
01539           12800.00
01540           13000.00
01541           13400.00
01542           13600.00
01543           14000.00
01544           14200.00
01545           14600.00
01546           14800.00
01547           15000.00
01548           15200.00
01549           15600.00
01550           15600.00
01551           15800.00
01552           16000.00
01553           16400.00
01554           16800.00
01555           16600.00
01556           17000.00
01557           17200.00
01558           17200.00
01559           17600.00
01560           17600.00
01561           18000.00
01562           18200.00
01563           18200.00
01564           18400.00
01565           18400.00
01566           18800.00
01567           18800.00
01568           18800.00
01569           19000.00
01570           19200.00
01571           19200.00
01572           19200.00
01573           19400.00
01574           19600.00
01575           19400.00
01576           19600.00
01577           19800.00
01578           19600.00
01579           19800.00
01580           19800.00
01581           19800.00
01582           20000.00
01583           19800.00
01584           20000.00
01585           19800.00
01586           19800.00
01587           19800.00
01588           19800.00
01589           20000.00
01590           19800.00
01591           19600.00
01592           19600.00
01593           19600.00
01594           19600.00
01595           19600.00
01596           19400.00
01597           19200.00
01598           19200.00
01599           19200.00
01600           19000.00
01601           19000.00
01602           18800.00
01603           18800.00
01604           18800.00
01605           18400.00
01606           18200.00
01607           18200.00
01608           18000.00
01609           17800.00
01610           17600.00
01611           17400.00
01612           17400.00
01613           17000.00
01614           16800.00
01615           16600.00
01616           16600.00
01617           16400.00
01618           16000.00
01619           15800.00
01620           15600.00
01621           15200.00
01622           15200.00
01623           14800.00
01624           14800.00
01625           14400.00
01626           14000.00
01627           13600.00
01628           13600.00
01629           13200.00
01630           13200.00
01631           12800.00
01632           12400.00
01633           12000.00
01634           12000.00
01635           11600.00
01636           11200.00
01637           11000.00
01638           10800.00
01639           10200.00
01640           10000.00
01641            9600.00
01642            9400.00
01643            9000.00
01644            8600.00
01645            8400.00
01646            8000.00
01647            7600.00
01648            7200.00
01649            6800.00
01650            6600.00
01651            6200.00
01652            5800.00
01653            5400.00
01654            5200.00
01655            4600.00
01656            4400.00
01657            3800.00
01658            3600.00
01659            3200.00
01660            2800.00
01661            2400.00
01662            2000.00
01663            1800.00
01664            1400.00
01665            1000.00
01666             600.00
01667             200.00
01668               0.00
01669            -400.00
01670            -800.00
01671           -1200.00
01672           -1400.00
01673           -1800.00
01674           -2200.00
01675           -2400.00
01676           -2800.00
01677           -3200.00
01678           -3600.00
01679           -4200.00
01680           -4600.00
01681           -5000.00
01682           -5000.00
01683           -5000.00
01684           -5600.00
01685           -6200.00
01686           -6200.00
01687           -6800.00
01688           -7200.00
01689           -7400.00
01690           -8000.00
01691           -8200.00
01692           -8400.00
01693           -9000.00
01694           -9200.00
01695           -9600.00
01696           -9800.00
01697          -10000.00
01698          -10600.00
01699          -11000.00
01700          -11200.00
01701          -11400.00
01702          -11800.00
01703          -12000.00
01704          -12400.00
01705          -12600.00
01706          -13000.00
01707          -13200.00
01708          -13600.00
01709          -13800.00
01710          -14200.00
01711          -14400.00
01712          -14600.00
01713          -14800.00
01714          -15200.00
01715          -15600.00
01716          -15600.00
01717          -15800.00
01718          -16200.00
01719          -16400.00
01720          -16400.00
01721          -16600.00
01722          -17000.00
01723          -17000.00
01724          -17200.00
01725          -17400.00
01726          -17600.00
01727          -17800.00
01728          -18000.00
01729          -18200.00
01730          -18400.00
01731          -18400.00
01732          -18600.00
01733          -18600.00
01734          -18800.00
01735          -18800.00
01736          -19000.00
01737          -19000.00
01738          -19200.00
01739          -19400.00
01740          -19400.00
01741          -19600.00
01742          -19400.00
01743          -19600.00
01744          -19600.00
01745          -19600.00
01746          -19600.00
01747          -19600.00
01748          -19800.00
01749          -19800.00
01750          -19600.00
01751          -20000.00
01752          -19800.00
01753          -19800.00
01754          -19600.00
01755          -19600.00
01756          -19600.00
01757          -19600.00
01758          -19600.00
01759          -19400.00
01760          -19600.00
01761          -19400.00
01762          -19200.00
01763          -19200.00
01764          -19200.00
01765          -18800.00
01766          -19000.00
01767          -18800.00
01768          -18600.00
01769          -18600.00
01770          -18400.00
01771          -18400.00
01772          -18000.00
01773          -18000.00
01774          -18000.00
01775          -17800.00
01776          -17400.00
01777          -17400.00
01778          -17200.00
01779          -17000.00
01780          -16800.00
01781          -16400.00
01782          -16400.00
01783          -16000.00
01784          -16000.00
01785          -15600.00
01786          -15400.00
01787          -15200.00
01788          -15000.00
01789          -14800.00
01790          -14400.00
01791          -14400.00
01792          -14000.00
01793          -13800.00
01794          -13200.00
01795          -13000.00
01796          -12800.00
01797          -12400.00
01798          -12200.00
01799          -12000.00
01800          -11600.00
01801          -11400.00
01802          -11200.00
01803          -10600.00
01804          -10400.00
01805          -10000.00
01806           -9800.00
01807           -9400.00
01808           -9200.00
01809           -8800.00
01810           -8400.00
01811           -8200.00
01812           -7800.00
01813           -7400.00
01814           -7000.00
01815           -6800.00
01816           -6400.00
01817           -6000.00
01818           -5600.00
01819           -5200.00
01820           -4800.00
01821           -4400.00
01822           -4200.00
01823           -3600.00
01824           -3600.00
01825           -3200.00
01826           -2800.00
01827           -2400.00
01828           -2000.00
01829           -1600.00
01830           -1200.00
01831            -800.00
01832            -400.00
01833            -200.00
01834             200.00
01835             600.00
01836             800.00
01837            1400.00
01838            1600.00
01839            2000.00
01840            2200.00
01841            2800.00
01842            3000.00
01843            3200.00
01844            3600.00
01845            4000.00
01846            4600.00
01847            5000.00
01848            5200.00
01849            5400.00
01850            6000.00
01851            6200.00
01852            6600.00
01853            7000.00
01854            7200.00
01855            7600.00
01856            8200.00
01857            8200.00
01858            8400.00
01859            9200.00
01860            9200.00
01861            9600.00
01862           10200.00
01863           10200.00
01864           10600.00
01865           11000.00
01866           11200.00
01867           11600.00
01868           12000.00
01869           12200.00
01870           12600.00
01871           12800.00
01872           13200.00
01873           13200.00
01874           13600.00
01875           14000.00
01876           14200.00
01877           14600.00
01878           14800.00
01879           15000.00
01880           15200.00
01881           15600.00
01882           15800.00
01883           15800.00
01884           16400.00
01885           16400.00
01886           16600.00
01887           16800.00
01888           17000.00
01889           17200.00
01890           17400.00
01891           17400.00
01892           17600.00
01893           17800.00
01894           18000.00
01895           18400.00
01896           18400.00
01897           18400.00
01898           18600.00
01899           18800.00
01900           19000.00
01901           19000.00
01902           19200.00
01903           19200.00
01904           19400.00
01905           19200.00
01906           19600.00
01907           19600.00
01908           19600.00
01909           19600.00
01910           19800.00
01911           19800.00
01912           19800.00
01913           20000.00
01914           20000.00
01915           19800.00
01916           20000.00
01917           20000.00
01918           19800.00
01919           19800.00
01920           19800.00
01921           19800.00
01922           19800.00
01923           19800.00
01924           19800.00
01925           19600.00
01926           19600.00
01927           19600.00
01928           19600.00
01929           19400.00
01930           19200.00
01931           19200.00
01932           19200.00
01933           18800.00
01934           18800.00
01935           18800.00
01936           18400.00
01937           18400.00
01938           18400.00
01939           18200.00
01940           18000.00
01941           17800.00
01942           17600.00
01943           17400.00
01944           17400.00
01945           17200.00
01946           16800.00
01947           16600.00
01948           16400.00
01949           16400.00
01950           16000.00
01951           15800.00
01952           15600.00
01953           15600.00
01954           15000.00
01955           14800.00
01956           14400.00
01957           14200.00
01958           14200.00
01959           13800.00
01960           13400.00
01961           13400.00
01962           12800.00
01963           12600.00
01964           12400.00
01965           12200.00
01966           11800.00
01967           11600.00
01968           11200.00
01969           11000.00
01970           10400.00
01971           10200.00
01972           10000.00
01973            9600.00
01974            9200.00
01975            8800.00
01976            8600.00
01977            8400.00
01978            8000.00
01979            7600.00
01980            7000.00
01981            6800.00
01982            6400.00
01983            6200.00
01984            5600.00
01985            5400.00
01986            5000.00
01987            4800.00
01988            4000.00
01989            4000.00
01990            3600.00
01991            3200.00
01992            2800.00
01993            2400.00
01994            2000.00
01995            1800.00
01996            1400.00
01997            1000.00
01998             600.00
01999             200.00
02000            -200.00
02001            -400.00
02002            -800.00
02003           -1200.00
02004           -1600.00
02005           -2000.00
02006           -2000.00
02007           -2400.00
02008           -2800.00
02009           -3200.00
02010           -3600.00
02011           -4400.00
02012           -4600.00
02013           -5000.00
02014           -5000.00
02015           -5200.00
02016           -5800.00
02017           -6200.00
02018           -6400.00
02019           -6800.00
02020           -7200.00
02021           -7400.00
02022           -8000.00
02023           -8200.00
02024           -8600.00
02025           -9000.00
02026           -9200.00
02027           -9600.00
02028          -10000.00
02029          -10000.00
02030          -10600.00
02031          -10800.00
02032          -11200.00
02033          -11600.00
02034          -12000.00
02035          -12200.00
02036          -12400.00
02037          -12800.00
02038          -13000.00
02039          -13200.00
02040          -13400.00
02041          -13800.00
02042          -14000.00
02043          -14400.00
02044          -14800.00
02045          -14800.00
02046          -15200.00
02047          -15600.00
02048          -15600.00
02049          -15800.00
02050          -16000.00
02051          -16400.00
02052          -16800.00
02053          -16600.00
02054          -17000.00
02055          -17000.00
02056          -17200.00
02057          -17600.00
02058          -17600.00
02059          -17800.00
02060          -18000.00
02061          -18200.00
02062          -18400.00
02063          -18400.00
02064          -18600.00
02065          -18800.00
02066          -18800.00
02067          -18800.00
02068          -19000.00
02069          -19200.00
02070          -19200.00
02071          -19400.00
02072          -19400.00
02073          -19600.00
02074          -19600.00
02075          -19600.00
02076          -19600.00
02077          -19800.00
02078          -19600.00
02079          -19600.00
02080          -19600.00
02081          -19800.00
02082          -20000.00
02083          -19800.00
02084          -19600.00
02085          -19800.00
02086          -19800.00
02087          -19600.00
02088          -19600.00
02089          -19400.00
02090          -19600.00
02091          -19600.00
02092          -19400.00
02093          -19400.00
02094          -19200.00
02095          -19200.00
02096          -19200.00
02097          -19000.00
02098          -19000.00
02099          -18800.00
02100          -18800.00
02101          -18600.00
02102          -18400.00
02103          -18200.00
02104          -18400.00
02105          -18000.00
02106          -18000.00
02107          -17800.00
02108          -17400.00
02109          -17200.00
02110          -17200.00
02111          -17000.00
02112          -16800.00
02113          -16600.00
02114          -16400.00
02115          -16000.00
02116          -15800.00
02117          -15600.00
02118          -15200.00
02119          -15200.00
02120          -14800.00
02121          -14600.00
02122          -14400.00
02123          -14000.00
02124          -14000.00
02125          -13600.00
02126          -13400.00
02127          -13000.00
02128          -12800.00
02129          -12600.00
02130          -12200.00
02131          -12000.00
02132          -11600.00
02133          -11200.00
02134          -11000.00
02135          -10800.00
02136          -10400.00
02137          -10000.00
02138           -9800.00
02139           -9200.00
02140           -9000.00
02141           -8800.00
02142           -8400.00
02143           -8200.00
02144           -8000.00
02145           -7400.00
02146           -7000.00
02147           -6600.00
02148           -6400.00
02149           -6000.00
02150           -5600.00
02151           -5200.00
02152           -4800.00
02153           -4400.00
02154           -4000.00
02155           -3800.00
02156           -3400.00
02157           -3200.00
02158           -2800.00
02159           -2400.00
02160           -2000.00
02161           -1600.00
02162           -1200.00
02163            -800.00
02164            -400.00
02165            -200.00
02166             200.00
02167             600.00
02168             800.00
02169            1400.00
02170            1600.00
02171            2000.00
02172            2400.00
02173            2600.00
02174            3000.00
02175            3200.00
02176            3800.00
02177            4400.00
02178            4800.00
02179            5200.00
02180            5200.00
02181            5600.00
02182            6000.00
02183            6200.00
02184            6400.00
02185            7000.00
02186            7200.00
02187            7600.00
02188            8200.00
02189            8400.00
02190            8600.00
02191            9200.00
02192            9200.00
02193            9800.00
02194           10000.00
02195           10200.00
02196           10800.00
02197           11000.00
02198           11200.00
02199           11800.00
02200           12000.00
02201           12200.00
02202           12600.00
02203           12800.00
02204           13200.00
02205           13600.00
02206           13600.00
02207           14000.00
02208           14400.00
02209           14600.00
02210           14800.00
02211           15000.00
02212           15200.00
02213           15600.00
02214           15800.00
02215           16000.00
02216           16000.00
02217           16400.00
02218           16600.00
02219           17000.00
02220           17000.00
02221           17400.00
02222           17400.00
02223           17600.00
02224           17800.00
02225           18000.00
02226           18200.00
02227           18200.00
02228           18400.00
02229           18600.00
02230           18800.00
02231           18800.00
02232           19000.00
02233           19000.00
02234           19200.00
02235           19400.00
02236           19400.00
02237           19200.00
02238           19600.00
02239           19600.00
02240           19800.00
02241           19600.00
02242           19800.00
02243           20000.00
02244           19800.00
02245           19800.00
02246           19800.00
02247           19800.00
02248           19800.00
02249           20000.00
02250           19800.00
02251           19800.00
02252           19800.00
02253           19800.00
02254           19800.00
02255           19800.00
02256           19600.00
02257           19600.00
02258           19600.00
02259           19600.00
02260           19200.00
02261           19400.00
02262           19200.00
02263           19200.00
02264           19000.00
02265           19000.00
02266           18800.00
02267           18800.00
02268           18400.00
02269           18400.00
02270           18400.00
02271           18200.00
02272           18000.00
02273           17800.00
02274           17600.00
02275           17400.00
02276           17200.00
02277           17200.00
02278           16800.00
02279           16600.00
02280           16400.00
02281           16200.00
02282           16000.00
02283           15800.00
02284           15600.00
02285           15400.00
02286           15000.00
02287           14800.00
02288           14600.00
02289           14200.00
02290           14200.00
02291           13800.00
02292           13600.00
02293           13200.00
02294           12800.00
02295           12800.00
02296           12200.00
02297           12200.00
02298           11800.00
02299           11400.00
02300           11000.00
02301           11000.00
02302           10400.00
02303           10200.00
02304           10000.00
02305            9600.00
02306            9200.00
02307            8800.00
02308            8600.00
02309            8400.00
02310            7800.00
02311            7400.00
02312            7200.00
02313            6800.00
02314            6400.00
02315            6000.00
02316            5800.00
02317            5400.00
02318            5000.00
02319            4600.00
02320            4400.00
02321            3800.00
02322            3400.00
02323            3200.00
02324            2800.00
02325            2400.00
02326            2000.00
02327            1600.00
02328            1400.00
02329             800.00
02330             600.00
02331             200.00
02332            -200.00
02333            -600.00
02334            -800.00
02335           -1200.00
02336           -1600.00
02337           -2000.00
02338           -2200.00
02339           -2600.00
02340           -2800.00
02341           -3200.00
02342           -3800.00
02343           -4400.00
02344           -4800.00
02345           -4800.00
02346           -5000.00
02347           -5200.00
02348           -5800.00
02349           -6200.00
02350           -6400.00
02351           -7000.00
02352           -7200.00
02353           -7600.00
02354           -8000.00
02355           -8200.00
02356           -8800.00
02357           -9200.00
02358           -9200.00
02359           -9600.00
02360          -10000.00
02361          -10000.00
02362          -10600.00
02363          -10800.00
02364          -11200.00
02365          -11600.00
02366          -11800.00
02367          -12000.00
02368          -12400.00
02369          -12800.00
02370          -13000.00
02371          -13200.00
02372          -13600.00
02373          -13800.00
02374          -14000.00
02375          -14400.00
02376          -14800.00
02377          -14800.00
02378          -15200.00
02379          -15400.00
02380          -15600.00
02381          -16000.00
02382          -16200.00
02383          -16400.00
02384          -16600.00
02385          -16800.00
02386          -17000.00
02387          -17200.00
02388          -17400.00
02389          -17600.00
02390          -17600.00
02391          -17800.00
02392          -18000.00
02393          -18000.00
02394          -18400.00
02395          -18400.00
02396          -18600.00
02397          -18600.00
02398          -18800.00
02399          -18800.00
02400          -19000.00
02401          -19200.00
02402          -19200.00
02403          -19200.00
02404          -19200.00
02405          -19600.00
02406          -19600.00
02407          -19600.00
02408          -19400.00
02409          -19600.00
02410          -19600.00
02411          -19800.00
02412          -20000.00
02413          -19600.00
02414          -19800.00
02415          -19600.00
02416          -19600.00
02417          -19600.00
02418          -19800.00
02419          -19600.00
02420          -19600.00
02421          -19600.00
02422          -19600.00
02423          -19600.00
02424          -19400.00
02425          -19200.00
02426          -19200.00
02427          -19200.00
02428          -19200.00
02429          -19200.00
02430          -18800.00
02431          -18800.00
02432          -18600.00
02433          -18600.00
02434          -18400.00
02435          -18400.00
02436          -18200.00
02437          -17800.00
02438          -17800.00
02439          -17600.00
02440          -17400.00
02441          -17400.00
02442          -17200.00
02443          -17000.00
02444          -16800.00
02445          -16400.00
02446          -16400.00
02447          -16000.00
02448          -16000.00
02449          -15600.00
02450          -15400.00
02451          -15200.00
02452          -14800.00
02453          -14600.00
02454          -14400.00
02455          -14000.00
02456          -13800.00
02457          -13600.00
02458          -13200.00
02459          -13000.00
02460          -12800.00
02461          -12400.00
02462          -12200.00
02463          -12000.00
02464          -11600.00
02465          -11200.00
02466          -10800.00
02467          -10800.00
02468          -10400.00
02469          -10000.00
02470           -9600.00
02471           -9400.00
02472           -9000.00
02473           -8800.00
02474           -8400.00
02475           -8000.00
02476           -7600.00
02477           -7400.00
02478           -6800.00
02479           -6600.00
02480           -6200.00
02481           -5800.00
02482           -5600.00
02483           -5200.00
02484           -4800.00
02485           -4400.00
02486           -4000.00
02487           -3600.00
02488           -3400.00
02489           -3000.00
02490           -2600.00
02491           -2400.00
02492           -1800.00
02493           -1600.00
02494           -1200.00
02495            -800.00
02496            -400.00
02497            -200.00
02498             400.00
02499             600.00
02500            1200.00
02501            1400.00
02502            1800.00
02503            2200.00
02504            2400.00
02505            2800.00
02506            3000.00
02507            3400.00
02508            4000.00
02509            4400.00
02510            4800.00
02511            5200.00
02512            5200.00
02513            5600.00
02514            6000.00
02515            6400.00
02516            6400.00
02517            7000.00
02518            7200.00
02519            7800.00
02520            8200.00
02521            8400.00
02522            8800.00
02523            9200.00
02524            9400.00
02525            9800.00
02526           10200.00
02527           10200.00
02528           10800.00
02529           11000.00
02530           11200.00
02531           11800.00
02532           12000.00
02533           12400.00
02534           12600.00
02535           12800.00
02536           13200.00
02537           13400.00
02538           13600.00
02539           14000.00
02540           14400.00
02541           14600.00
02542           14800.00
02543           15000.00
02544           15400.00
02545           15600.00
02546           15600.00
02547           16000.00
02548           16200.00
02549           16600.00
02550           16600.00
02551           16800.00
02552           17000.00
02553           17200.00
02554           17400.00
02555           17600.00
02556           17800.00
02557           18000.00
02558           18200.00
02559           18400.00
02560           18400.00
02561           18600.00
02562           18600.00
02563           18800.00
02564           19000.00
02565           19000.00
02566           19000.00
02567           19400.00
02568           19400.00
02569           19600.00
02570           19600.00
02571           19600.00
02572           19800.00
02573           19800.00
02574           19800.00
02575           19600.00
02576           20000.00
02577           19800.00
02578           20000.00
02579           19800.00
02580           19800.00
02581           19800.00
02582           19800.00
02583           19800.00
02584           19800.00
02585           19800.00
02586           19800.00
02587           19800.00
02588           19600.00
02589           19600.00
02590           19600.00
02591           19600.00
02592           19400.00
02593           19400.00
02594           19200.00
02595           19200.00
02596           19200.00
02597           18800.00
02598           19000.00
02599           18800.00
02600           18600.00
02601           18400.00
02602           18200.00
02603           18200.00
02604           18000.00
02605           17600.00
02606           17600.00
02607           17400.00
02608           17200.00
02609           17200.00
02610           16800.00
02611           16800.00
02612           16400.00
02613           16400.00
02614           16000.00
02615           15800.00
02616           15600.00
02617           15200.00
02618           15000.00
02619           14800.00
02620           14600.00
02621           14200.00
02622           14000.00
02623           13600.00
02624           13600.00
02625           13200.00
02626           13000.00
02627           12600.00
02628           12400.00
02629           12000.00
02630           11800.00
02631           11400.00
02632           11000.00
02633           11000.00
02634           10400.00
02635           10000.00
02636            9800.00
02637            9600.00
02638            9200.00
02639            8800.00
02640            8600.00
02641            8000.00
02642            7800.00
02643            7600.00
02644            7000.00
02645            6800.00
02646            6400.00
02647            6200.00
02648            5800.00
02649            5400.00
02650            4800.00
02651            4600.00
02652            4200.00
02653            3800.00
02654            3600.00
02655            3200.00
02656            2800.00
02657            2400.00
02658            2000.00
02659            1600.00
02660            1200.00
02661             800.00
02662             600.00
02663               0.00
02664            -200.00
02665            -400.00
02666           -1000.00
02667           -1200.00
02668           -1600.00
02669           -2000.00
02670           -2400.00
02671           -2400.00
02672           -2800.00
02673           -3200.00
02674           -3800.00
02675           -4400.00
02676           -4800.00
02677           -5000.00
02678           -5000.00
02679           -5200.00
02680           -5800.00
02681           -6400.00
02682           -6400.00
02683           -7200.00
02684           -7200.00
02685           -7600.00
02686           -8000.00
02687           -8200.00
02688           -8600.00
02689           -9200.00
02690           -9200.00
02691           -9800.00
02692          -10000.00
02693          -10200.00
02694          -10600.00
02695          -11000.00
02696          -11400.00
02697          -11600.00
02698          -12000.00
02699          -12200.00
02700          -12800.00
02701          -12800.00
02702          -13200.00
02703          -13400.00
02704          -13600.00
02705          -14000.00
02706          -14000.00
02707          -14400.00
02708          -14800.00
02709          -15000.00
02710          -15200.00
02711          -15400.00
02712          -15600.00
02713          -16000.00
02714          -16200.00
02715          -16400.00
02716          -16400.00
02717          -16800.00
02718          -17000.00
02719          -17200.00
02720          -17200.00
02721          -17400.00
02722          -17800.00
02723          -17800.00
02724          -17800.00
02725          -18200.00
02726          -18400.00
02727          -18400.00
02728          -18800.00
02729          -18600.00
02730          -18800.00
02731          -19000.00
02732          -19200.00
02733          -19200.00
02734          -19200.00
02735          -19200.00
02736          -19600.00
02737          -19400.00
02738          -19600.00
02739          -19600.00
02740          -19600.00
02741          -19600.00
02742          -19800.00
02743          -19600.00
02744          -20000.00
02745          -19600.00
02746          -19800.00
02747          -19600.00
02748          -19800.00
02749          -19600.00
02750          -20000.00
02751          -19600.00
02752          -19600.00
02753          -19600.00
02754          -19600.00
02755          -19600.00
02756          -19400.00
02757          -19200.00
02758          -19400.00
02759          -19200.00
02760          -19000.00
02761          -19000.00
02762          -18800.00
02763          -18800.00
02764          -18600.00
02765          -18400.00
02766          -18400.00
02767          -18400.00
02768          -18000.00
02769          -17800.00
02770          -17800.00
02771          -17600.00
02772          -17400.00
02773          -17200.00
02774          -17000.00
02775          -17000.00
02776          -16800.00
02777          -16600.00
02778          -16200.00
02779          -16200.00
02780          -15800.00
02781          -15600.00
02782          -15400.00
02783          -15200.00
02784          -14800.00
02785          -14600.00
02786          -14400.00
02787          -14200.00
02788          -13800.00
02789          -13400.00
02790          -13200.00
02791          -13000.00
02792          -12800.00
02793          -12400.00
02794          -12200.00
02795          -12000.00
02796          -11400.00
02797          -11400.00
02798          -11000.00
02799          -10600.00
02800          -10000.00
02801          -10000.00
02802           -9800.00
02803           -9200.00
02804           -9000.00
02805           -8800.00
02806           -8400.00
02807           -8000.00
02808           -7600.00
02809           -7400.00
02810           -7000.00
02811           -6600.00
02812           -6200.00
02813           -5800.00
02814           -5600.00
02815           -5200.00
02816           -4600.00
02817           -4400.00
02818           -4000.00
02819           -3600.00
02820           -3400.00
02821           -2800.00
02822           -2400.00
02823           -2400.00
02824           -1800.00
02825           -1600.00
02826           -1000.00
02827            -800.00
02828            -400.00
02829               0.00
02830             400.00
02831             600.00
02832            1000.00
02833            1400.00
02834            1800.00
02835            2200.00
02836            2400.00
02837            2800.00
02838            3000.00
02839            3400.00
02840            4000.00
02841            4400.00
02842            4800.00
02843            5200.00
02844            5400.00
02845            5600.00
02846            6000.00
02847            6400.00
02848            6800.00
02849            7000.00
02850            7600.00
02851            7800.00
02852            8200.00
02853            8400.00
02854            8800.00
02855            9200.00
02856            9400.00
02857           10000.00
02858           10200.00
02859           10400.00
02860           10800.00
02861           11000.00
02862           11200.00
02863           11800.00
02864           12000.00
02865           12000.00
02866           12600.00
02867           12800.00
02868           13200.00
02869           13600.00
02870           13800.00
02871           14200.00
02872           14200.00
02873           14800.00
02874           14800.00
02875           15000.00
02876           15400.00
02877           15600.00
02878           16000.00
02879           16000.00
02880           16400.00
02881           16400.00
02882           16600.00
02883           16800.00
02884           17200.00
02885           17200.00
02886           17400.00
02887           17600.00
02888           17800.00
02889           18000.00
02890           18200.00
02891           18400.00
02892           18200.00
02893           18600.00
02894           18800.00
02895           19000.00
02896           19000.00
02897           19000.00
02898           19200.00
02899           19200.00
02900           19200.00
02901           19200.00
02902           19600.00
02903           19600.00
02904           19800.00
02905           19600.00
02906           19600.00
02907           19800.00
02908           19800.00
02909           19800.00
02910           20000.00
02911           19800.00
02912           20000.00
02913           19800.00
02914           19800.00
02915           19800.00
02916           19800.00
02917           19800.00
02918           19600.00
02919           19800.00
02920           19600.00
02921           19600.00
02922           19600.00
02923           19400.00
02924           19200.00
02925           19200.00
02926           19200.00
02927           19000.00
02928           19000.00
02929           19000.00
02930           18800.00
02931           18800.00
02932           18600.00
02933           18400.00
02934           18200.00
02935           18200.00
02936           18000.00
02937           17600.00
02938           17400.00
02939           17200.00
02940           17200.00
02941           17000.00
02942           16800.00
02943           16600.00
02944           16400.00
02945           16200.00
02946           16000.00
02947           15800.00
02948           15400.00
02949           15200.00
02950           15000.00
02951           14800.00
02952           14400.00
02953           14200.00
02954           14000.00
02955           13600.00
02956           13400.00
02957           13200.00
02958           12800.00
02959           12400.00
02960           12400.00
02961           12000.00
02962           11600.00
02963           11400.00
02964           11000.00
02965           10800.00
02966           10400.00
02967           10200.00
02968            9600.00
02969            9400.00
02970            9200.00
02971            8800.00
02972            8400.00
02973            8000.00
02974            7800.00
02975            7600.00
02976            7000.00
02977            6800.00
02978            6400.00
02979            6000.00
02980            5600.00
02981            5400.00
02982            4800.00
02983            4600.00
02984            4000.00
02985            3800.00
02986            3400.00
02987            3000.00
02988            2800.00
02989            2400.00
02990            2000.00
02991            1600.00
02992            1200.00
02993             800.00
02994             400.00
02995               0.00
02996            -200.00
02997            -400.00
02998            -800.00
02999           -1200.00
03000           -1800.00
03001           -2000.00
03002           -2400.00
03003           -2600.00
03004           -2800.00
03005           -3400.00
03006           -4000.00
03007           -4400.00
03008           -4800.00
03009           -5000.00
03010           -5000.00
03011           -5400.00
03012           -6000.00
03013           -6200.00
03014           -6600.00
03015           -7200.00
03016           -7200.00
03017           -7600.00
03018           -8200.00
03019           -8200.00
03020           -8800.00
03021           -9200.00
03022           -9200.00
03023           -9600.00
03024          -10000.00
03025          -10400.00
03026          -10800.00
03027          -11000.00
03028          -11200.00
03029          -11600.00
03030          -12000.00
03031          -12200.00
03032          -12600.00
03033          -12800.00
03034          -13200.00
03035          -13400.00
03036          -13600.00
03037          -14000.00
03038          -14200.00
03039          -14400.00
03040          -14800.00
03041          -15000.00
03042          -15200.00
03043          -15600.00
03044          -15600.00
03045          -16000.00
03046          -16200.00
03047          -16400.00
03048          -16600.00
03049          -16800.00
03050          -17000.00
03051          -17200.00
03052          -17600.00
03053          -17600.00
03054          -17600.00
03055          -18000.00
03056          -18000.00
03057          -18000.00
03058          -18400.00
03059          -18400.00
03060          -18600.00
03061          -18800.00
03062          -18800.00
03063          -18800.00
03064          -19200.00
03065          -19200.00
03066          -19200.00
03067          -19400.00
03068          -19400.00
03069          -19600.00
03070          -19600.00
03071          -19600.00
03072          -19600.00
03073          -20000.00
03074          -19800.00
03075          -19800.00
03076          -19600.00
03077          -19600.00
03078          -19600.00
03079          -19600.00
03080          -19600.00
03081          -19600.00
03082          -19600.00
03083          -19600.00
03084          -19600.00
03085          -19600.00
03086          -19400.00
03087          -19400.00
03088          -19400.00
03089          -19400.00
03090          -19200.00
03091          -19200.00
03092          -19200.00
03093          -18800.00
03094          -19000.00
03095          -18800.00
03096          -18600.00
03097          -18600.00
03098          -18400.00
03099          -18400.00
03100          -18000.00
03101          -17800.00
03102          -17800.00
03103          -17600.00
03104          -17400.00
03105          -17200.00
03106          -17000.00
03107          -16800.00
03108          -16800.00
03109          -16400.00
03110          -16200.00
03111          -16000.00
03112          -15800.00
03113          -15600.00
03114          -15400.00
03115          -15000.00
03116          -14800.00
03117          -14600.00
03118          -14400.00
03119          -14000.00
03120          -13800.00
03121          -13400.00
03122          -13400.00
03123          -12800.00
03124          -12800.00
03125          -12400.00
03126          -12200.00
03127          -11800.00
03128          -11600.00
03129          -11200.00
03130          -10800.00
03131          -10600.00
03132          -10400.00
03133           -9800.00
03134           -9600.00
03135           -9200.00
03136           -9000.00
03137           -8800.00
03138           -8400.00
03139           -8000.00
03140           -7600.00
03141           -7200.00
03142           -6800.00
03143           -6600.00
03144           -6000.00
03145           -5800.00
03146           -5600.00
03147           -5000.00
03148           -4600.00
03149           -4400.00
03150           -4000.00
03151           -3600.00
03152           -3200.00
03153           -3000.00
03154           -2600.00
03155           -2200.00
03156           -2000.00
03157           -1600.00
03158           -1200.00
03159            -800.00
03160            -400.00
03161               0.00
03162             400.00
03163             800.00
03164            1000.00
03165            1600.00
03166            1800.00
03167            2000.00
03168            2400.00
03169            2800.00
03170            3200.00
03171            3600.00
03172            4000.00
03173            4400.00
03174            4800.00
03175            5000.00
03176            5400.00
03177            5600.00
03178            6000.00
03179            6400.00
03180            6600.00
03181            7200.00
03182            7400.00
03183            8000.00
03184            8200.00
03185            8400.00
03186            8800.00
03187            9200.00
03188            9400.00
03189           10000.00
03190           10200.00
03191           10400.00
03192           10800.00
03193           11000.00
03194           11200.00
03195           11800.00
03196           12000.00
03197           12400.00
03198           12600.00
03199           12800.00
03200           13200.00
03201           13400.00
03202           13800.00
03203           14200.00
03204           14400.00
03205           14800.00
03206           14800.00
03207           15000.00
03208           15600.00
03209           15600.00
03210           15800.00
03211           16000.00
03212           16200.00
03213           16600.00
03214           16600.00
03215           16800.00
03216           17000.00
03217           17200.00
03218           17600.00
03219           17600.00
03220           17800.00
03221           18000.00
03222           18200.00
03223           18200.00
03224           18200.00
03225           18600.00
03226           18600.00
03227           18800.00
03228           18800.00
03229           19200.00
03230           19200.00
03231           19200.00
03232           19200.00
03233           19400.00
03234           19600.00
03235           19600.00
03236           19600.00
03237           19600.00
03238           19600.00
03239           19800.00
03240           19800.00
03241           20000.00
03242           19800.00
03243           19800.00
03244           19800.00
03245           20000.00
03246           19800.00
03247           20000.00
03248           19800.00
03249           20000.00
03250           19800.00
03251           19600.00
03252           19600.00
03253           19600.00
03254           19600.00
03255           19600.00
03256           19400.00
03257           19200.00
03258           19200.00
03259           19000.00
03260           19000.00
03261           18800.00
03262           18800.00
03263           18600.00
03264           18400.00
03265           18400.00
03266           18200.00
03267           18000.00
03268           17800.00
03269           17600.00
03270           17600.00
03271           17400.00
03272           17200.00
03273           17000.00
03274           16800.00
03275           16600.00
03276           16400.00
03277           16000.00
03278           15800.00
03279           15600.00
03280           15400.00
03281           15200.00
03282           15000.00
03283           14800.00
03284           14400.00
03285           14200.00
03286           13800.00
03287           13600.00
03288           13400.00
03289           13000.00
03290           12800.00
03291           12400.00
03292           12200.00
03293           12000.00
03294           11600.00
03295           11200.00
03296           11000.00
03297           10800.00
03298           10200.00
03299           10000.00
03300            9600.00
03301            9400.00
03302            9000.00
03303            8800.00
03304            8400.00
03305            8200.00
03306            7800.00
03307            7200.00
03308            7000.00
03309            6800.00
03310            6400.00
03311            6000.00
03312            5600.00
03313            5200.00
03314            4800.00
03315            4400.00
03316            4000.00
03317            3800.00
03318            3400.00
03319            3000.00
03320            2600.00
03321            2400.00
03322            2000.00
03323            1600.00
03324            1200.00
03325             800.00
03326             400.00
03327             400.00
03328            -400.00
03329            -600.00
03330           -1000.00
03331           -1400.00
03332           -1800.00
03333           -2000.00
03334           -2200.00
03335           -2600.00
03336           -3000.00
03337           -3400.00
03338           -4000.00
03339           -4400.00
03340           -4800.00
03341           -5000.00
03342           -5000.00
03343           -5600.00
03344           -6200.00
03345           -6200.00
03346           -6600.00
03347           -7200.00
03348           -7400.00
03349           -7600.00
03350           -8200.00
03351           -8400.00
03352           -8800.00
03353           -9200.00
03354           -9200.00
03355           -9800.00
03356          -10000.00
03357          -10400.00
03358          -10800.00
03359          -10800.00
03360          -11200.00
03361          -11600.00
03362          -12000.00
03363          -12400.00
03364          -12400.00
03365          -13000.00
03366          -13200.00
03367          -13400.00
03368          -13600.00
03369          -14000.00
03370          -14200.00
03371          -14600.00
03372          -14800.00
03373          -15200.00
03374          -15400.00
03375          -15400.00
03376          -15600.00
03377          -16000.00
03378          -16000.00
03379          -16400.00
03380          -16600.00
03381          -16800.00
03382          -17000.00
03383          -17200.00
03384          -17400.00
03385          -17600.00
03386          -17600.00
03387          -18000.00
03388          -18000.00
03389          -18400.00
03390          -18200.00
03391          -18600.00
03392          -18800.00
03393          -18800.00
03394          -18800.00
03395          -19000.00
03396          -19200.00
03397          -19200.00
03398          -19200.00
03399          -19400.00
03400          -19400.00
03401          -19600.00
03402          -19600.00
03403          -19400.00
03404          -19600.00
03405          -19800.00
03406          -19600.00
03407          -19600.00
03408          -19800.00
03409          -19800.00
03410          -20000.00
03411          -19800.00
03412          -19800.00
03413          -19600.00
03414          -19600.00
03415          -19600.00
03416          -19600.00
03417          -19600.00
03418          -19600.00
03419          -19600.00
03420          -19400.00
03421          -19200.00
03422          -19200.00
03423          -19200.00
03424          -19000.00
03425          -19200.00
03426          -18800.00
03427          -18800.00
03428          -18600.00
03429          -18600.00
03430          -18400.00
03431          -18400.00
03432          -18000.00
03433          -18000.00
03434          -17800.00
03435          -17400.00
03436          -17400.00
03437          -17200.00
03438          -17000.00
03439          -16800.00
03440          -16800.00
03441          -16400.00
03442          -16200.00
03443          -16000.00
03444          -15800.00
03445          -15600.00
03446          -15400.00
03447          -15200.00
03448          -14800.00
03449          -14600.00
03450          -14400.00
03451          -14200.00
03452          -13800.00
03453          -13600.00
03454          -13200.00
03455          -13000.00
03456          -12600.00
03457          -12400.00
03458          -12000.00
03459          -12000.00
03460          -11600.00
03461          -11200.00
03462          -10800.00
03463          -10600.00
03464          -10000.00
03465          -10000.00
03466           -9600.00
03467           -9200.00
03468           -9000.00
03469           -8600.00
03470           -8400.00
03471           -8000.00
03472           -7400.00
03473           -7200.00
03474           -6800.00
03475           -6600.00
03476           -6000.00
03477           -5800.00
03478           -5400.00
03479           -5000.00
03480           -4600.00
03481           -4400.00
03482           -4000.00
03483           -3600.00
03484           -3200.00
03485           -2800.00
03486           -2600.00
03487           -2000.00
03488           -1800.00
03489           -1400.00
03490           -1000.00
03491            -600.00
03492            -400.00
03493               0.00
03494             400.00
03495             800.00
03496            1000.00
03497            1400.00
03498            1800.00
03499            2000.00
03500            2400.00
03501            2800.00
03502            3200.00
03503            3600.00
03504            4000.00
03505            4400.00
03506            4800.00
03507            5200.00
03508            5200.00
03509            5600.00
03510            6000.00
03511            6200.00
03512            6800.00
03513            7200.00
03514            7600.00
03515            7800.00
03516            8200.00
03517            8400.00
03518            9000.00
03519            9200.00
03520            9400.00
03521           10000.00
03522           10200.00
03523           10600.00
03524           10800.00
03525           11000.00
03526           11600.00
03527           11800.00
03528           12000.00
03529           12400.00
03530           12800.00
03531           13000.00
03532           13400.00
03533           13600.00
03534           14000.00
03535           14200.00
03536           14400.00
03537           14600.00
03538           14800.00
03539           15200.00
03540           15400.00
03541           15600.00
03542           16000.00
03543           16000.00
03544           16400.00
03545           16600.00
03546           16600.00
03547           16800.00
03548           17200.00
03549           17200.00
03550           17600.00
03551           17600.00
03552           17800.00
03553           18200.00
03554           18200.00
03555           18200.00
03556           18600.00
03557           18600.00
03558           18600.00
03559           19000.00
03560           19000.00
03561           19200.00
03562           19200.00
03563           19200.00
03564           19200.00
03565           19600.00
03566           19600.00
03567           19600.00
03568           19600.00
03569           19800.00
03570           19800.00
03571           19800.00
03572           19800.00
03573           19800.00
03574           20000.00
03575           20000.00
03576           19800.00
03577           20000.00
03578           19800.00
03579           19800.00
03580           19800.00
03581           19800.00
03582           19800.00
03583           19600.00
03584           19600.00
03585           19600.00
03586           19400.00
03587           19600.00
03588           19400.00
03589           19200.00
03590           19200.00
03591           19200.00
03592           19000.00
03593           18800.00
03594           18800.00
03595           18800.00
03596           18400.00
03597           18400.00
03598           18400.00
03599           18000.00
03600           18000.00
03601           17600.00
03602           17400.00
03603           17400.00
03604           17200.00
03605           17000.00
03606           16600.00
03607           16400.00
03608           16400.00
03609           16000.00
03610           15800.00
03611           15600.00
03612           15200.00
03613           15200.00
03614           15000.00
03615           14600.00
03616           14400.00
03617           14200.00
03618           13600.00
03619           13600.00
03620           13400.00
03621           13000.00
03622           12800.00
03623           12400.00
03624           12200.00
03625           12000.00
03626           11600.00
03627           11200.00
03628           11000.00
03629           10600.00
03630           10400.00
03631           10000.00
03632            9600.00
03633            9400.00
03634            9000.00
03635            8800.00
03636            8400.00
03637            8000.00
03638            7600.00
03639            7400.00
03640            6800.00
03641            6400.00
03642            6200.00
03643            6000.00
03644            5600.00
03645            5400.00
03646            4800.00
03647            4400.00
03648            4000.00
03649            3600.00
03650            3200.00
03651            3000.00
03652            2600.00
03653            2200.00
03654            2000.00
03655            1400.00
03656            1200.00
03657             600.00
03658             400.00
03659               0.00
03660            -200.00
03661            -800.00
03662           -1000.00
03663           -1400.00
03664           -1800.00
03665           -2200.00
03666           -2400.00
03667           -2800.00
03668           -3200.00
03669           -3600.00
03670           -4200.00
03671           -4600.00
03672           -4800.00
03673           -5000.00
03674           -5000.00
03675           -5600.00
03676           -6200.00
03677           -6200.00
03678           -6800.00
03679           -7200.00
03680           -7400.00
03681           -8000.00
03682           -8200.00
03683           -8400.00
03684           -8800.00
03685           -9400.00
03686           -9600.00
03687           -9800.00
03688          -10000.00
03689          -10400.00
03690          -10800.00
03691          -11200.00
03692          -11400.00
03693          -11800.00
03694          -12000.00
03695          -12400.00
03696          -12600.00
03697          -13000.00
03698          -13200.00
03699          -13600.00
03700          -13800.00
03701          -14000.00
03702          -14400.00
03703          -14600.00
03704          -14800.00
03705          -15200.00
03706          -15400.00
03707          -15400.00
03708          -15600.00
03709          -16000.00
03710          -16400.00
03711          -16400.00
03712          -16600.00
03713          -16800.00
03714          -17200.00
03715          -17200.00
03716          -17400.00
03717          -17600.00
03718          -17800.00
03719          -17800.00
03720          -18000.00
03721          -18400.00
03722          -18400.00
03723          -18400.00
03724          -18600.00
03725          -18800.00
03726          -18800.00
03727          -19200.00
03728          -19200.00
03729          -19200.00
03730          -19200.00
03731          -19400.00
03732          -19400.00
03733          -19400.00
03734          -19600.00
03735          -19600.00
03736          -19600.00
03737          -19600.00
03738          -19600.00
03739          -19600.00
03740          -19800.00
03741          -19600.00
03742          -19600.00
03743          -20000.00
03744          -19600.00
03745          -19600.00
03746          -19800.00
03747          -19800.00
03748          -19600.00
03749          -19600.00
03750          -19600.00
03751          -19400.00
03752          -19400.00
03753          -19400.00
03754          -19200.00
03755          -19200.00
03756          -19200.00
03757          -18800.00
03758          -18800.00
03759          -18600.00
03760          -18400.00
03761          -18600.00
03762          -18400.00
03763          -18200.00
03764          -18000.00
03765          -17800.00
03766          -17800.00
03767          -17400.00
03768          -17400.00
03769          -17200.00
03770          -17000.00
03771          -17000.00
03772          -16600.00
03773          -16400.00
03774          -16200.00
03775          -16200.00
03776          -15800.00
03777          -15600.00
03778          -15400.00
03779          -15000.00
03780          -14800.00
03781          -14600.00
03782          -14400.00
03783          -13800.00
03784          -13800.00
03785          -13400.00
03786          -13200.00
03787          -13000.00
03788          -12600.00
03789          -12400.00
03790          -12000.00
03791          -11800.00
03792          -11400.00
03793          -11200.00
03794          -10800.00
03795          -10400.00
03796          -10200.00
03797           -9800.00
03798           -9600.00
03799           -9200.00
03800           -8800.00
03801           -8400.00
03802           -8200.00
03803           -8000.00
03804           -7600.00
03805           -7200.00
03806           -6800.00
03807           -6400.00
03808           -6200.00
03809           -5800.00
03810           -5400.00
03811           -5000.00
03812           -4600.00
03813           -4200.00
03814           -4000.00
03815           -3600.00
03816           -3200.00
03817           -2800.00
03818           -2400.00
03819           -2200.00
03820           -1800.00
03821           -1400.00
03822           -1000.00
03823            -800.00
03824            -200.00
03825               0.00
03826             400.00
03827             800.00
03828            1200.00
03829            1600.00
03830            2000.00
03831            2200.00
03832            2600.00
03833            2800.00
03834            3200.00
03835            3600.00
03836            4000.00
03837            4400.00
03838            4800.00
03839            5200.00
03840            5400.00
03841            5800.00
03842            6200.00
03843            6400.00
03844            6800.00
03845            7200.00
03846            7600.00
03847            8000.00
03848            8400.00
03849            8600.00
03850            9000.00
03851            9200.00
03852            9400.00
03853           10000.00
03854           10200.00
03855           10400.00
03856           11000.00
03857           11200.00
03858           11600.00
03859           12000.00
03860           12000.00
03861           12400.00
03862           12600.00
03863           12800.00
03864           13200.00
03865           13400.00
03866           13800.00
03867           14200.00
03868           14400.00
03869           14800.00
03870           15000.00
03871           15200.00
03872           15600.00
03873           15600.00
03874           15800.00
03875           16000.00
03876           16400.00
03877           16600.00
03878           16800.00
03879           16800.00
03880           17200.00
03881           17200.00
03882           17400.00
03883           17600.00
03884           17800.00
03885           17800.00
03886           18200.00
03887           18400.00
03888           18600.00
03889           18600.00
03890           18800.00
03891           18800.00
03892           19000.00
03893           19200.00
03894           19200.00
03895           19200.00
03896           19400.00
03897           19600.00
03898           19400.00
03899           19600.00
03900           19600.00
03901           19800.00
03902           19800.00
03903           19800.00
03904           20000.00
03905           20000.00
03906           19800.00
03907           19800.00
03908           19800.00
03909           19800.00
03910           20000.00
03911           19800.00
03912           20000.00
03913           19800.00
03914           19600.00
03915           19600.00
03916           19600.00
03917           19600.00
03918           19600.00
03919           19600.00
03920           19200.00
03921           19200.00
03922           19000.00
03923           19000.00
03924           19000.00
03925           18800.00
03926           18800.00
03927           18600.00
03928           18400.00
03929           18400.00
03930           18000.00
03931           18000.00
03932           17800.00
03933           17600.00
03934           17400.00
03935           17200.00
03936           17200.00
03937           16800.00
03938           16600.00
03939           16400.00
03940           16400.00
03941           16000.00
03942           15600.00
03943           15800.00
03944           15400.00
03945           15000.00
03946           14800.00
03947           14600.00
03948           14400.00
03949           14000.00
03950           14000.00
03951           13400.00
03952           13200.00
03953           13000.00
03954           12600.00
03955           12400.00
03956           12200.00
03957           12000.00
03958           11600.00
03959           11200.00
03960           11000.00
03961           10800.00
03962           10200.00
03963           10000.00
03964            9600.00
03965            9200.00
03966            9200.00
03967            8600.00
03968            8400.00
03969            8000.00
03970            7600.00
03971            7200.00
03972            7000.00
03973            6600.00
03974            6200.00
03975            5800.00
03976            5400.00
03977            5000.00
03978            4600.00
03979            4400.00
03980            4000.00
03981            3600.00
03982            3200.00
03983            2800.00
03984            2600.00
03985            2200.00
03986            1800.00
03987            1400.00
03988            1000.00
03989             800.00
03990             400.00
03991               0.00
03992            -400.00
03993            -800.00
03994           -1200.00
03995           -1600.00
03996           -1800.00
03997           -2200.00
03998           -2400.00
03999           -2600.00
04000           -3000.00
04001           -3600.00
04002           -4200.00
04003           -4400.00
04004           -4800.00
04005           -5000.00
04006           -5000.00
04007           -5600.00
04008           -6000.00
04009           -6400.00
04010           -6800.00
04011           -7200.00
04012           -7400.00
04013           -8000.00
04014           -8200.00
04015           -8400.00
04016           -9000.00
04017           -9200.00
04018           -9600.00
04019          -10000.00
04020          -10000.00
04021          -10600.00
04022          -11000.00
04023          -11200.00
04024          -11400.00
04025          -12000.00
04026          -12000.00
04027          -12400.00
04028          -12600.00
04029          -13000.00
04030          -13200.00
04031          -13400.00
04032          -13800.00
04033          -14000.00
04034          -14400.00
04035          -14600.00
04036          -14800.00
04037          -15200.00
04038          -15400.00
04039          -15600.00
04040          -15600.00
04041          -16000.00
04042          -16200.00
04043          -16400.00
04044          -16800.00
04045          -17000.00
04046          -17000.00
04047          -17200.00
04048          -17400.00
04049          -17600.00
04050          -17800.00
04051          -18000.00
04052          -18200.00
04053          -18000.00
04054          -18400.00
04055          -18400.00
04056          -18800.00
04057          -18800.00
04058          -18800.00
04059          -18800.00
04060          -19200.00
04061          -19000.00
04062          -19200.00
04063          -19400.00
04064          -19400.00
04065          -19600.00
04066          -19600.00
04067          -19600.00
04068          -19800.00
04069          -19600.00
04070          -19800.00
04071          -19800.00
04072          -19800.00
04073          -20000.00
04074          -19600.00
04075          -19600.00
04076          -19600.00
04077          -19600.00
04078          -19600.00
04079          -19600.00
04080          -19600.00
04081          -19600.00
04082          -19600.00
04083          -19400.00
04084          -19400.00
04085          -19400.00
04086          -19200.00
04087          -19200.00
04088          -19200.00
04089          -18800.00
04090          -18800.00
04091          -18800.00
04092          -18600.00
04093          -18400.00
04094          -18400.00
04095          -18000.00
04096          -18000.00
04097          -17800.00
04098          -17600.00
04099          -17400.00
04100          -17400.00
04101          -17000.00
04102          -17000.00
04103          -16800.00
04104          -16600.00
04105          -16400.00
04106          -16200.00
04107          -16000.00
04108          -15600.00
04109          -15600.00
04110          -15200.00
04111          -15200.00
04112          -14800.00
04113          -14400.00
04114          -14400.00
04115          -14000.00
04116          -13800.00
04117          -13400.00
04118          -13200.00
04119          -12800.00
04120          -12600.00
04121          -12400.00
04122          -12200.00
04123          -11800.00
04124          -11400.00
04125          -11000.00
04126          -10800.00
04127          -10400.00
04128          -10000.00
04129           -9800.00
04130           -9600.00
04131           -9000.00
04132           -8800.00
04133           -8600.00
04134           -8000.00
04135           -8000.00
04136           -7400.00
04137           -7200.00
04138           -6800.00
04139           -6400.00
04140           -6000.00
04141           -5800.00
04142           -5200.00
04143           -5000.00
04144           -4600.00
04145           -4200.00
04146           -3800.00
04147           -3400.00
04148           -3200.00
04149           -2800.00
04150           -2400.00
04151           -2000.00
04152           -1800.00
04153           -1200.00
04154           -1000.00
04155            -400.00
04156            -200.00
04157               0.00
04158             600.00
04159             800.00
04160            1400.00
04161            1600.00
04162            2000.00
04163            2200.00
04164            2600.00
04165            2800.00
04166            3200.00
04167            3600.00
04168            4200.00
04169            4600.00
04170            4800.00
04171            5200.00
04172            5400.00
04173            5800.00
04174            6200.00
04175            6400.00
04176            6800.00
04177            7200.00
04178            7600.00
04179            8000.00
04180            8400.00
04181            8600.00
04182            9000.00
04183            9200.00
04184            9800.00
04185           10200.00
04186           10200.00
04187           10600.00
04188           10800.00
04189           11200.00
04190           11600.00
04191           11800.00
04192           12000.00
04193           12600.00
04194           12600.00
04195           12800.00
04196           13200.00
04197           13600.00
04198           14000.00
04199           14200.00
04200           14600.00
04201           14800.00
04202           15000.00
04203           15200.00
04204           15600.00
04205           15600.00
04206           16000.00
04207           16000.00
04208           16400.00
04209           16600.00
04210           16800.00
04211           16800.00
04212           17200.00
04213           17200.00
04214           17400.00
04215           17600.00
04216           17800.00
04217           18000.00
04218           18200.00
04219           18400.00
04220           18400.00
04221           18400.00
04222           18800.00
04223           18800.00
04224           19000.00
04225           19200.00
04226           19200.00
04227           19400.00
04228           19400.00
04229           19400.00
04230           19400.00
04231           19600.00
04232           19600.00
04233           19800.00
04234           19800.00
04235           19800.00
04236           20000.00
04237           19800.00
04238           19800.00
04239           19800.00
04240           20000.00
04241           20000.00
04242           19800.00
04243           19800.00
04244           19800.00
04245           19600.00
04246           19800.00
04247           19600.00
04248           19800.00
04249           19600.00
04250           19600.00
04251           19400.00
04252           19200.00
04253           19200.00
04254           19200.00
04255           19000.00
04256           19000.00
04257           18800.00
04258           18800.00
04259           18600.00
04260           18400.00
04261           18400.00
04262           18200.00
04263           18000.00
04264           18000.00
04265           17600.00
04266           17400.00
04267           17200.00
04268           17200.00
04269           17000.00
04270           16800.00
04271           16400.00
04272           16200.00
04273           16000.00
04274           15800.00
04275           15800.00
04276           15200.00
04277           15000.00
04278           14800.00
04279           14600.00
04280           14400.00
04281           14000.00
04282           13800.00
04283           13600.00
04284           13200.00
04285           12800.00
04286           12800.00
04287           12400.00
04288           12000.00
04289           12000.00
04290           11400.00
04291           11200.00
04292           11000.00
04293           10600.00
04294           10200.00
04295           10000.00
04296            9600.00
04297            9200.00
04298            9000.00
04299            8600.00
04300            8400.00
04301            7800.00
04302            7600.00
04303            7200.00
04304            7000.00
04305            6600.00
04306            6000.00
04307            6000.00
04308            5400.00
04309            5000.00
04310            4800.00
04311            4200.00
04312            4000.00
04313            3600.00
04314            3200.00
04315            2800.00
04316            2600.00
04317            2200.00
04318            1800.00
04319            1400.00
04320             800.00
04321             600.00
04322             400.00
04323               0.00
04324            -400.00
04325            -800.00
04326           -1000.00
04327           -1400.00
04328           -2000.00
04329           -2000.00
04330           -2600.00
04331           -2800.00
04332           -3000.00
04333           -3600.00
04334           -4200.00
04335           -4600.00
04336           -4800.00
04337           -5000.00
04338           -5200.00
04339           -5800.00
04340           -6000.00
04341           -6400.00
04342           -6800.00
04343           -7400.00
04344           -7400.00
04345           -8000.00
04346           -8400.00
04347           -8600.00
04348           -9000.00
04349           -9200.00
04350           -9600.00
04351          -10000.00
04352          -10000.00
04353          -10600.00
04354          -11000.00
04355          -11200.00
04356          -11600.00
04357          -11800.00
04358          -12000.00
04359          -12400.00
04360          -12800.00
04361          -13000.00
04362          -13200.00
04363          -13400.00
04364          -13800.00
04365          -14000.00
04366          -14400.00
04367          -14600.00
04368          -14800.00
04369          -15200.00
04370          -15400.00
04371          -15600.00
04372          -15600.00
04373          -16200.00
04374          -16200.00
04375          -16400.00
04376          -16600.00
04377          -17000.00
04378          -17200.00
04379          -17200.00
04380          -17400.00
04381          -17600.00
04382          -17800.00
04383          -17800.00
04384          -18000.00
04385          -18000.00
04386          -18400.00
04387          -18600.00
04388          -18600.00
04389          -18800.00
04390          -18800.00
04391          -19200.00
04392          -19200.00
04393          -19200.00
04394          -19400.00
04395          -19400.00
04396          -19400.00
04397          -19600.00
04398          -19600.00
04399          -19600.00
04400          -19600.00
04401          -19600.00
04402          -19600.00
04403          -20000.00
04404          -19600.00
04405          -19600.00
04406          -19600.00
04407          -19600.00
04408          -19600.00
04409          -19600.00
04410          -19600.00
04411          -19600.00
04412          -19600.00
04413          -19600.00
04414          -19600.00
04415          -19400.00
04416          -19400.00
04417          -19400.00
04418          -19200.00
04419          -19200.00
04420          -19200.00
04421          -18800.00
04422          -18800.00
04423          -18800.00
04424          -18400.00
04425          -18400.00
04426          -18400.00
04427          -18000.00
04428          -18000.00
04429          -18000.00
04430          -17800.00
04431          -17400.00
04432          -17200.00
04433          -17000.00
04434          -16800.00
04435          -16800.00
04436          -16600.00
04437          -16400.00
04438          -16200.00
04439          -15800.00
04440          -15600.00
04441          -15400.00
04442          -15200.00
04443          -14800.00
04444          -14800.00
04445          -14600.00
04446          -14000.00
04447          -14000.00
04448          -13600.00
04449          -13400.00
04450          -13200.00
04451          -12800.00
04452          -12600.00
04453          -12200.00
04454          -12000.00
04455          -11600.00
04456          -11400.00
04457          -11000.00
04458          -10800.00
04459          -10400.00
04460          -10000.00
04461           -9600.00
04462           -9400.00
04463           -9200.00
04464           -8800.00
04465           -8400.00
04466           -8200.00
04467           -7800.00
04468           -7400.00
04469           -7200.00
04470           -6600.00
04471           -6400.00
04472           -6000.00
04473           -5600.00
04474           -5200.00
04475           -4800.00
04476           -4400.00
04477           -4200.00
04478           -3800.00
04479           -3400.00
04480           -3200.00
04481           -2600.00
04482           -2400.00
04483           -2000.00
04484           -1800.00
04485           -1400.00
04486           -1000.00
04487            -400.00
04488            -200.00
04489             200.00
04490             600.00
04491             800.00
04492            1400.00
04493            1600.00
04494            2000.00
04495            2200.00
04496            2600.00
04497            2800.00
04498            3400.00
04499            3600.00
04500            4200.00
04501            4600.00
04502            5200.00
04503            5400.00
04504            5400.00
04505            6000.00
04506            6200.00
04507            6400.00
04508            6800.00
04509            7200.00
04510            7600.00
04511            8000.00
04512            8400.00
04513            8600.00
04514            9000.00
04515            9200.00
04516            9600.00
04517           10000.00
04518           10000.00
04519           10600.00
04520           11000.00
04521           11200.00
04522           11800.00
04523           12000.00
04524           12200.00
04525           12600.00
04526           12600.00
04527           13000.00
04528           13400.00
04529           13600.00
04530           14000.00
04531           14400.00
04532           14400.00
04533           14800.00
04534           15000.00
04535           15200.00
04536           15400.00
04537           15600.00
04538           16000.00
04539           16000.00
04540           16400.00
04541           16600.00
04542           16800.00
04543           17200.00
04544           17200.00
04545           17400.00
04546           17600.00
04547           17600.00
04548           17800.00
04549           18200.00
04550           18000.00
04551           18400.00
04552           18600.00
04553           18800.00
04554           18800.00
04555           19000.00
04556           19000.00
04557           19200.00
04558           19000.00
04559           19400.00
04560           19200.00
04561           19600.00
04562           19600.00
04563           19600.00
04564           19800.00
04565           19600.00
04566           19800.00
04567           19800.00
04568           19800.00
04569           19800.00
04570           20000.00
04571           19800.00
04572           20000.00
04573           19800.00
04574           20000.00
04575           19800.00
04576           19600.00
04577           19600.00
04578           19600.00
04579           19600.00
04580           19600.00
04581           19600.00
04582           19400.00
04583           19200.00
04584           19200.00
04585           19200.00
04586           19200.00
04587           19000.00
04588           18800.00
04589           18800.00
04590           18600.00
04591           18400.00
04592           18400.00
04593           18200.00
04594           18200.00
04595           18000.00
04596           17800.00
04597           17600.00
04598           17400.00
04599           17200.00
04600           17000.00
04601           16800.00
04602           16800.00
04603           16600.00
04604           16400.00
04605           16000.00
04606           15800.00
04607           15600.00
04608           15400.00
04609           15000.00
04610           14800.00
04611           14600.00
04612           14200.00
04613           14000.00
04614           13600.00
04615           13400.00
04616           13200.00
04617           12800.00
04618           12600.00
04619           12400.00
04620           12000.00
04621           11800.00
04622           11400.00
04623           11200.00
04624           10800.00
04625           10400.00
04626           10200.00
04627            9800.00
04628            9400.00
04629            9200.00
04630            8800.00
04631            8600.00
04632            8000.00
04633            8000.00
04634            7600.00
04635            7200.00
04636            6800.00
04637            6400.00
04638            6000.00
04639            5800.00
04640            5400.00
04641            4800.00
04642            4600.00
04643            4400.00
04644            3800.00
04645            3600.00
04646            3200.00
04647            2800.00
04648            2400.00
04649            2000.00
04650            1800.00
04651            1400.00
04652             800.00
04653             600.00
04654             400.00
04655               0.00
04656            -400.00
04657            -800.00
04658           -1200.00
04659           -1600.00
04660           -2000.00
04661           -2200.00
04662           -2600.00
04663           -2800.00
04664           -3200.00
04665           -3600.00
04666           -4400.00
04667           -4600.00
04668           -5000.00
04669           -5000.00
04670           -5200.00
04671           -5800.00
04672           -6000.00
04673           -6400.00
04674           -6800.00
04675           -7200.00
04676           -7400.00
04677           -8000.00
04678           -8200.00
04679           -8800.00
04680           -9000.00
04681           -9200.00
04682           -9600.00
04683          -10000.00
04684          -10000.00
04685          -10600.00
04686          -10800.00
04687          -11200.00
04688          -11400.00
04689          -11800.00
04690          -12200.00
04691          -12400.00
04692          -12800.00
04693          -13000.00
04694          -13200.00
04695          -13600.00
04696          -13800.00
04697          -14200.00
04698          -14400.00
04699          -14800.00
04700          -14800.00
04701          -15200.00
04702          -15400.00
04703          -15600.00
04704          -16000.00
04705          -16000.00
04706          -16200.00
04707          -16400.00
04708          -16800.00
04709          -16800.00
04710          -17200.00
04711          -17200.00
04712          -17200.00
04713          -17600.00
04714          -17800.00
04715          -17800.00
04716          -18000.00
04717          -18200.00
04718          -18400.00
04719          -18600.00
04720          -18800.00
04721          -18800.00
04722          -18800.00
04723          -19200.00
04724          -19200.00
04725          -19400.00
04726          -19400.00
04727          -19400.00
04728          -19400.00
04729          -19600.00
04730          -19600.00
04731          -19600.00
04732          -19600.00
04733          -19800.00
04734          -19600.00
04735          -19800.00
04736          -19800.00
04737          -19600.00
04738          -19800.00
04739          -19800.00
04740          -19800.00
04741          -19600.00
04742          -19600.00
04743          -19600.00
04744          -19600.00
04745          -19600.00
04746          -19400.00
04747          -19600.00
04748          -19400.00
04749          -19400.00
04750          -19200.00
04751          -19400.00
04752          -18800.00
04753          -19000.00
04754          -18800.00
04755          -18800.00
04756          -18600.00
04757          -18400.00
04758          -18400.00
04759          -18200.00
04760          -18000.00
04761          -17800.00
04762          -17600.00
04763          -17400.00
04764          -17200.00
04765          -17000.00
04766          -17000.00
04767          -16800.00
04768          -16400.00
04769          -16200.00
04770          -16000.00
04771          -15800.00
04772          -15600.00
04773          -15400.00
04774          -15200.00
04775          -14800.00
04776          -14600.00
04777          -14400.00
04778          -14000.00
04779          -13800.00
04780          -13600.00
04781          -13400.00
04782          -13000.00
04783          -12800.00
04784          -12400.00
04785          -12200.00
04786          -12000.00
04787          -11600.00
04788          -11400.00
04789          -11000.00
04790          -10800.00
04791          -10400.00
04792          -10000.00
04793           -9800.00
04794           -9400.00
04795           -9000.00
04796           -8600.00
04797           -8400.00
04798           -8000.00
04799           -7800.00
04800           -7400.00
04801           -6800.00
04802           -6800.00
04803           -6400.00
04804           -6000.00
04805           -5600.00
04806           -5200.00
04807           -4800.00
04808           -4400.00
04809           -4200.00
04810           -3800.00
04811           -3400.00
04812           -3200.00
04813           -2800.00
04814           -2400.00
04815           -2000.00
04816           -1600.00
04817           -1200.00
04818            -800.00
04819            -600.00
04820               0.00
04821             200.00
04822             600.00
04823            1000.00
04824            1200.00
04825            1800.00
04826            2000.00
04827            2200.00
04828            2600.00
04829            3000.00
04830            3400.00
04831            3800.00
04832            4400.00
04833            4800.00
04834            5000.00
04835            5400.00
04836            5600.00
04837            6000.00
04838            6200.00
04839            6600.00
04840            7000.00
04841            7200.00
04842            7600.00
04843            8000.00
04844            8400.00
04845            8800.00
04846            9200.00
04847            9400.00
04848            9800.00
04849           10000.00
04850           10400.00
04851           10800.00
04852           11000.00
04853           11200.00
04854           11600.00
04855           12000.00
04856           12400.00
04857           12600.00
04858           12800.00
04859           13200.00
04860           13400.00
04861           13600.00
04862           14000.00
04863           14200.00
04864           14600.00
04865           14800.00
04866           15000.00
04867           15200.00
04868           15600.00
04869           15800.00
04870           16000.00
04871           16000.00
04872           16400.00
04873           16800.00
04874           16800.00
04875           17000.00
04876           17200.00
04877           17400.00
04878           17600.00
04879           17600.00
04880           18000.00
04881           18000.00
04882           18400.00
04883           18400.00
04884           18400.00
04885           18800.00
04886           18800.00
04887           18800.00
04888           19000.00
04889           19000.00
04890           19200.00
04891           19400.00
04892           19200.00
04893           19200.00
04894           19600.00
04895           19800.00
04896           19600.00
04897           19800.00
04898           19600.00
04899           19800.00
04900           20000.00
04901           19800.00
04902           19800.00
04903           19800.00
04904           19800.00
04905           19800.00
04906           20000.00
04907           19800.00
04908           19800.00
04909           19800.00
04910           19600.00
04911           19800.00
04912           19600.00
04913           19400.00
04914           19600.00
04915           19400.00
04916           19400.00
04917           19200.00
04918           19200.00
04919           19000.00
04920           19000.00
04921           18800.00
04922           18800.00
04923           18600.00
04924           18400.00
04925           18400.00
04926           18000.00
04927           18000.00
04928           17600.00
04929           17600.00
04930           17400.00
04931           17200.00
04932           17200.00
04933           16800.00
04934           16600.00
04935           16400.00
04936           16200.00
04937           16000.00
04938           15600.00
04939           15600.00
04940           15200.00
04941           15000.00
04942           14800.00
04943           14400.00
04944           14200.00
04945           14000.00
04946           13600.00
04947           13400.00
04948           13200.00
04949           12800.00
04950           12600.00
04951           12400.00
04952           12000.00
04953           11800.00
04954           11600.00
04955           11200.00
04956           10800.00
04957           10400.00
04958           10000.00
04959            9800.00
04960            9400.00
04961            9200.00
04962            9000.00
04963            8400.00
04964            8200.00
04965            7800.00
04966            7600.00
04967            7200.00
04968            6800.00
04969            6400.00
04970            6000.00
04971            5600.00
04972            5400.00
04973            4800.00
04974            4600.00
04975            4200.00
04976            3800.00
04977            3600.00
04978            3000.00
04979            2800.00
04980            2400.00
04981            2200.00
04982            1600.00
04983            1400.00
04984            1000.00
04985             600.00
04986             400.00
04987               0.00
04988            -400.00
04989            -800.00
04990           -1000.00
04991           -1600.00
04992           -2000.00
04993           -2400.00
04994           -2600.00
04995           -2800.00
04996           -3200.00
04997           -3600.00
04998           -4400.00
04999           -4600.00
05000           -5000.00
