Unit:(mV)
                     CH2
Frequency    301.238 kHz
00001            2000.00
00002            1600.00
00003            1400.00
00004            1200.00
00005            1000.00
00006             600.00
00007             400.00
00008             200.00
00009               0.00
00010            -200.00
00011            -400.00
00012            -600.00
00013            -800.00
00014           -1000.00
00015           -1200.00
00016           -1600.00
00017           -1800.00
00018           -1800.00
00019           -2200.00
00020           -2600.00
00021           -2800.00
00022           -2800.00
00023           -2800.00
00024           -3200.00
00025           -3600.00
00026           -3600.00
00027           -3600.00
00028           -4200.00
00029           -4200.00
00030           -4400.00
00031           -4600.00
00032           -5000.00
00033           -4600.00
00034           -5400.00
00035           -5600.00
00036           -5800.00
00037           -6000.00
00038           -6000.00
00039           -6200.00
00040           -6600.00
00041           -6800.00
00042           -6800.00
00043           -7200.00
00044           -7400.00
00045           -7400.00
00046           -7800.00
00047           -7600.00
00048           -8200.00
00049           -8200.00
00050           -8200.00
00051           -8400.00
00052           -8800.00
00053           -8800.00
00054           -9000.00
00055           -9200.00
00056           -9200.00
00057           -9600.00
00058           -9600.00
00059           -9800.00
00060           -9800.00
00061          -10000.00
00062          -10000.00
00063          -10200.00
00064          -10400.00
00065          -10600.00
00066          -10600.00
00067          -10800.00
00068          -10800.00
00069          -10800.00
00070          -10800.00
00071          -11000.00
00072          -11200.00
00073          -11000.00
00074          -11200.00
00075          -11400.00
00076          -11400.00
00077          -11400.00
00078          -11600.00
00079          -11600.00
00080          -11600.00
00081          -11600.00
00082          -12000.00
00083          -12000.00
00084          -12000.00
00085          -12000.00
00086          -12000.00
00087          -12000.00
00088          -12000.00
00089          -12000.00
00090          -12200.00
00091          -12200.00
00092          -12000.00
00093          -12000.00
00094          -12000.00
00095          -12000.00
00096          -12000.00
00097          -12000.00
00098          -12000.00
00099          -11800.00
00100          -12000.00
00101          -11800.00
00102          -12000.00
00103          -11600.00
00104          -11600.00
00105          -11600.00
00106          -11600.00
00107          -11600.00
00108          -11400.00
00109          -11400.00
00110          -11000.00
00111          -11000.00
00112          -11200.00
00113          -11000.00
00114          -11000.00
00115          -10800.00
00116          -10800.00
00117          -10600.00
00118          -10600.00
00119          -10400.00
00120          -10200.00
00121          -10000.00
00122          -10000.00
00123          -10000.00
00124           -9800.00
00125           -9600.00
00126           -9600.00
00127           -9600.00
00128           -9200.00
00129           -9200.00
00130           -9000.00
00131           -8800.00
00132           -8800.00
00133           -8400.00
00134           -8400.00
00135           -8200.00
00136           -8000.00
00137           -8000.00
00138           -7600.00
00139           -7600.00
00140           -7200.00
00141           -7200.00
00142           -7000.00
00143           -6800.00
00144           -6600.00
00145           -6400.00
00146           -6200.00
00147           -6000.00
00148           -5800.00
00149           -5600.00
00150           -5200.00
00151           -5000.00
00152           -5000.00
00153           -4600.00
00154           -4400.00
00155           -4400.00
00156           -4000.00
00157           -4000.00
00158           -3600.00
00159           -3400.00
00160           -3200.00
00161           -3000.00
00162           -2800.00
00163           -2600.00
00164           -2400.00
00165           -2400.00
00166           -2000.00
00167           -1800.00
00168           -1600.00
00169           -1200.00
00170           -1000.00
00171            -800.00
00172            -600.00
00173            -400.00
00174            -200.00
00175               0.00
00176             400.00
00177             600.00
00178             600.00
00179            1000.00
00180            1200.00
00181            1400.00
00182            1800.00
00183            2000.00
00184            2000.00
00185            2200.00
00186            2600.00
00187            3000.00
00188            3000.00
00189            3000.00
00190            3400.00
00191            3600.00
00192            3600.00
00193            3800.00
00194            4400.00
00195            4400.00
00196            4400.00
00197            5000.00
00198            5000.00
00199            5200.00
00200            5600.00
00201            5600.00
00202            6000.00
00203            6200.00
00204            6200.00
00205            6400.00
00206            6800.00
00207            6800.00
00208            7200.00
00209            7200.00
00210            7200.00
00211            7800.00
00212            7800.00
00213            8000.00
00214            8200.00
00215            8400.00
00216            8600.00
00217            8600.00
00218            8800.00
00219            8800.00
00220            9200.00
00221            9400.00
00222            9400.00
00223            9600.00
00224            9600.00
00225           10000.00
00226           10000.00
00227           10200.00
00228           10200.00
00229           10400.00
00230           10400.00
00231           10800.00
00232           10800.00
00233           10800.00
00234           10800.00
00235           11000.00
00236           11200.00
00237           11200.00
00238           11200.00
00239           11400.00
00240           11600.00
00241           11800.00
00242           11600.00
00243           11800.00
00244           11800.00
00245           11800.00
00246           12000.00
00247           11800.00
00248           12000.00
00249           12000.00
00250           12000.00
00251           12000.00
00252           12000.00
00253           12200.00
00254           12000.00
00255           12000.00
00256           12200.00
00257           12400.00
00258           12200.00
00259           12200.00
00260           12000.00
00261           12200.00
00262           12200.00
00263           12000.00
00264           12200.00
00265           12000.00
00266           12000.00
00267           12000.00
00268           12000.00
00269           11800.00
00270           11800.00
00271           11800.00
00272           11800.00
00273           11600.00
00274           11600.00
00275           11600.00
00276           11600.00
00277           11400.00
00278           11200.00
00279           11200.00
00280           11200.00
00281           11000.00
00282           11000.00
00283           10800.00
00284           10600.00
00285           10600.00
00286           10400.00
00287           10400.00
00288           10200.00
00289           10200.00
00290           10200.00
00291            9600.00
00292            9600.00
00293            9400.00
00294            9400.00
00295            9400.00
00296            9200.00
00297            9000.00
00298            8800.00
00299            8600.00
00300            8600.00
00301            8400.00
00302            8200.00
00303            8000.00
00304            7800.00
00305            7800.00
00306            7600.00
00307            7200.00
00308            7000.00
00309            7000.00
00310            6800.00
00311            6600.00
00312            6400.00
00313            6200.00
00314            6000.00
00315            5600.00
00316            5600.00
00317            5400.00
00318            5200.00
00319            4800.00
00320            4600.00
00321            4400.00
00322            4200.00
00323            3800.00
00324            3800.00
00325            3600.00
00326            3400.00
00327            3200.00
00328            3000.00
00329            2800.00
00330            2600.00
00331            2400.00
00332            2200.00
00333            1800.00
00334            1800.00
00335            1400.00
00336            1200.00
00337            1000.00
00338             600.00
00339             400.00
00340             400.00
00341               0.00
00342            -200.00
00343            -400.00
00344            -600.00
00345            -800.00
00346           -1000.00
00347           -1200.00
00348           -1600.00
00349           -1600.00
00350           -1800.00
00351           -2000.00
00352           -2600.00
00353           -2800.00
00354           -2800.00
00355           -2800.00
00356           -3200.00
00357           -3600.00
00358           -3600.00
00359           -3600.00
00360           -4000.00
00361           -4400.00
00362           -4400.00
00363           -4800.00
00364           -5000.00
00365           -5000.00
00366           -5600.00
00367           -5600.00
00368           -5600.00
00369           -6000.00
00370           -6200.00
00371           -6400.00
00372           -6600.00
00373           -6800.00
00374           -6800.00
00375           -7200.00
00376           -7200.00
00377           -7400.00
00378           -7600.00
00379           -7800.00
00380           -8000.00
00381           -8400.00
00382           -8400.00
00383           -8600.00
00384           -8800.00
00385           -8800.00
00386           -9000.00
00387           -9200.00
00388           -9200.00
00389           -9600.00
00390           -9600.00
00391           -9800.00
00392          -10000.00
00393          -10000.00
00394          -10000.00
00395          -10400.00
00396          -10400.00
00397          -10400.00
00398          -10600.00
00399          -10800.00
00400          -10800.00
00401          -10800.00
00402          -11000.00
00403          -11200.00
00404          -11000.00
00405          -11200.00
00406          -11200.00
00407          -11400.00
00408          -11400.00
00409          -11400.00
00410          -11600.00
00411          -11600.00
00412          -11600.00
00413          -11800.00
00414          -11600.00
00415          -12000.00
00416          -12000.00
00417          -12000.00
00418          -12000.00
00419          -12000.00
00420          -12000.00
00421          -12000.00
00422          -12000.00
00423          -12200.00
00424          -12200.00
00425          -12000.00
00426          -12000.00
00427          -12000.00
00428          -12000.00
00429          -12000.00
00430          -12000.00
00431          -12000.00
00432          -11600.00
00433          -12000.00
00434          -11800.00
00435          -12000.00
00436          -11600.00
00437          -11600.00
00438          -11600.00
00439          -11400.00
00440          -11400.00
00441          -11400.00
00442          -11400.00
00443          -11000.00
00444          -11200.00
00445          -11000.00
00446          -11000.00
00447          -10800.00
00448          -10800.00
00449          -10600.00
00450          -10600.00
00451          -10400.00
00452          -10400.00
00453          -10000.00
00454          -10000.00
00455          -10000.00
00456           -9800.00
00457           -9600.00
00458           -9800.00
00459           -9400.00
00460           -9200.00
00461           -9200.00
00462           -9000.00
00463           -8800.00
00464           -8600.00
00465           -8400.00
00466           -8400.00
00467           -8200.00
00468           -8000.00
00469           -8000.00
00470           -7800.00
00471           -7600.00
00472           -7400.00
00473           -7200.00
00474           -6800.00
00475           -6800.00
00476           -6600.00
00477           -6400.00
00478           -6200.00
00479           -6000.00
00480           -5800.00
00481           -5600.00
00482           -5400.00
00483           -5200.00
00484           -4800.00
00485           -4600.00
00486           -4400.00
00487           -4200.00
00488           -4000.00
00489           -4000.00
00490           -3600.00
00491           -3600.00
00492           -3200.00
00493           -3000.00
00494           -2800.00
00495           -2600.00
00496           -2400.00
00497           -2200.00
00498           -1800.00
00499           -1600.00
00500           -1600.00
00501           -1200.00
00502           -1000.00
00503            -800.00
00504            -400.00
00505            -400.00
00506            -200.00
00507               0.00
00508             400.00
00509             600.00
00510             600.00
00511            1000.00
00512            1200.00
00513            1400.00
00514            1600.00
00515            2000.00
00516            2000.00
00517            2200.00
00518            2800.00
00519            2800.00
00520            3000.00
00521            3000.00
00522            3400.00
00523            3600.00
00524            3600.00
00525            4000.00
00526            4400.00
00527            4200.00
00528            4600.00
00529            5000.00
00530            5000.00
00531            5400.00
00532            5600.00
00533            5600.00
00534            6000.00
00535            6200.00
00536            6400.00
00537            6400.00
00538            6800.00
00539            7000.00
00540            7000.00
00541            7200.00
00542            7400.00
00543            7600.00
00544            7800.00
00545            8000.00
00546            8200.00
00547            8400.00
00548            8600.00
00549            8800.00
00550            8800.00
00551            8800.00
00552            9200.00
00553            9200.00
00554            9400.00
00555            9600.00
00556            9600.00
00557           10000.00
00558           10000.00
00559           10200.00
00560           10200.00
00561           10400.00
00562           10600.00
00563           10800.00
00564           10800.00
00565           10800.00
00566           10800.00
00567           11000.00
00568           11000.00
00569           11000.00
00570           11200.00
00571           11200.00
00572           11400.00
00573           11600.00
00574           11600.00
00575           11600.00
00576           11800.00
00577           12000.00
00578           12000.00
00579           12000.00
00580           12000.00
00581           12000.00
00582           12000.00
00583           12000.00
00584           12000.00
00585           12000.00
00586           12000.00
00587           12000.00
00588           12000.00
00589           12400.00
00590           12400.00
00591           12200.00
00592           12000.00
00593           12200.00
00594           12000.00
00595           12000.00
00596           12000.00
00597           12000.00
00598           12000.00
00599           12000.00
00600           12000.00
00601           11800.00
00602           11800.00
00603           11800.00
00604           11600.00
00605           11600.00
00606           11600.00
00607           11400.00
00608           11400.00
00609           11200.00
00610           11200.00
00611           11200.00
00612           11000.00
00613           11000.00
00614           11000.00
00615           10800.00
00616           10800.00
00617           10600.00
00618           10400.00
00619           10400.00
00620           10200.00
00621           10000.00
00622           10000.00
00623            9800.00
00624            9600.00
00625            9400.00
00626            9400.00
00627            9200.00
00628            9200.00
00629            9000.00
00630            8800.00
00631            8800.00
00632            8600.00
00633            8400.00
00634            8200.00
00635            8000.00
00636            8000.00
00637            7600.00
00638            7400.00
00639            7400.00
00640            7000.00
00641            7000.00
00642            6800.00
00643            6600.00
00644            6400.00
00645            6000.00
00646            6000.00
00647            5800.00
00648            5600.00
00649            5400.00
00650            5000.00
00651            4800.00
00652            4800.00
00653            4600.00
00654            4400.00
00655            4000.00
00656            3800.00
00657            3600.00
00658            3400.00
00659            3200.00
00660            3000.00
00661            2800.00
00662            2600.00
00663            2400.00
00664            2000.00
00665            2000.00
00666            1800.00
00667            1400.00
00668            1200.00
00669            1000.00
00670             600.00
00671             400.00
00672             400.00
00673               0.00
00674            -200.00
00675            -400.00
00676            -400.00
00677            -800.00
00678           -1000.00
00679           -1200.00
00680           -1400.00
00681           -1600.00
00682           -1800.00
00683           -2000.00
00684           -2600.00
00685           -2800.00
00686           -3000.00
00687           -2800.00
00688           -3200.00
00689           -3600.00
00690           -3600.00
00691           -3600.00
00692           -4200.00
00693           -4400.00
00694           -4400.00
00695           -4800.00
00696           -5000.00
00697           -5000.00
00698           -5400.00
00699           -5600.00
00700           -5800.00
00701           -6000.00
00702           -6200.00
00703           -6400.00
00704           -6600.00
00705           -6600.00
00706           -6800.00
00707           -7200.00
00708           -7400.00
00709           -7600.00
00710           -8000.00
00711           -7800.00
00712           -8200.00
00713           -8200.00
00714           -8400.00
00715           -8600.00
00716           -8600.00
00717           -9000.00
00718           -9200.00
00719           -9200.00
00720           -9200.00
00721           -9600.00
00722           -9600.00
00723           -9800.00
00724          -10000.00
00725          -10000.00
00726          -10000.00
00727          -10200.00
00728          -10400.00
00729          -10400.00
00730          -10600.00
00731          -10800.00
00732          -10800.00
00733          -10800.00
00734          -11000.00
00735          -11000.00
00736          -11200.00
00737          -11000.00
00738          -11200.00
00739          -11400.00
00740          -11400.00
00741          -11600.00
00742          -11600.00
00743          -11600.00
00744          -11600.00
00745          -12000.00
00746          -12000.00
00747          -12000.00
00748          -12000.00
00749          -12000.00
00750          -11800.00
00751          -12200.00
00752          -12200.00
00753          -12200.00
00754          -12000.00
00755          -12000.00
00756          -12000.00
00757          -12200.00
00758          -12000.00
00759          -12200.00
00760          -12000.00
00761          -12000.00
00762          -12000.00
00763          -12000.00
00764          -12000.00
00765          -12000.00
00766          -11800.00
00767          -11800.00
00768          -11600.00
00769          -11600.00
00770          -11600.00
00771          -11600.00
00772          -11400.00
00773          -11400.00
00774          -11000.00
00775          -11200.00
00776          -11000.00
00777          -11000.00
00778          -11000.00
00779          -10800.00
00780          -10800.00
00781          -10600.00
00782          -10400.00
00783          -10600.00
00784          -10400.00
00785          -10400.00
00786          -10000.00
00787          -10000.00
00788           -9800.00
00789           -9800.00
00790           -9600.00
00791           -9600.00
00792           -9200.00
00793           -9200.00
00794           -9000.00
00795           -8800.00
00796           -8800.00
00797           -8400.00
00798           -8400.00
00799           -8200.00
00800           -8000.00
00801           -8000.00
00802           -7600.00
00803           -7400.00
00804           -7200.00
00805           -7200.00
00806           -6800.00
00807           -6800.00
00808           -6600.00
00809           -6400.00
00810           -6200.00
00811           -6000.00
00812           -5800.00
00813           -5600.00
00814           -5400.00
00815           -5200.00
00816           -5000.00
00817           -4600.00
00818           -4400.00
00819           -4400.00
00820           -4000.00
00821           -4000.00
00822           -3600.00
00823           -3600.00
00824           -3200.00
00825           -3200.00
00826           -2800.00
00827           -2400.00
00828           -2400.00
00829           -2200.00
00830           -2000.00
00831           -1600.00
00832           -1600.00
00833           -1200.00
00834           -1000.00
00835            -800.00
00836            -600.00
00837            -400.00
00838            -200.00
00839               0.00
00840             400.00
00841             600.00
00842             600.00
00843             800.00
00844            1200.00
00845            1400.00
00846            1600.00
00847            1800.00
00848            2000.00
00849            2400.00
00850            2800.00
00851            2800.00
00852            3000.00
00853            3200.00
00854            3400.00
00855            3600.00
00856            3600.00
00857            4000.00
00858            4400.00
00859            4400.00
00860            4400.00
00861            5000.00
00862            5200.00
00863            5400.00
00864            5600.00
00865            5800.00
00866            6000.00
00867            6200.00
00868            6200.00
00869            6600.00
00870            6800.00
00871            7000.00
00872            7000.00
00873            7200.00
00874            7600.00
00875            7800.00
00876            7800.00
00877            8200.00
00878            8200.00
00879            8400.00
00880            8400.00
00881            8800.00
00882            8800.00
00883            9000.00
00884            9200.00
00885            9200.00
00886            9400.00
00887            9600.00
00888            9800.00
00889           10000.00
00890           10000.00
00891           10200.00
00892           10400.00
00893           10400.00
00894           10400.00
00895           10600.00
00896           10800.00
00897           10800.00
00898           10800.00
00899           11000.00
00900           11200.00
00901           11200.00
00902           11200.00
00903           11400.00
00904           11600.00
00905           11600.00
00906           11600.00
00907           11800.00
00908           11800.00
00909           11800.00
00910           11800.00
00911           11800.00
00912           12000.00
00913           12000.00
00914           12000.00
00915           12000.00
00916           12000.00
00917           12200.00
00918           12000.00
00919           12200.00
00920           12200.00
00921           12200.00
00922           12400.00
00923           12000.00
00924           12200.00
00925           12400.00
00926           12000.00
00927           12200.00
00928           12000.00
00929           12000.00
00930           12000.00
00931           11800.00
00932           11800.00
00933           11800.00
00934           12000.00
00935           11800.00
00936           11800.00
00937           11800.00
00938           11600.00
00939           11600.00
00940           11600.00
00941           11400.00
00942           11400.00
00943           11200.00
00944           11000.00
00945           11000.00
00946           11000.00
00947           10800.00
00948           10800.00
00949           10600.00
00950           10400.00
00951           10400.00
00952           10200.00
00953           10000.00
00954           10000.00
00955            9800.00
00956            9600.00
00957            9400.00
00958            9400.00
00959            9200.00
00960            9200.00
00961            9000.00
00962            8800.00
00963            8600.00
00964            8600.00
00965            8400.00
00966            8200.00
00967            8200.00
00968            8000.00
00969            7600.00
00970            7600.00
00971            7400.00
00972            7000.00
00973            7000.00
00974            6600.00
00975            6400.00
00976            6400.00
00977            6000.00
00978            6000.00
00979            5800.00
00980            5600.00
00981            5400.00
00982            5200.00
00983            4800.00
00984            4600.00
00985            4400.00
00986            4200.00
00987            4000.00
00988            3800.00
00989            3600.00
00990            3400.00
00991            3200.00
00992            3000.00
00993            2600.00
00994            2400.00
00995            2200.00
00996            2200.00
00997            1800.00
00998            1600.00
00999            1400.00
01000            1200.00
01001             800.00
01002             600.00
01003             400.00
01004             400.00
01005               0.00
01006               0.00
01007            -400.00
01008            -800.00
01009            -800.00
01010           -1000.00
01011           -1200.00
01012           -1600.00
01013           -1800.00
01014           -1800.00
01015           -2400.00
01016           -2600.00
01017           -3200.00
01018           -2800.00
01019           -2800.00
01020           -3200.00
01021           -3600.00
01022           -3600.00
01023           -3600.00
01024           -4200.00
01025           -4400.00
01026           -4400.00
01027           -4800.00
01028           -5000.00
01029           -5000.00
01030           -5600.00
01031           -5600.00
01032           -5600.00
01033           -6000.00
01034           -6200.00
01035           -6400.00
01036           -6800.00
01037           -6600.00
01038           -7000.00
01039           -7200.00
01040           -7200.00
01041           -7400.00
01042           -7800.00
01043           -8000.00
01044           -8200.00
01045           -8200.00
01046           -8400.00
01047           -8400.00
01048           -8800.00
01049           -8800.00
01050           -9000.00
01051           -9200.00
01052           -9200.00
01053           -9400.00
01054           -9600.00
01055           -9800.00
01056           -9800.00
01057          -10000.00
01058          -10000.00
01059          -10200.00
01060          -10400.00
01061          -10400.00
01062          -10600.00
01063          -10600.00
01064          -10800.00
01065          -10800.00
01066          -11000.00
01067          -11000.00
01068          -11200.00
01069          -11400.00
01070          -11400.00
01071          -11400.00
01072          -11600.00
01073          -11600.00
01074          -11600.00
01075          -11600.00
01076          -11600.00
01077          -12000.00
01078          -12000.00
01079          -12000.00
01080          -11800.00
01081          -12000.00
01082          -12000.00
01083          -12200.00
01084          -12000.00
01085          -12000.00
01086          -12200.00
01087          -12000.00
01088          -12000.00
01089          -12200.00
01090          -12000.00
01091          -12000.00
01092          -12200.00
01093          -12000.00
01094          -12000.00
01095          -12000.00
01096          -11800.00
01097          -12000.00
01098          -12000.00
01099          -11600.00
01100          -11600.00
01101          -11600.00
01102          -11600.00
01103          -11400.00
01104          -11400.00
01105          -11400.00
01106          -11200.00
01107          -11400.00
01108          -11200.00
01109          -11000.00
01110          -11000.00
01111          -10800.00
01112          -10800.00
01113          -10600.00
01114          -10600.00
01115          -10400.00
01116          -10200.00
01117          -10000.00
01118          -10200.00
01119          -10000.00
01120           -9800.00
01121           -9600.00
01122           -9600.00
01123           -9200.00
01124           -9200.00
01125           -9200.00
01126           -9000.00
01127           -8800.00
01128           -8600.00
01129           -8400.00
01130           -8400.00
01131           -8400.00
01132           -8000.00
01133           -8000.00
01134           -7600.00
01135           -7600.00
01136           -7400.00
01137           -7200.00
01138           -6800.00
01139           -6800.00
01140           -6600.00
01141           -6400.00
01142           -6200.00
01143           -6000.00
01144           -5800.00
01145           -5600.00
01146           -5200.00
01147           -5200.00
01148           -4800.00
01149           -4800.00
01150           -4400.00
01151           -4400.00
01152           -4200.00
01153           -3800.00
01154           -3600.00
01155           -3600.00
01156           -3200.00
01157           -3000.00
01158           -2800.00
01159           -2600.00
01160           -2400.00
01161           -2000.00
01162           -2000.00
01163           -1800.00
01164           -1600.00
01165           -1200.00
01166           -1000.00
01167            -800.00
01168            -600.00
01169            -400.00
01170            -200.00
01171               0.00
01172             400.00
01173             600.00
01174             800.00
01175             800.00
01176            1200.00
01177            1400.00
01178            1800.00
01179            2000.00
01180            2000.00
01181            2200.00
01182            2600.00
01183            3000.00
01184            3200.00
01185            3000.00
01186            3400.00
01187            3600.00
01188            3600.00
01189            4000.00
01190            4400.00
01191            4400.00
01192            4600.00
01193            5200.00
01194            5000.00
01195            5200.00
01196            5400.00
01197            5600.00
01198            6000.00
01199            6200.00
01200            6400.00
01201            6600.00
01202            6800.00
01203            6800.00
01204            7200.00
01205            7200.00
01206            7400.00
01207            7800.00
01208            7800.00
01209            8200.00
01210            8400.00
01211            8400.00
01212            8600.00
01213            8600.00
01214            8800.00
01215            9200.00
01216            9200.00
01217            9200.00
01218            9400.00
01219            9600.00
01220            9800.00
01221           10000.00
01222           10000.00
01223           10200.00
01224           10200.00
01225           10400.00
01226           10400.00
01227           10600.00
01228           10800.00
01229           10800.00
01230           11000.00
01231           11200.00
01232           11000.00
01233           11200.00
01234           11200.00
01235           11400.00
01236           11400.00
01237           11600.00
01238           11600.00
01239           11800.00
01240           11800.00
01241           11800.00
01242           12000.00
01243           11800.00
01244           12000.00
01245           12200.00
01246           12000.00
01247           12000.00
01248           12200.00
01249           12200.00
01250           12200.00
01251           12200.00
01252           12000.00
01253           12000.00
01254           12200.00
01255           12200.00
01256           12200.00
01257           12000.00
01258           12200.00
01259           12000.00
01260           12200.00
01261           12000.00
01262           12000.00
01263           12000.00
01264           12000.00
01265           12000.00
01266           11800.00
01267           11800.00
01268           11800.00
01269           11800.00
01270           11600.00
01271           11400.00
01272           11600.00
01273           11400.00
01274           11200.00
01275           11200.00
01276           11000.00
01277           11000.00
01278           10800.00
01279           10800.00
01280           10800.00
01281           10400.00
01282           10600.00
01283           10200.00
01284           10400.00
01285           10200.00
01286           10000.00
01287           10000.00
01288            9600.00
01289            9600.00
01290            9400.00
01291            9400.00
01292            9200.00
01293            9000.00
01294            8800.00
01295            8600.00
01296            8600.00
01297            8400.00
01298            8200.00
01299            8000.00
01300            8000.00
01301            7600.00
01302            7400.00
01303            7400.00
01304            7200.00
01305            6800.00
01306            6800.00
01307            6400.00
01308            6400.00
01309            6200.00
01310            6000.00
01311            6000.00
01312            5600.00
01313            5400.00
01314            5000.00
01315            5000.00
01316            4600.00
01317            4400.00
01318            4400.00
01319            4000.00
01320            3800.00
01321            3600.00
01322            3200.00
01323            3200.00
01324            3000.00
01325            2800.00
01326            2400.00
01327            2200.00
01328            2000.00
01329            1800.00
01330            1600.00
01331            1400.00
01332            1400.00
01333             800.00
01334             800.00
01335             400.00
01336             400.00
01337               0.00
01338               0.00
01339            -200.00
01340            -600.00
01341            -800.00
01342           -1000.00
01343           -1400.00
01344           -1400.00
01345           -1600.00
01346           -1800.00
01347           -2200.00
01348           -2600.00
01349           -3000.00
01350           -2800.00
01351           -2800.00
01352           -3200.00
01353           -3600.00
01354           -3600.00
01355           -3800.00
01356           -4200.00
01357           -4400.00
01358           -4400.00
01359           -4800.00
01360           -5000.00
01361           -5000.00
01362           -5600.00
01363           -5600.00
01364           -5600.00
01365           -6000.00
01366           -6000.00
01367           -6400.00
01368           -6800.00
01369           -6600.00
01370           -7000.00
01371           -7200.00
01372           -7200.00
01373           -7400.00
01374           -7800.00
01375           -7800.00
01376           -8000.00
01377           -8200.00
01378           -8400.00
01379           -8400.00
01380           -8800.00
01381           -8800.00
01382           -9000.00
01383           -9200.00
01384           -9400.00
01385           -9600.00
01386           -9600.00
01387           -9800.00
01388          -10000.00
01389          -10000.00
01390          -10200.00
01391          -10400.00
01392          -10400.00
01393          -10600.00
01394          -10600.00
01395          -10600.00
01396          -10800.00
01397          -10800.00
01398          -10800.00
01399          -11200.00
01400          -11000.00
01401          -11200.00
01402          -11400.00
01403          -11400.00
01404          -11400.00
01405          -11600.00
01406          -11600.00
01407          -11600.00
01408          -11600.00
01409          -11800.00
01410          -12000.00
01411          -12000.00
01412          -12000.00
01413          -12000.00
01414          -12000.00
01415          -12200.00
01416          -12200.00
01417          -12200.00
01418          -12200.00
01419          -12200.00
01420          -12000.00
01421          -12000.00
01422          -12000.00
01423          -12000.00
01424          -12000.00
01425          -12200.00
01426          -12000.00
01427          -12000.00
01428          -12000.00
01429          -12000.00
01430          -11800.00
01431          -12000.00
01432          -11600.00
01433          -11600.00
01434          -11600.00
01435          -11600.00
01436          -11600.00
01437          -11400.00
01438          -11200.00
01439          -11000.00
01440          -11000.00
01441          -11000.00
01442          -10800.00
01443          -10800.00
01444          -10800.00
01445          -10600.00
01446          -10600.00
01447          -10400.00
01448          -10400.00
01449          -10200.00
01450          -10000.00
01451          -10000.00
01452           -9800.00
01453           -9600.00
01454           -9600.00
01455           -9200.00
01456           -9200.00
01457           -9200.00
01458           -9000.00
01459           -8800.00
01460           -8600.00
01461           -8400.00
01462           -8400.00
01463           -8200.00
01464           -8000.00
01465           -7800.00
01466           -7600.00
01467           -7600.00
01468           -7400.00
01469           -7200.00
01470           -7000.00
01471           -6800.00
01472           -6600.00
01473           -6400.00
01474           -6200.00
01475           -6000.00
01476           -5800.00
01477           -5600.00
01478           -5600.00
01479           -5000.00
01480           -5000.00
01481           -4600.00
01482           -4400.00
01483           -4400.00
01484           -4200.00
01485           -4000.00
01486           -3600.00
01487           -3600.00
01488           -3200.00
01489           -3000.00
01490           -2800.00
01491           -2600.00
01492           -2400.00
01493           -2000.00
01494           -2000.00
01495           -1800.00
01496           -1600.00
01497           -1200.00
01498           -1000.00
01499            -800.00
01500            -400.00
01501            -200.00
01502            -200.00
01503             200.00
01504             200.00
01505             400.00
01506             800.00
01507            1000.00
01508            1200.00
01509            1400.00
01510            1800.00
01511            1800.00
01512            2000.00
01513            2200.00
01514            2800.00
01515            2800.00
01516            3000.00
01517            3200.00
01518            3200.00
01519            3600.00
01520            3800.00
01521            4000.00
01522            4400.00
01523            4400.00
01524            4600.00
01525            4800.00
01526            4800.00
01527            5200.00
01528            5600.00
01529            5600.00
01530            6000.00
01531            6200.00
01532            6200.00
01533            6400.00
01534            6800.00
01535            7000.00
01536            7200.00
01537            7200.00
01538            7200.00
01539            7800.00
01540            7800.00
01541            8000.00
01542            8400.00
01543            8400.00
01544            8600.00
01545            8800.00
01546            8800.00
01547            9000.00
01548            9200.00
01549            9400.00
01550            9400.00
01551            9400.00
01552            9600.00
01553           10000.00
01554           10000.00
01555           10200.00
01556           10200.00
01557           10400.00
01558           10400.00
01559           10600.00
01560           10800.00
01561           10800.00
01562           11000.00
01563           11000.00
01564           11200.00
01565           11400.00
01566           11400.00
01567           11600.00
01568           11400.00
01569           11600.00
01570           11600.00
01571           11600.00
01572           11800.00
01573           12000.00
01574           11800.00
01575           12000.00
01576           12000.00
01577           12000.00
01578           12000.00
01579           12200.00
01580           12000.00
01581           12200.00
01582           12200.00
01583           12200.00
01584           12200.00
01585           12000.00
01586           12000.00
01587           12200.00
01588           12000.00
01589           12200.00
01590           12000.00
01591           12200.00
01592           12200.00
01593           12000.00
01594           12000.00
01595           12000.00
01596           12000.00
01597           12000.00
01598           11800.00
01599           11800.00
01600           11800.00
01601           11600.00
01602           11600.00
01603           11600.00
01604           11400.00
01605           11400.00
01606           11200.00
01607           11200.00
01608           11000.00
01609           11200.00
01610           11000.00
01611           10800.00
01612           10800.00
01613           10800.00
01614           10600.00
01615           10200.00
01616           10200.00
01617           10200.00
01618            9800.00
01619           10000.00
01620            9600.00
01621            9600.00
01622            9400.00
01623            9200.00
01624            9200.00
01625            8800.00
01626            8800.00
01627            8600.00
01628            8600.00
01629            8400.00
01630            8200.00
01631            8000.00
01632            7800.00
01633            7600.00
01634            7400.00
01635            7200.00
01636            7000.00
01637            6800.00
01638            6800.00
01639            6400.00
01640            6400.00
01641            6200.00
01642            6000.00
01643            5800.00
01644            5600.00
01645            5400.00
01646            5200.00
01647            4800.00
01648            4600.00
01649            4400.00
01650            4200.00
01651            4000.00
01652            3800.00
01653            3600.00
01654            3400.00
01655            3200.00
01656            2800.00
01657            2800.00
01658            2600.00
01659            2200.00
01660            2000.00
01661            2000.00
01662            1600.00
01663            1400.00
01664            1200.00
01665             800.00
01666             800.00
01667             400.00
01668             200.00
01669               0.00
01670            -200.00
01671            -400.00
01672            -600.00
01673            -800.00
01674           -1000.00
01675           -1200.00
01676           -1600.00
01677           -1600.00
01678           -1800.00
01679           -2400.00
01680           -2600.00
01681           -2800.00
01682           -2800.00
01683           -2800.00
01684           -3200.00
01685           -3600.00
01686           -3600.00
01687           -3800.00
01688           -4200.00
01689           -4400.00
01690           -4400.00
01691           -4800.00
01692           -5000.00
01693           -5200.00
01694           -5600.00
01695           -5600.00
01696           -5600.00
01697           -6000.00
01698           -6000.00
01699           -6400.00
01700           -6600.00
01701           -6800.00
01702           -6800.00
01703           -7200.00
01704           -7200.00
01705           -7400.00
01706           -7600.00
01707           -7800.00
01708           -8000.00
01709           -8400.00
01710           -8400.00
01711           -8600.00
01712           -8800.00
01713           -8800.00
01714           -9000.00
01715           -9200.00
01716           -9200.00
01717           -9400.00
01718           -9800.00
01719           -9800.00
01720          -10000.00
01721          -10000.00
01722          -10200.00
01723          -10200.00
01724          -10400.00
01725          -10400.00
01726          -10600.00
01727          -10800.00
01728          -10800.00
01729          -11000.00
01730          -10800.00
01731          -11000.00
01732          -11200.00
01733          -11000.00
01734          -11400.00
01735          -11400.00
01736          -11400.00
01737          -11600.00
01738          -11400.00
01739          -11600.00
01740          -11600.00
01741          -11800.00
01742          -12000.00
01743          -12000.00
01744          -12000.00
01745          -12000.00
01746          -12000.00
01747          -12000.00
01748          -12000.00
01749          -12000.00
01750          -12200.00
01751          -12200.00
01752          -12000.00
01753          -12200.00
01754          -12000.00
01755          -12200.00
01756          -12000.00
01757          -12000.00
01758          -12000.00
01759          -12000.00
01760          -12000.00
01761          -12000.00
01762          -12000.00
01763          -11600.00
01764          -11800.00
01765          -11600.00
01766          -11600.00
01767          -11400.00
01768          -11400.00
01769          -11200.00
01770          -11200.00
01771          -11000.00
01772          -11000.00
01773          -11000.00
01774          -10800.00
01775          -11000.00
01776          -10800.00
01777          -10600.00
01778          -10600.00
01779          -10400.00
01780          -10200.00
01781          -10000.00
01782          -10000.00
01783          -10000.00
01784           -9800.00
01785           -9600.00
01786           -9800.00
01787           -9400.00
01788           -9200.00
01789           -9200.00
01790           -9000.00
01791           -8800.00
01792           -8800.00
01793           -8400.00
01794           -8400.00
01795           -8200.00
01796           -8000.00
01797           -8000.00
01798           -7600.00
01799           -7400.00
01800           -7400.00
01801           -7000.00
01802           -6800.00
01803           -6600.00
01804           -6600.00
01805           -6400.00
01806           -6200.00
01807           -6000.00
01808           -5800.00
01809           -5600.00
01810           -5400.00
01811           -5200.00
01812           -4800.00
01813           -4800.00
01814           -4400.00
01815           -4200.00
01816           -4200.00
01817           -3800.00
01818           -3600.00
01819           -3400.00
01820           -3200.00
01821           -3000.00
01822           -2800.00
01823           -2600.00
01824           -2400.00
01825           -2200.00
01826           -2000.00
01827           -1600.00
01828           -1600.00
01829           -1200.00
01830           -1000.00
01831            -800.00
01832            -400.00
01833            -400.00
01834               0.00
01835               0.00
01836             400.00
01837             600.00
01838             800.00
01839             800.00
01840            1400.00
01841            1400.00
01842            1800.00
01843            2000.00
01844            2000.00
01845            2200.00
01846            2600.00
01847            3000.00
01848            3000.00
01849            3200.00
01850            3400.00
01851            3600.00
01852            3600.00
01853            4000.00
01854            4200.00
01855            4400.00
01856            4400.00
01857            5000.00
01858            5000.00
01859            5200.00
01860            5600.00
01861            5600.00
01862            6000.00
01863            6200.00
01864            6200.00
01865            6400.00
01866            6600.00
01867            6800.00
01868            7200.00
01869            7200.00
01870            7200.00
01871            7800.00
01872            7800.00
01873            8000.00
01874            8200.00
01875            8400.00
01876            8600.00
01877            8800.00
01878            8800.00
01879            8800.00
01880            9200.00
01881            9400.00
01882            9400.00
01883            9600.00
01884            9600.00
01885            9800.00
01886           10000.00
01887           10200.00
01888           10200.00
01889           10400.00
01890           10600.00
01891           10800.00
01892           10800.00
01893           10800.00
01894           10800.00
01895           11000.00
01896           11200.00
01897           11200.00
01898           11200.00
01899           11400.00
01900           11600.00
01901           11600.00
01902           11600.00
01903           11800.00
01904           11800.00
01905           11800.00
01906           11800.00
01907           12000.00
01908           12000.00
01909           12000.00
01910           12000.00
01911           12200.00
01912           12000.00
01913           12000.00
01914           12200.00
01915           12400.00
01916           12200.00
01917           12200.00
01918           12000.00
01919           12200.00
01920           12000.00
01921           12000.00
01922           12200.00
01923           12000.00
01924           12000.00
01925           12000.00
01926           12000.00
01927           12000.00
01928           12000.00
01929           11800.00
01930           12000.00
01931           11800.00
01932           11800.00
01933           11600.00
01934           11600.00
01935           11600.00
01936           11600.00
01937           11200.00
01938           11400.00
01939           11200.00
01940           11200.00
01941           11000.00
01942           11000.00
01943           10800.00
01944           10800.00
01945           10400.00
01946           10400.00
01947           10400.00
01948           10200.00
01949           10000.00
01950           10000.00
01951           10000.00
01952            9600.00
01953            9600.00
01954            9400.00
01955            9400.00
01956            9200.00
01957            9200.00
01958            8800.00
01959            8800.00
01960            8400.00
01961            8400.00
01962            8400.00
01963            8000.00
01964            7800.00
01965            7600.00
01966            7600.00
01967            7200.00
01968            7000.00
01969            6800.00
01970            6800.00
01971            6600.00
01972            6200.00
01973            6200.00
01974            6000.00
01975            6000.00
01976            5600.00
01977            5400.00
01978            5200.00
01979            4800.00
01980            4600.00
01981            4600.00
01982            4200.00
01983            4000.00
01984            3800.00
01985            3600.00
01986            3400.00
01987            3000.00
01988            3000.00
01989            2800.00
01990            2400.00
01991            2200.00
01992            2000.00
01993            1800.00
01994            1600.00
01995            1400.00
01996            1200.00
01997             800.00
01998             600.00
01999             400.00
02000             200.00
02001               0.00
02002            -200.00
02003            -400.00
02004            -800.00
02005            -800.00
02006           -1200.00
02007           -1400.00
02008           -1400.00
02009           -1800.00
02010           -1800.00
02011           -2200.00
02012           -2600.00
02013           -2800.00
02014           -3000.00
02015           -2800.00
02016           -3200.00
02017           -3600.00
02018           -3600.00
02019           -3600.00
02020           -4200.00
02021           -4400.00
02022           -4400.00
02023           -4800.00
02024           -5000.00
02025           -5000.00
02026           -5600.00
02027           -5600.00
02028           -5800.00
02029           -6000.00
02030           -6000.00
02031           -6400.00
02032           -6600.00
02033           -6800.00
02034           -6800.00
02035           -7200.00
02036           -7400.00
02037           -7600.00
02038           -8000.00
02039           -8000.00
02040           -8200.00
02041           -8200.00
02042           -8200.00
02043           -8800.00
02044           -8800.00
02045           -9000.00
02046           -9000.00
02047           -9200.00
02048           -9400.00
02049           -9600.00
02050           -9600.00
02051           -9800.00
02052          -10000.00
02053          -10000.00
02054          -10000.00
02055          -10400.00
02056          -10400.00
02057          -10400.00
02058          -10600.00
02059          -10800.00
02060          -10800.00
02061          -10800.00
02062          -11200.00
02063          -11000.00
02064          -11000.00
02065          -11200.00
02066          -11400.00
02067          -11400.00
02068          -11400.00
02069          -11600.00
02070          -11600.00
02071          -11600.00
02072          -11800.00
02073          -11800.00
02074          -12000.00
02075          -12000.00
02076          -12000.00
02077          -12000.00
02078          -12000.00
02079          -12000.00
02080          -12200.00
02081          -12000.00
02082          -12200.00
02083          -12000.00
02084          -12000.00
02085          -12000.00
02086          -12000.00
02087          -12000.00
02088          -12000.00
02089          -12000.00
02090          -12000.00
02091          -12000.00
02092          -12000.00
02093          -12000.00
02094          -11800.00
02095          -11800.00
02096          -11600.00
02097          -11600.00
02098          -11600.00
02099          -11400.00
02100          -11600.00
02101          -11400.00
02102          -11200.00
02103          -11200.00
02104          -11000.00
02105          -11000.00
02106          -10800.00
02107          -11000.00
02108          -10600.00
02109          -10800.00
02110          -10600.00
02111          -10400.00
02112          -10200.00
02113          -10200.00
02114          -10000.00
02115          -10000.00
02116           -9800.00
02117           -9600.00
02118           -9600.00
02119           -9600.00
02120           -9200.00
02121           -9200.00
02122           -9000.00
02123           -8800.00
02124           -8800.00
02125           -8400.00
02126           -8400.00
02127           -8200.00
02128           -8000.00
02129           -7800.00
02130           -7600.00
02131           -7400.00
02132           -7400.00
02133           -7200.00
02134           -7200.00
02135           -6800.00
02136           -6400.00
02137           -6400.00
02138           -6400.00
02139           -6000.00
02140           -5800.00
02141           -5600.00
02142           -5600.00
02143           -5000.00
02144           -5000.00
02145           -4600.00
02146           -4400.00
02147           -4200.00
02148           -4200.00
02149           -3800.00
02150           -3600.00
02151           -3400.00
02152           -3200.00
02153           -3200.00
02154           -2600.00
02155           -2600.00
02156           -2400.00
02157           -2000.00
02158           -2000.00
02159           -1800.00
02160           -1600.00
02161           -1200.00
02162           -1000.00
02163            -800.00
02164            -400.00
02165            -400.00
02166            -200.00
02167               0.00
02168             400.00
02169             400.00
02170             800.00
02171             800.00
02172            1200.00
02173            1400.00
02174            1600.00
02175            1800.00
02176            2000.00
02177            2200.00
02178            2600.00
02179            2800.00
02180            3000.00
02181            3200.00
02182            3400.00
02183            3600.00
02184            3600.00
02185            3800.00
02186            4200.00
02187            4400.00
02188            4600.00
02189            5200.00
02190            5200.00
02191            5400.00
02192            5600.00
02193            5600.00
02194            6000.00
02195            6200.00
02196            6200.00
02197            6400.00
02198            6800.00
02199            7000.00
02200            7200.00
02201            7200.00
02202            7400.00
02203            7600.00
02204            7800.00
02205            8000.00
02206            8400.00
02207            8400.00
02208            8600.00
02209            8800.00
02210            8800.00
02211            9000.00
02212            9200.00
02213            9200.00
02214            9600.00
02215            9600.00
02216           10000.00
02217           10000.00
02218           10000.00
02219           10200.00
02220           10200.00
02221           10400.00
02222           10400.00
02223           10800.00
02224           10800.00
02225           10800.00
02226           11000.00
02227           11200.00
02228           11200.00
02229           11200.00
02230           11400.00
02231           11400.00
02232           11400.00
02233           11600.00
02234           11600.00
02235           11600.00
02236           11800.00
02237           12000.00
02238           11800.00
02239           12000.00
02240           12000.00
02241           12000.00
02242           12000.00
02243           12000.00
02244           12000.00
02245           12000.00
02246           12000.00
02247           12200.00
02248           12000.00
02249           12200.00
02250           12000.00
02251           12000.00
02252           12000.00
02253           12200.00
02254           12200.00
02255           12000.00
02256           12000.00
02257           12000.00
02258           12000.00
02259           12000.00
02260           12000.00
02261           12000.00
02262           11800.00
02263           11800.00
02264           11800.00
02265           11800.00
02266           11600.00
02267           11600.00
02268           11600.00
02269           11200.00
02270           11200.00
02271           11000.00
02272           11200.00
02273           11000.00
02274           11000.00
02275           10800.00
02276           10800.00
02277           10600.00
02278           10600.00
02279           10200.00
02280           10200.00
02281           10000.00
02282           10000.00
02283            9600.00
02284            9600.00
02285            9600.00
02286            9400.00
02287            9200.00
02288            9200.00
02289            9000.00
02290            8800.00
02291            8400.00
02292            8600.00
02293            8400.00
02294            8200.00
02295            8000.00
02296            7800.00
02297            7800.00
02298            7600.00
02299            7200.00
02300            7000.00
02301            7000.00
02302            6800.00
02303            6400.00
02304            6200.00
02305            6200.00
02306            6000.00
02307            5800.00
02308            5600.00
02309            5400.00
02310            5200.00
02311            5000.00
02312            4600.00
02313            4400.00
02314            4200.00
02315            4000.00
02316            3800.00
02317            3600.00
02318            3400.00
02319            3000.00
02320            3000.00
02321            2800.00
02322            2400.00
02323            2200.00
02324            2200.00
02325            1800.00
02326            1600.00
02327            1200.00
02328            1200.00
02329             800.00
02330             600.00
02331             400.00
02332             200.00
02333               0.00
02334            -200.00
02335            -400.00
02336            -600.00
02337            -800.00
02338           -1000.00
02339           -1200.00
02340           -1600.00
02341           -1800.00
02342           -1800.00
02343           -2200.00
02344           -2600.00
02345           -2800.00
02346           -2800.00
02347           -2800.00
02348           -3200.00
02349           -3600.00
02350           -3600.00
02351           -3600.00
02352           -4400.00
02353           -4400.00
02354           -4400.00
02355           -4800.00
02356           -4600.00
02357           -5000.00
02358           -5400.00
02359           -5800.00
02360           -5800.00
02361           -6000.00
02362           -6000.00
02363           -6400.00
02364           -6600.00
02365           -6800.00
02366           -6800.00
02367           -7200.00
02368           -7400.00
02369           -7400.00
02370           -7800.00
02371           -7800.00
02372           -8000.00
02373           -8200.00
02374           -8400.00
02375           -8600.00
02376           -8800.00
02377           -9000.00
02378           -9000.00
02379           -9200.00
02380           -9400.00
02381           -9400.00
02382           -9600.00
02383           -9800.00
02384          -10000.00
02385          -10000.00
02386          -10200.00
02387          -10200.00
02388          -10400.00
02389          -10600.00
02390          -10600.00
02391          -10600.00
02392          -10800.00
02393          -10800.00
02394          -11000.00
02395          -11000.00
02396          -11200.00
02397          -11200.00
02398          -11400.00
02399          -11400.00
02400          -11400.00
02401          -11600.00
02402          -11600.00
02403          -11600.00
02404          -11600.00
02405          -11600.00
02406          -12000.00
02407          -11800.00
02408          -12000.00
02409          -12000.00
02410          -12000.00
02411          -12000.00
02412          -12000.00
02413          -12200.00
02414          -12000.00
02415          -12200.00
02416          -12000.00
02417          -12200.00
02418          -12000.00
02419          -12000.00
02420          -12000.00
02421          -12000.00
02422          -12000.00
02423          -12000.00
02424          -12000.00
02425          -12000.00
02426          -11600.00
02427          -11600.00
02428          -11600.00
02429          -11600.00
02430          -11400.00
02431          -11600.00
02432          -11400.00
02433          -11400.00
02434          -11000.00
02435          -11200.00
02436          -10800.00
02437          -11200.00
02438          -10800.00
02439          -10800.00
02440          -10800.00
02441          -10600.00
02442          -10600.00
02443          -10600.00
02444          -10400.00
02445          -10000.00
02446          -10000.00
02447           -9800.00
02448           -9800.00
02449           -9800.00
02450           -9600.00
02451           -9400.00
02452           -9400.00
02453           -9200.00
02454           -9000.00
02455           -9000.00
02456           -8800.00
02457           -8400.00
02458           -8400.00
02459           -8200.00
02460           -8000.00
02461           -7800.00
02462           -7600.00
02463           -7400.00
02464           -7400.00
02465           -7200.00
02466           -6800.00
02467           -6800.00
02468           -6600.00
02469           -6400.00
02470           -6200.00
02471           -6000.00
02472           -5600.00
02473           -5600.00
02474           -5600.00
02475           -5000.00
02476           -4800.00
02477           -4600.00
02478           -4400.00
02479           -4400.00
02480           -4200.00
02481           -3800.00
02482           -3600.00
02483           -3400.00
02484           -3200.00
02485           -2800.00
02486           -2800.00
02487           -2600.00
02488           -2400.00
02489           -2000.00
02490           -1800.00
02491           -1800.00
02492           -1600.00
02493           -1200.00
02494            -800.00
02495            -600.00
02496            -400.00
02497            -400.00
02498               0.00
02499             200.00
02500             400.00
02501             600.00
02502             800.00
02503            1000.00
02504            1200.00
02505            1400.00
02506            1600.00
02507            2000.00
02508            2000.00
02509            2400.00
02510            2800.00
02511            2800.00
02512            3000.00
02513            3000.00
02514            3600.00
02515            3600.00
02516            3600.00
02517            4000.00
02518            4400.00
02519            4400.00
02520            4600.00
02521            5000.00
02522            5200.00
02523            5400.00
02524            5600.00
02525            5600.00
02526            6000.00
02527            6200.00
02528            6200.00
02529            6400.00
02530            6800.00
02531            7000.00
02532            7200.00
02533            7200.00
02534            7600.00
02535            7800.00
02536            7800.00
02537            8200.00
02538            8000.00
02539            8400.00
02540            8600.00
02541            8800.00
02542            8800.00
02543            9000.00
02544            9200.00
02545            9200.00
02546            9600.00
02547            9600.00
02548            9600.00
02549           10000.00
02550           10000.00
02551           10000.00
02552           10200.00
02553           10400.00
02554           10400.00
02555           10600.00
02556           10800.00
02557           10800.00
02558           11000.00
02559           11000.00
02560           11200.00
02561           11200.00
02562           11200.00
02563           11400.00
02564           11600.00
02565           11400.00
02566           11600.00
02567           11800.00
02568           11800.00
02569           11800.00
02570           11800.00
02571           12000.00
02572           12000.00
02573           12000.00
02574           12000.00
02575           12000.00
02576           12200.00
02577           12000.00
02578           12000.00
02579           12000.00
02580           12200.00
02581           12400.00
02582           12000.00
02583           12200.00
02584           12000.00
02585           12200.00
02586           12200.00
02587           12000.00
02588           12000.00
02589           12000.00
02590           12000.00
02591           12000.00
02592           12000.00
02593           11800.00
02594           12000.00
02595           12000.00
02596           11800.00
02597           11800.00
02598           11600.00
02599           11600.00
02600           11600.00
02601           11400.00
02602           11200.00
02603           11200.00
02604           11000.00
02605           11000.00
02606           10800.00
02607           10800.00
02608           10800.00
02609           10600.00
02610           10400.00
02611           10400.00
02612           10200.00
02613           10000.00
02614           10000.00
02615            9600.00
02616            9800.00
02617            9400.00
02618            9400.00
02619            9200.00
02620            9200.00
02621            9000.00
02622            8800.00
02623            8600.00
02624            8400.00
02625            8400.00
02626            8400.00
02627            8000.00
02628            7800.00
02629            7600.00
02630            7400.00
02631            7200.00
02632            7000.00
02633            6800.00
02634            6600.00
02635            6600.00
02636            6400.00
02637            6200.00
02638            6000.00
02639            5600.00
02640            5600.00
02641            5400.00
02642            5200.00
02643            4800.00
02644            4600.00
02645            4400.00
02646            4000.00
02647            4000.00
02648            3800.00
02649            3600.00
02650            3200.00
02651            3200.00
02652            3000.00
02653            2800.00
02654            2400.00
02655            2200.00
02656            2200.00
02657            1800.00
02658            1600.00
02659            1400.00
02660            1200.00
02661            1000.00
02662             600.00
02663             400.00
02664             400.00
02665               0.00
02666            -200.00
02667            -400.00
02668            -400.00
02669           -1000.00
02670           -1000.00
02671           -1200.00
02672           -1600.00
02673           -1600.00
02674           -1800.00
02675           -2400.00
02676           -2800.00
02677           -2800.00
02678           -2800.00
02679           -2600.00
02680           -3200.00
02681           -3600.00
02682           -3600.00
02683           -3800.00
02684           -4400.00
02685           -4400.00
02686           -4400.00
02687           -4800.00
02688           -5000.00
02689           -5000.00
02690           -5600.00
02691           -5600.00
02692           -5800.00
02693           -6000.00
02694           -6200.00
02695           -6400.00
02696           -6600.00
02697           -6800.00
02698           -7000.00
02699           -7400.00
02700           -7200.00
02701           -7400.00
02702           -7800.00
02703           -8000.00
02704           -8200.00
02705           -8200.00
02706           -8400.00
02707           -8600.00
02708           -8600.00
02709           -8800.00
02710           -9000.00
02711           -9200.00
02712           -9200.00
02713           -9600.00
02714           -9600.00
02715           -9600.00
02716          -10000.00
02717           -9800.00
02718          -10200.00
02719          -10000.00
02720          -10400.00
02721          -10600.00
02722          -10600.00
02723          -10600.00
02724          -10800.00
02725          -11000.00
02726          -10800.00
02727          -11000.00
02728          -11200.00
02729          -11000.00
02730          -11400.00
02731          -11400.00
02732          -11600.00
02733          -11600.00
02734          -11600.00
02735          -11600.00
02736          -11800.00
02737          -12000.00
02738          -11800.00
02739          -12000.00
02740          -12000.00
02741          -12000.00
02742          -12000.00
02743          -12000.00
02744          -12000.00
02745          -12200.00
02746          -12000.00
02747          -12000.00
02748          -12000.00
02749          -12000.00
02750          -12000.00
02751          -12000.00
02752          -12000.00
02753          -12000.00
02754          -12000.00
02755          -12000.00
02756          -12000.00
02757          -11800.00
02758          -12000.00
02759          -11600.00
02760          -11800.00
02761          -11600.00
02762          -11400.00
02763          -11400.00
02764          -11600.00
02765          -11400.00
02766          -11400.00
02767          -11200.00
02768          -11200.00
02769          -11000.00
02770          -10800.00
02771          -11000.00
02772          -10600.00
02773          -10600.00
02774          -10600.00
02775          -10400.00
02776          -10400.00
02777          -10000.00
02778          -10000.00
02779           -9800.00
02780           -9800.00
02781           -9600.00
02782           -9600.00
02783           -9600.00
02784           -9200.00
02785           -9000.00
02786           -9200.00
02787           -8800.00
02788           -8600.00
02789           -8400.00
02790           -8400.00
02791           -8200.00
02792           -8000.00
02793           -7800.00
02794           -7600.00
02795           -7600.00
02796           -7200.00
02797           -7000.00
02798           -7000.00
02799           -6600.00
02800           -6600.00
02801           -6400.00
02802           -6400.00
02803           -5800.00
02804           -5800.00
02805           -5600.00
02806           -5400.00
02807           -5000.00
02808           -5000.00
02809           -4600.00
02810           -4400.00
02811           -4200.00
02812           -4000.00
02813           -4000.00
02814           -3600.00
02815           -3400.00
02816           -3200.00
02817           -3000.00
02818           -2800.00
02819           -2600.00
02820           -2400.00
02821           -2000.00
02822           -2000.00
02823           -1600.00
02824           -1600.00
02825           -1200.00
02826           -1000.00
02827            -800.00
02828            -400.00
02829            -400.00
02830               0.00
02831             200.00
02832             400.00
02833             600.00
02834             800.00
02835            1000.00
02836            1200.00
02837            1400.00
02838            1600.00
02839            1800.00
02840            2000.00
02841            2200.00
02842            2800.00
02843            2800.00
02844            3200.00
02845            3000.00
02846            3600.00
02847            3600.00
02848            3600.00
02849            4000.00
02850            4400.00
02851            4400.00
02852            4600.00
02853            4800.00
02854            5200.00
02855            5200.00
02856            5600.00
02857            5600.00
02858            6000.00
02859            6200.00
02860            6200.00
02861            6600.00
02862            6800.00
02863            6800.00
02864            7200.00
02865            7400.00
02866            7600.00
02867            7800.00
02868            7800.00
02869            8000.00
02870            8200.00
02871            8400.00
02872            8600.00
02873            8800.00
02874            8800.00
02875            9200.00
02876            9200.00
02877            9400.00
02878            9400.00
02879            9600.00
02880            9800.00
02881           10000.00
02882           10000.00
02883           10200.00
02884           10200.00
02885           10400.00
02886           10400.00
02887           10600.00
02888           10800.00
02889           10800.00
02890           11000.00
02891           11000.00
02892           11200.00
02893           11200.00
02894           11200.00
02895           11400.00
02896           11600.00
02897           11600.00
02898           11600.00
02899           11600.00
02900           11800.00
02901           11800.00
02902           12000.00
02903           12000.00
02904           12000.00
02905           12000.00
02906           12000.00
02907           12000.00
02908           12000.00
02909           12000.00
02910           12200.00
02911           12000.00
02912           12000.00
02913           12200.00
02914           12400.00
02915           12200.00
02916           12000.00
02917           12200.00
02918           12000.00
02919           12200.00
02920           12000.00
02921           12000.00
02922           12000.00
02923           12000.00
02924           11800.00
02925           11800.00
02926           12000.00
02927           11800.00
02928           11800.00
02929           11600.00
02930           11600.00
02931           11600.00
02932           11400.00
02933           11200.00
02934           11200.00
02935           11200.00
02936           11000.00
02937           11000.00
02938           10800.00
02939           10800.00
02940           10800.00
02941           10400.00
02942           10400.00
02943           10400.00
02944           10200.00
02945           10000.00
02946           10000.00
02947           10000.00
02948            9600.00
02949            9600.00
02950            9400.00
02951            9200.00
02952            9200.00
02953            8800.00
02954            8800.00
02955            8600.00
02956            8400.00
02957            8400.00
02958            8200.00
02959            8000.00
02960            7800.00
02961            7800.00
02962            7400.00
02963            7200.00
02964            7000.00
02965            6800.00
02966            6800.00
02967            6400.00
02968            6400.00
02969            6200.00
02970            6000.00
02971            5600.00
02972            5400.00
02973            5200.00
02974            5200.00
02975            4800.00
02976            4600.00
02977            4400.00
02978            4200.00
02979            3800.00
02980            3800.00
02981            3400.00
02982            3400.00
02983            3000.00
02984            2800.00
02985            2800.00
02986            2400.00
02987            2200.00
02988            2000.00
02989            2000.00
02990            1600.00
02991            1400.00
02992            1200.00
02993             800.00
02994             600.00
02995             600.00
02996               0.00
02997               0.00
02998            -200.00
02999            -400.00
03000            -600.00
03001            -800.00
03002           -1000.00
03003           -1200.00
03004           -1600.00
03005           -1800.00
03006           -1800.00
03007           -2400.00
03008           -2600.00
03009           -3000.00
03010           -3000.00
03011           -2800.00
03012           -3200.00
03013           -3600.00
03014           -3600.00
03015           -3800.00
03016           -4200.00
03017           -4200.00
03018           -4400.00
03019           -4800.00
03020           -5000.00
03021           -5000.00
03022           -5600.00
03023           -5600.00
03024           -5800.00
03025           -6000.00
03026           -6000.00
03027           -6400.00
03028           -6800.00
03029           -6600.00
03030           -7000.00
03031           -7400.00
03032           -7200.00
03033           -7600.00
03034           -7800.00
03035           -7800.00
03036           -8200.00
03037           -8200.00
03038           -8400.00
03039           -8400.00
03040           -8800.00
03041           -9000.00
03042           -9000.00
03043           -9200.00
03044           -9200.00
03045           -9600.00
03046           -9600.00
03047           -9800.00
03048          -10000.00
03049           -9800.00
03050          -10000.00
03051          -10200.00
03052          -10400.00
03053          -10400.00
03054          -10400.00
03055          -10600.00
03056          -10800.00
03057          -10800.00
03058          -10800.00
03059          -11200.00
03060          -11000.00
03061          -11400.00
03062          -11400.00
03063          -11400.00
03064          -11400.00
03065          -11400.00
03066          -11800.00
03067          -11600.00
03068          -11600.00
03069          -11800.00
03070          -12000.00
03071          -12000.00
03072          -11800.00
03073          -12000.00
03074          -12000.00
03075          -12000.00
03076          -12000.00
03077          -12200.00
03078          -12000.00
03079          -12000.00
03080          -12000.00
03081          -12200.00
03082          -12000.00
03083          -12000.00
03084          -12000.00
03085          -12000.00
03086          -12000.00
03087          -12000.00
03088          -12000.00
03089          -12000.00
03090          -11600.00
03091          -11600.00
03092          -11800.00
03093          -11600.00
03094          -11600.00
03095          -11400.00
03096          -11600.00
03097          -11200.00
03098          -11400.00
03099          -11000.00
03100          -11200.00
03101          -11000.00
03102          -11000.00
03103          -10800.00
03104          -10800.00
03105          -10800.00
03106          -10600.00
03107          -10400.00
03108          -10400.00
03109          -10200.00
03110          -10000.00
03111           -9800.00
03112           -9800.00
03113           -9600.00
03114           -9600.00
03115           -9400.00
03116           -9200.00
03117           -9200.00
03118           -8800.00
03119           -8800.00
03120           -8600.00
03121           -8600.00
03122           -8400.00
03123           -8200.00
03124           -8000.00
03125           -8000.00
03126           -7600.00
03127           -7400.00
03128           -7200.00
03129           -7200.00
03130           -6800.00
03131           -6800.00
03132           -6600.00
03133           -6400.00
03134           -6200.00
03135           -5800.00
03136           -5800.00
03137           -5600.00
03138           -5600.00
03139           -5200.00
03140           -4800.00
03141           -4600.00
03142           -4400.00
03143           -4200.00
03144           -4000.00
03145           -4000.00
03146           -3600.00
03147           -3600.00
03148           -3200.00
03149           -3000.00
03150           -2800.00
03151           -2600.00
03152           -2200.00
03153           -2000.00
03154           -1800.00
03155           -1800.00
03156           -1400.00
03157           -1000.00
03158           -1000.00
03159            -800.00
03160            -400.00
03161            -400.00
03162               0.00
03163               0.00
03164             400.00
03165             600.00
03166             800.00
03167            1000.00
03168            1400.00
03169            1400.00
03170            1600.00
03171            2000.00
03172            2000.00
03173            2400.00
03174            2600.00
03175            3000.00
03176            3000.00
03177            3000.00
03178            3600.00
03179            3600.00
03180            3800.00
03181            4000.00
03182            4400.00
03183            4400.00
03184            4800.00
03185            5000.00
03186            5200.00
03187            5400.00
03188            5600.00
03189            5800.00
03190            6000.00
03191            6200.00
03192            6400.00
03193            6600.00
03194            6800.00
03195            7000.00
03196            7200.00
03197            7200.00
03198            7600.00
03199            7800.00
03200            7800.00
03201            8200.00
03202            8200.00
03203            8400.00
03204            8600.00
03205            8800.00
03206            8800.00
03207            9200.00
03208            9200.00
03209            9400.00
03210            9400.00
03211            9600.00
03212            9800.00
03213            9800.00
03214           10200.00
03215           10200.00
03216           10400.00
03217           10400.00
03218           10400.00
03219           10400.00
03220           10800.00
03221           10800.00
03222           11000.00
03223           11000.00
03224           11200.00
03225           11200.00
03226           11200.00
03227           11400.00
03228           11600.00
03229           11600.00
03230           11600.00
03231           11600.00
03232           11800.00
03233           11800.00
03234           11800.00
03235           12000.00
03236           12000.00
03237           12000.00
03238           12200.00
03239           12000.00
03240           12200.00
03241           12000.00
03242           12200.00
03243           12200.00
03244           12400.00
03245           12200.00
03246           12200.00
03247           12200.00
03248           12200.00
03249           12000.00
03250           12200.00
03251           12000.00
03252           12000.00
03253           12000.00
03254           12000.00
03255           11800.00
03256           11800.00
03257           12000.00
03258           11800.00
03259           11800.00
03260           11800.00
03261           11600.00
03262           11600.00
03263           11400.00
03264           11600.00
03265           11400.00
03266           11200.00
03267           11200.00
03268           11000.00
03269           11000.00
03270           11000.00
03271           10800.00
03272           10800.00
03273           10600.00
03274           10400.00
03275           10400.00
03276           10200.00
03277           10200.00
03278           10000.00
03279           10000.00
03280            9600.00
03281            9600.00
03282            9400.00
03283            9400.00
03284            9200.00
03285            8800.00
03286            8800.00
03287            8600.00
03288            8600.00
03289            8200.00
03290            8200.00
03291            8000.00
03292            7800.00
03293            7600.00
03294            7400.00
03295            7200.00
03296            7000.00
03297            7000.00
03298            6800.00
03299            6400.00
03300            6400.00
03301            6000.00
03302            6000.00
03303            6000.00
03304            5600.00
03305            5400.00
03306            5200.00
03307            4800.00
03308            4600.00
03309            4400.00
03310            4200.00
03311            4000.00
03312            3800.00
03313            3600.00
03314            3200.00
03315            3200.00
03316            3000.00
03317            2800.00
03318            2400.00
03319            2200.00
03320            2000.00
03321            1800.00
03322            1600.00
03323            1400.00
03324            1200.00
03325            1000.00
03326             600.00
03327             400.00
03328             400.00
03329               0.00
03330               0.00
03331            -400.00
03332            -600.00
03333           -1000.00
03334           -1000.00
03335           -1200.00
03336           -1600.00
03337           -1600.00
03338           -1800.00
03339           -2000.00
03340           -2600.00
03341           -2800.00
03342           -2800.00
03343           -2800.00
03344           -3200.00
03345           -3600.00
03346           -3600.00
03347           -3600.00
03348           -4400.00
03349           -4400.00
03350           -4400.00
03351           -4800.00
03352           -5000.00
03353           -5000.00
03354           -5600.00
03355           -5600.00
03356           -5800.00
03357           -6000.00
03358           -6200.00
03359           -6400.00
03360           -6600.00
03361           -6600.00
03362           -7200.00
03363           -7200.00
03364           -7400.00
03365           -7600.00
03366           -8000.00
03367           -8000.00
03368           -8200.00
03369           -8200.00
03370           -8400.00
03371           -8600.00
03372           -8800.00
03373           -9000.00
03374           -9200.00
03375           -9200.00
03376           -9200.00
03377           -9400.00
03378           -9600.00
03379           -9800.00
03380           -9800.00
03381          -10000.00
03382          -10200.00
03383          -10200.00
03384          -10400.00
03385          -10600.00
03386          -10800.00
03387          -10800.00
03388          -10800.00
03389          -11200.00
03390          -10800.00
03391          -11200.00
03392          -11000.00
03393          -11400.00
03394          -11200.00
03395          -11400.00
03396          -11400.00
03397          -11600.00
03398          -11600.00
03399          -11600.00
03400          -11800.00
03401          -12000.00
03402          -11800.00
03403          -12000.00
03404          -12000.00
03405          -12000.00
03406          -12000.00
03407          -12000.00
03408          -12000.00
03409          -12000.00
03410          -12200.00
03411          -12000.00
03412          -12000.00
03413          -12000.00
03414          -12000.00
03415          -12000.00
03416          -12000.00
03417          -12000.00
03418          -12000.00
03419          -12000.00
03420          -12000.00
03421          -11800.00
03422          -11600.00
03423          -11800.00
03424          -11600.00
03425          -11600.00
03426          -11400.00
03427          -11400.00
03428          -11400.00
03429          -11400.00
03430          -11200.00
03431          -11200.00
03432          -11000.00
03433          -11000.00
03434          -11000.00
03435          -10800.00
03436          -10600.00
03437          -10600.00
03438          -10600.00
03439          -10400.00
03440          -10400.00
03441          -10000.00
03442          -10000.00
03443           -9800.00
03444           -9600.00
03445           -9800.00
03446           -9600.00
03447           -9600.00
03448           -9200.00
03449           -9200.00
03450           -8800.00
03451           -8800.00
03452           -8400.00
03453           -8400.00
03454           -8200.00
03455           -8200.00
03456           -8000.00
03457           -8000.00
03458           -7600.00
03459           -7400.00
03460           -7200.00
03461           -7200.00
03462           -6800.00
03463           -6600.00
03464           -6400.00
03465           -6400.00
03466           -6000.00
03467           -6000.00
03468           -5800.00
03469           -5600.00
03470           -5200.00
03471           -5000.00
03472           -4600.00
03473           -4600.00
03474           -4400.00
03475           -4200.00
03476           -4000.00
03477           -3600.00
03478           -3600.00
03479           -3400.00
03480           -3200.00
03481           -3000.00
03482           -2800.00
03483           -2600.00
03484           -2400.00
03485           -2200.00
03486           -2000.00
03487           -1600.00
03488           -1400.00
03489           -1200.00
03490            -800.00
03491            -800.00
03492            -600.00
03493            -200.00
03494               0.00
03495             200.00
03496             400.00
03497             600.00
03498             800.00
03499            1000.00
03500            1200.00
03501            1400.00
03502            1800.00
03503            1800.00
03504            2000.00
03505            2400.00
03506            2800.00
03507            2800.00
03508            3200.00
03509            3000.00
03510            3400.00
03511            3600.00
03512            3800.00
03513            4000.00
03514            4400.00
03515            4400.00
03516            4600.00
03517            5000.00
03518            5200.00
03519            5400.00
03520            5600.00
03521            5800.00
03522            6000.00
03523            6200.00
03524            6400.00
03525            6600.00
03526            6800.00
03527            7000.00
03528            7200.00
03529            7200.00
03530            7600.00
03531            7800.00
03532            7800.00
03533            8000.00
03534            8200.00
03535            8400.00
03536            8600.00
03537            8800.00
03538            8800.00
03539            9000.00
03540            9200.00
03541            9400.00
03542            9600.00
03543            9600.00
03544            9600.00
03545           10000.00
03546           10000.00
03547           10200.00
03548           10200.00
03549           10400.00
03550           10400.00
03551           10600.00
03552           10800.00
03553           10800.00
03554           11000.00
03555           11000.00
03556           11200.00
03557           11200.00
03558           11200.00
03559           11400.00
03560           11600.00
03561           11600.00
03562           11600.00
03563           11600.00
03564           11800.00
03565           11800.00
03566           11800.00
03567           12000.00
03568           12000.00
03569           12000.00
03570           12000.00
03571           12200.00
03572           12000.00
03573           12000.00
03574           12000.00
03575           12000.00
03576           12000.00
03577           12200.00
03578           12200.00
03579           12200.00
03580           12000.00
03581           12000.00
03582           12200.00
03583           12200.00
03584           12000.00
03585           12000.00
03586           12000.00
03587           12000.00
03588           12000.00
03589           12000.00
03590           11800.00
03591           11800.00
03592           11800.00
03593           11600.00
03594           11600.00
03595           11600.00
03596           11600.00
03597           11200.00
03598           11200.00
03599           11000.00
03600           11000.00
03601           11000.00
03602           11000.00
03603           10800.00
03604           10600.00
03605           10800.00
03606           10600.00
03607           10400.00
03608           10200.00
03609           10200.00
03610           10000.00
03611            9800.00
03612            9600.00
03613            9400.00
03614            9400.00
03615            9200.00
03616            9200.00
03617            9000.00
03618            8800.00
03619            8600.00
03620            8400.00
03621            8200.00
03622            8200.00
03623            7800.00
03624            7800.00
03625            7600.00
03626            7200.00
03627            7200.00
03628            7000.00
03629            6800.00
03630            6800.00
03631            6400.00
03632            6200.00
03633            6200.00
03634            5800.00
03635            5800.00
03636            5400.00
03637            5200.00
03638            4800.00
03639            4800.00
03640            4600.00
03641            4400.00
03642            4000.00
03643            4000.00
03644            3800.00
03645            3600.00
03646            3200.00
03647            3000.00
03648            3000.00
03649            2600.00
03650            2400.00
03651            2200.00
03652            2000.00
03653            1800.00
03654            1600.00
03655            1400.00
03656            1200.00
03657             800.00
03658             600.00
03659             400.00
03660             200.00
03661               0.00
03662            -200.00
03663            -400.00
03664            -800.00
03665            -800.00
03666           -1000.00
03667           -1200.00
03668           -1600.00
03669           -1800.00
03670           -1800.00
03671           -2200.00
03672           -2600.00
03673           -3000.00
03674           -2800.00
03675           -2800.00
03676           -3200.00
03677           -3600.00
03678           -3600.00
03679           -3800.00
03680           -4200.00
03681           -4400.00
03682           -4400.00
03683           -4800.00
03684           -5000.00
03685           -5000.00
03686           -5600.00
03687           -5600.00
03688           -5800.00
03689           -6000.00
03690           -6200.00
03691           -6400.00
03692           -6600.00
03693           -6800.00
03694           -6800.00
03695           -7200.00
03696           -7200.00
03697           -7600.00
03698           -7800.00
03699           -7800.00
03700           -8200.00
03701           -8400.00
03702           -8200.00
03703           -8800.00
03704           -8800.00
03705           -9000.00
03706           -9200.00
03707           -9200.00
03708           -9400.00
03709           -9600.00
03710           -9600.00
03711           -9800.00
03712           -9800.00
03713          -10000.00
03714          -10200.00
03715          -10200.00
03716          -10600.00
03717          -10600.00
03718          -10600.00
03719          -10800.00
03720          -10800.00
03721          -11000.00
03722          -11000.00
03723          -11000.00
03724          -11200.00
03725          -11000.00
03726          -11200.00
03727          -11400.00
03728          -11400.00
03729          -11400.00
03730          -11600.00
03731          -11600.00
03732          -11600.00
03733          -11800.00
03734          -11800.00
03735          -12000.00
03736          -11800.00
03737          -12000.00
03738          -12000.00
03739          -12000.00
03740          -12000.00
03741          -12000.00
03742          -12000.00
03743          -12200.00
03744          -12000.00
03745          -12000.00
03746          -12000.00
03747          -12200.00
03748          -12000.00
03749          -12000.00
03750          -12000.00
03751          -12000.00
03752          -12000.00
03753          -12000.00
03754          -11600.00
03755          -11800.00
03756          -11600.00
03757          -11600.00
03758          -11600.00
03759          -11600.00
03760          -11400.00
03761          -11400.00
03762          -11200.00
03763          -11400.00
03764          -11000.00
03765          -10800.00
03766          -11000.00
03767          -10800.00
03768          -10800.00
03769          -10600.00
03770          -10600.00
03771          -10400.00
03772          -10400.00
03773          -10000.00
03774          -10000.00
03775          -10000.00
03776           -9800.00
03777           -9600.00
03778           -9600.00
03779           -9200.00
03780           -9200.00
03781           -9200.00
03782           -8800.00
03783           -8800.00
03784           -8400.00
03785           -8400.00
03786           -8400.00
03787           -8200.00
03788           -8000.00
03789           -8000.00
03790           -7600.00
03791           -7600.00
03792           -7200.00
03793           -7200.00
03794           -7000.00
03795           -6800.00
03796           -6400.00
03797           -6400.00
03798           -6200.00
03799           -6000.00
03800           -5800.00
03801           -5600.00
03802           -5400.00
03803           -5200.00
03804           -4800.00
03805           -4600.00
03806           -4400.00
03807           -4200.00
03808           -4000.00
03809           -4000.00
03810           -3600.00
03811           -3400.00
03812           -3200.00
03813           -3000.00
03814           -2600.00
03815           -2600.00
03816           -2400.00
03817           -2000.00
03818           -2000.00
03819           -1800.00
03820           -1600.00
03821           -1200.00
03822           -1000.00
03823            -800.00
03824            -400.00
03825            -200.00
03826               0.00
03827               0.00
03828             400.00
03829             600.00
03830             800.00
03831            1000.00
03832            1400.00
03833            1400.00
03834            1800.00
03835            1800.00
03836            2000.00
03837            2400.00
03838            2800.00
03839            2800.00
03840            3000.00
03841            3200.00
03842            3400.00
03843            3600.00
03844            3800.00
03845            4000.00
03846            4400.00
03847            4400.00
03848            4800.00
03849            5000.00
03850            5000.00
03851            5600.00
03852            5600.00
03853            5800.00
03854            6000.00
03855            6200.00
03856            6400.00
03857            6400.00
03858            6800.00
03859            7000.00
03860            7200.00
03861            7200.00
03862            7600.00
03863            7800.00
03864            7800.00
03865            8000.00
03866            8200.00
03867            8400.00
03868            8600.00
03869            8800.00
03870            8800.00
03871            8800.00
03872            9200.00
03873            9200.00
03874            9600.00
03875            9600.00
03876            9600.00
03877           10000.00
03878           10000.00
03879           10000.00
03880           10200.00
03881           10400.00
03882           10600.00
03883           10600.00
03884           10800.00
03885           10800.00
03886           11000.00
03887           11000.00
03888           11200.00
03889           11200.00
03890           11200.00
03891           11200.00
03892           11600.00
03893           11600.00
03894           11600.00
03895           11800.00
03896           11800.00
03897           11800.00
03898           11800.00
03899           12000.00
03900           12000.00
03901           12000.00
03902           12000.00
03903           12200.00
03904           12000.00
03905           12200.00
03906           12200.00
03907           12000.00
03908           12200.00
03909           12400.00
03910           12200.00
03911           12200.00
03912           12400.00
03913           12200.00
03914           12000.00
03915           12000.00
03916           12000.00
03917           12000.00
03918           12000.00
03919           12000.00
03920           12000.00
03921           11800.00
03922           11800.00
03923           11800.00
03924           11800.00
03925           11600.00
03926           11800.00
03927           11400.00
03928           11200.00
03929           11200.00
03930           11200.00
03931           11200.00
03932           11000.00
03933           11000.00
03934           10800.00
03935           10800.00
03936           10400.00
03937           10400.00
03938           10400.00
03939           10400.00
03940           10200.00
03941           10200.00
03942           10000.00
03943            9800.00
03944            9600.00
03945            9400.00
03946            9400.00
03947            9200.00
03948            9200.00
03949            8800.00
03950            8800.00
03951            8600.00
03952            8400.00
03953            8400.00
03954            8200.00
03955            8000.00
03956            7800.00
03957            7600.00
03958            7600.00
03959            7200.00
03960            7200.00
03961            6800.00
03962            6800.00
03963            6400.00
03964            6400.00
03965            6000.00
03966            6000.00
03967            5600.00
03968            5600.00
03969            5400.00
03970            5000.00
03971            4600.00
03972            4800.00
03973            4400.00
03974            4000.00
03975            4000.00
03976            3600.00
03977            3600.00
03978            3400.00
03979            3000.00
03980            2800.00
03981            2800.00
03982            2400.00
03983            2200.00
03984            2200.00
03985            2000.00
03986            1800.00
03987            1400.00
03988            1000.00
03989             800.00
03990             600.00
03991             400.00
03992             400.00
03993               0.00
03994            -200.00
03995            -400.00
03996            -800.00
03997            -800.00
03998           -1000.00
03999           -1200.00
04000           -1600.00
04001           -1800.00
04002           -2000.00
04003           -2400.00
04004           -2600.00
04005           -2800.00
04006           -2800.00
04007           -2800.00
04008           -3400.00
04009           -3600.00
04010           -3600.00
04011           -3800.00
04012           -4200.00
04013           -4200.00
04014           -4400.00
04015           -4800.00
04016           -5000.00
04017           -5200.00
04018           -5600.00
04019           -5600.00
04020           -5800.00
04021           -6000.00
04022           -6000.00
04023           -6400.00
04024           -6800.00
04025           -6600.00
04026           -7000.00
04027           -7200.00
04028           -7200.00
04029           -7600.00
04030           -7800.00
04031           -8000.00
04032           -8200.00
04033           -8200.00
04034           -8400.00
04035           -8800.00
04036           -8800.00
04037           -9000.00
04038           -9000.00
04039           -9200.00
04040           -9200.00
04041           -9400.00
04042           -9600.00
04043           -9800.00
04044           -9800.00
04045          -10000.00
04046          -10200.00
04047          -10200.00
04048          -10400.00
04049          -10600.00
04050          -10600.00
04051          -10800.00
04052          -10800.00
04053          -10800.00
04054          -11000.00
04055          -11000.00
04056          -11000.00
04057          -11200.00
04058          -11200.00
04059          -11400.00
04060          -11400.00
04061          -11400.00
04062          -11600.00
04063          -11600.00
04064          -11800.00
04065          -12000.00
04066          -12000.00
04067          -12000.00
04068          -12000.00
04069          -12000.00
04070          -12000.00
04071          -12000.00
04072          -12000.00
04073          -11800.00
04074          -12000.00
04075          -12000.00
04076          -12000.00
04077          -12200.00
04078          -12000.00
04079          -12000.00
04080          -12000.00
04081          -12000.00
04082          -12000.00
04083          -12000.00
04084          -12000.00
04085          -11800.00
04086          -11600.00
04087          -11600.00
04088          -11600.00
04089          -11800.00
04090          -11600.00
04091          -11400.00
04092          -11400.00
04093          -11400.00
04094          -11200.00
04095          -11400.00
04096          -11000.00
04097          -10800.00
04098          -10800.00
04099          -10800.00
04100          -10800.00
04101          -10600.00
04102          -10400.00
04103          -10400.00
04104          -10200.00
04105          -10200.00
04106          -10000.00
04107          -10000.00
04108           -9800.00
04109           -9600.00
04110           -9600.00
04111           -9400.00
04112           -9400.00
04113           -9200.00
04114           -8800.00
04115           -8800.00
04116           -8800.00
04117           -8400.00
04118           -8400.00
04119           -8200.00
04120           -8000.00
04121           -7800.00
04122           -7600.00
04123           -7400.00
04124           -7200.00
04125           -7000.00
04126           -6800.00
04127           -6600.00
04128           -6400.00
04129           -6400.00
04130           -6000.00
04131           -5800.00
04132           -5600.00
04133           -5400.00
04134           -5200.00
04135           -5000.00
04136           -5000.00
04137           -4600.00
04138           -4400.00
04139           -4400.00
04140           -4000.00
04141           -3800.00
04142           -3600.00
04143           -3400.00
04144           -3200.00
04145           -2800.00
04146           -2800.00
04147           -2400.00
04148           -2400.00
04149           -2200.00
04150           -2000.00
04151           -1600.00
04152           -1400.00
04153           -1200.00
04154           -1000.00
04155            -800.00
04156            -600.00
04157            -200.00
04158               0.00
04159               0.00
04160             200.00
04161             400.00
04162             800.00
04163            1000.00
04164            1200.00
04165            1400.00
04166            1800.00
04167            2000.00
04168            2000.00
04169            2400.00
04170            2600.00
04171            3000.00
04172            3200.00
04173            3200.00
04174            3600.00
04175            3600.00
04176            3800.00
04177            4000.00
04178            4400.00
04179            4400.00
04180            4800.00
04181            5000.00
04182            5200.00
04183            5400.00
04184            5600.00
04185            5800.00
04186            6000.00
04187            6200.00
04188            6400.00
04189            6600.00
04190            6800.00
04191            7000.00
04192            7200.00
04193            7200.00
04194            7400.00
04195            7800.00
04196            7800.00
04197            8000.00
04198            8200.00
04199            8400.00
04200            8600.00
04201            8800.00
04202            8800.00
04203            9200.00
04204            9200.00
04205            9400.00
04206            9400.00
04207            9600.00
04208           10000.00
04209           10000.00
04210           10000.00
04211           10200.00
04212           10400.00
04213           10400.00
04214           10400.00
04215           10600.00
04216           10800.00
04217           10800.00
04218           11000.00
04219           11000.00
04220           11200.00
04221           11200.00
04222           11200.00
04223           11200.00
04224           11600.00
04225           11400.00
04226           11800.00
04227           11800.00
04228           11800.00
04229           12000.00
04230           12000.00
04231           12000.00
04232           12000.00
04233           12000.00
04234           12200.00
04235           12000.00
04236           12200.00
04237           12200.00
04238           12200.00
04239           12200.00
04240           12000.00
04241           12200.00
04242           12400.00
04243           12400.00
04244           12200.00
04245           12200.00
04246           12200.00
04247           12000.00
04248           12000.00
04249           12000.00
04250           12000.00
04251           12000.00
04252           12000.00
04253           12000.00
04254           11800.00
04255           11800.00
04256           11800.00
04257           11600.00
04258           11600.00
04259           11600.00
04260           11600.00
04261           11400.00
04262           11200.00
04263           11000.00
04264           11200.00
04265           11000.00
04266           10800.00
04267           10800.00
04268           10600.00
04269           10600.00
04270           10400.00
04271           10400.00
04272           10200.00
04273           10000.00
04274           10000.00
04275            9800.00
04276            9600.00
04277            9400.00
04278            9200.00
04279            9200.00
04280            9200.00
04281            9000.00
04282            8600.00
04283            8600.00
04284            8400.00
04285            8400.00
04286            8200.00
04287            8000.00
04288            7800.00
04289            7600.00
04290            7600.00
04291            7200.00
04292            7000.00
04293            6800.00
04294            6600.00
04295            6400.00
04296            6200.00
04297            6200.00
04298            5800.00
04299            5600.00
04300            5400.00
04301            5200.00
04302            5000.00
04303            4800.00
04304            4600.00
04305            4400.00
04306            4400.00
04307            4000.00
04308            3800.00
04309            3600.00
04310            3400.00
04311            3000.00
04312            3000.00
04313            2600.00
04314            2400.00
04315            2200.00
04316            2000.00
04317            2000.00
04318            1600.00
04319            1400.00
04320            1200.00
04321             800.00
04322             600.00
04323             400.00
04324             200.00
04325               0.00
04326            -200.00
04327            -400.00
04328            -600.00
04329            -800.00
04330           -1200.00
04331           -1400.00
04332           -1600.00
04333           -1800.00
04334           -2000.00
04335           -2200.00
04336           -2800.00
04337           -3000.00
04338           -2800.00
04339           -2800.00
04340           -3400.00
04341           -3600.00
04342           -3600.00
04343           -4000.00
04344           -4200.00
04345           -4400.00
04346           -4400.00
04347           -4800.00
04348           -5000.00
04349           -5000.00
04350           -5600.00
04351           -5600.00
04352           -5800.00
04353           -6000.00
04354           -6000.00
04355           -6400.00
04356           -6800.00
04357           -6800.00
04358           -7000.00
04359           -7200.00
04360           -7200.00
04361           -7400.00
04362           -8000.00
04363           -8000.00
04364           -8200.00
04365           -8200.00
04366           -8400.00
04367           -8600.00
04368           -8800.00
04369           -9000.00
04370           -9200.00
04371           -9200.00
04372           -9400.00
04373           -9400.00
04374           -9600.00
04375           -9800.00
04376           -9800.00
04377          -10000.00
04378          -10200.00
04379          -10400.00
04380          -10400.00
04381          -10600.00
04382          -10600.00
04383          -10600.00
04384          -10800.00
04385          -10800.00
04386          -11000.00
04387          -11200.00
04388          -11000.00
04389          -11000.00
04390          -11400.00
04391          -11400.00
04392          -11400.00
04393          -11600.00
04394          -11600.00
04395          -11600.00
04396          -11600.00
04397          -11600.00
04398          -12000.00
04399          -11800.00
04400          -11800.00
04401          -12000.00
04402          -12000.00
04403          -12000.00
04404          -12000.00
04405          -12000.00
04406          -12000.00
04407          -12000.00
04408          -12000.00
04409          -12000.00
04410          -12000.00
04411          -12000.00
04412          -12000.00
04413          -12000.00
04414          -12000.00
04415          -12000.00
04416          -11800.00
04417          -12000.00
04418          -11600.00
04419          -11600.00
04420          -11800.00
04421          -11800.00
04422          -11600.00
04423          -11400.00
04424          -11600.00
04425          -11200.00
04426          -11000.00
04427          -11200.00
04428          -11000.00
04429          -11000.00
04430          -11000.00
04431          -10800.00
04432          -10800.00
04433          -10600.00
04434          -10400.00
04435          -10400.00
04436          -10400.00
04437          -10200.00
04438          -10000.00
04439          -10000.00
04440           -9800.00
04441           -9600.00
04442           -9400.00
04443           -9400.00
04444           -9200.00
04445           -9000.00
04446           -8800.00
04447           -8800.00
04448           -8600.00
04449           -8400.00
04450           -8400.00
04451           -8200.00
04452           -8000.00
04453           -7800.00
04454           -7600.00
04455           -7400.00
04456           -7200.00
04457           -7000.00
04458           -6800.00
04459           -6800.00
04460           -6400.00
04461           -6200.00
04462           -6000.00
04463           -6000.00
04464           -5600.00
04465           -5600.00
04466           -5200.00
04467           -5200.00
04468           -4800.00
04469           -4600.00
04470           -4400.00
04471           -4200.00
04472           -4200.00
04473           -3600.00
04474           -3600.00
04475           -3400.00
04476           -3200.00
04477           -2800.00
04478           -2800.00
04479           -2400.00
04480           -2400.00
04481           -2000.00
04482           -1800.00
04483           -1600.00
04484           -1400.00
04485           -1000.00
04486           -1000.00
04487            -800.00
04488            -400.00
04489            -400.00
04490               0.00
04491             200.00
04492             400.00
04493             600.00
04494             800.00
04495            1000.00
04496            1200.00
04497            1600.00
04498            1800.00
04499            2000.00
04500            2000.00
04501            2200.00
04502            2800.00
04503            3000.00
04504            3000.00
04505            3200.00
04506            3600.00
04507            3600.00
04508            3600.00
04509            4000.00
04510            4400.00
04511            4400.00
04512            4800.00
04513            5000.00
04514            5200.00
04515            5400.00
04516            5600.00
04517            5600.00
04518            6000.00
04519            6200.00
04520            6400.00
04521            6800.00
04522            6800.00
04523            7000.00
04524            7200.00
04525            7200.00
04526            7600.00
04527            7800.00
04528            7800.00
04529            8200.00
04530            8400.00
04531            8400.00
04532            8600.00
04533            8800.00
04534            8800.00
04535            9200.00
04536            9200.00
04537            9400.00
04538            9600.00
04539            9600.00
04540            9600.00
04541            9800.00
04542           10200.00
04543           10200.00
04544           10400.00
04545           10400.00
04546           10600.00
04547           10800.00
04548           10800.00
04549           11000.00
04550           11000.00
04551           11200.00
04552           11200.00
04553           11200.00
04554           11200.00
04555           11400.00
04556           11400.00
04557           11600.00
04558           11800.00
04559           11800.00
04560           11800.00
04561           12000.00
04562           11800.00
04563           11800.00
04564           12000.00
04565           12000.00
04566           12200.00
04567           12000.00
04568           12000.00
04569           12200.00
04570           12000.00
04571           12200.00
04572           12200.00
04573           12000.00
04574           12200.00
04575           12000.00
04576           12200.00
04577           12200.00
04578           12000.00
04579           12200.00
04580           12000.00
04581           12000.00
04582           12000.00
04583           12000.00
04584           12000.00
04585           11800.00
04586           11800.00
04587           11600.00
04588           11800.00
04589           11600.00
04590           11600.00
04591           11600.00
04592           11400.00
04593           11200.00
04594           11200.00
04595           11200.00
04596           11200.00
04597           11000.00
04598           11000.00
04599           10800.00
04600           10800.00
04601           10600.00
04602           10400.00
04603           10200.00
04604           10400.00
04605           10000.00
04606           10000.00
04607            9800.00
04608            9600.00
04609            9600.00
04610            9200.00
04611            9200.00
04612            9000.00
04613            8800.00
04614            8800.00
04615            8600.00
04616            8400.00
04617            8400.00
04618            8200.00
04619            8000.00
04620            7800.00
04621            7600.00
04622            7600.00
04623            7200.00
04624            7200.00
04625            6800.00
04626            6600.00
04627            6400.00
04628            6200.00
04629            6000.00
04630            6000.00
04631            5800.00
04632            5400.00
04633            5400.00
04634            4800.00
04635            4800.00
04636            4600.00
04637            4400.00
04638            4200.00
04639            4000.00
04640            3600.00
04641            3600.00
04642            3200.00
04643            3200.00
04644            2800.00
04645            2800.00
04646            2600.00
04647            2400.00
04648            2000.00
04649            1800.00
04650            1600.00
04651            1400.00
04652            1200.00
04653             800.00
04654             800.00
04655             600.00
04656             200.00
04657               0.00
04658            -200.00
04659            -400.00
04660            -600.00
04661            -800.00
04662           -1000.00
04663           -1400.00
04664           -1600.00
04665           -1600.00
04666           -2000.00
04667           -2400.00
04668           -2600.00
04669           -3000.00
04670           -2800.00
04671           -2800.00
04672           -3200.00
04673           -3600.00
04674           -3600.00
04675           -3800.00
04676           -4400.00
04677           -4400.00
04678           -4400.00
04679           -5000.00
04680           -4800.00
04681           -5000.00
04682           -5600.00
04683           -5600.00
04684           -5800.00
04685           -6000.00
04686           -6000.00
04687           -6400.00
04688           -6600.00
04689           -6800.00
04690           -7200.00
04691           -7200.00
04692           -7200.00
04693           -7600.00
04694           -7600.00
04695           -7800.00
04696           -8200.00
04697           -8400.00
04698           -8400.00
04699           -8800.00
04700           -8600.00
04701           -9000.00
04702           -9200.00
04703           -9200.00
04704           -9200.00
04705           -9600.00
04706           -9600.00
04707           -9800.00
04708           -9800.00
04709          -10000.00
04710          -10000.00
04711          -10400.00
04712          -10400.00
04713          -10400.00
04714          -10400.00
04715          -10600.00
04716          -10800.00
04717          -10800.00
04718          -10800.00
04719          -11000.00
04720          -11200.00
04721          -11000.00
04722          -11200.00
04723          -11400.00
04724          -11400.00
04725          -11600.00
04726          -11600.00
04727          -11600.00
04728          -11600.00
04729          -12000.00
04730          -11800.00
04731          -12000.00
04732          -12000.00
04733          -12000.00
04734          -12000.00
04735          -12000.00
04736          -12000.00
04737          -12000.00
04738          -12000.00
04739          -12000.00
04740          -12000.00
04741          -12000.00
04742          -12000.00
04743          -12000.00
04744          -12000.00
04745          -12000.00
04746          -12000.00
04747          -12000.00
04748          -12000.00
04749          -12000.00
04750          -11800.00
04751          -11800.00
04752          -11600.00
04753          -11600.00
04754          -11600.00
04755          -11400.00
04756          -11400.00
04757          -11400.00
04758          -11000.00
04759          -11000.00
04760          -11000.00
04761          -11000.00
04762          -10800.00
04763          -10800.00
04764          -10800.00
04765          -10600.00
04766          -10400.00
04767          -10400.00
04768          -10400.00
04769          -10000.00
04770          -10000.00
04771          -10000.00
04772           -9800.00
04773           -9600.00
04774           -9600.00
04775           -9200.00
04776           -9400.00
04777           -9000.00
04778           -8800.00
04779           -8800.00
04780           -8600.00
04781           -8400.00
04782           -8400.00
04783           -8200.00
04784           -8000.00
04785           -7800.00
04786           -7600.00
04787           -7400.00
04788           -7200.00
04789           -7000.00
04790           -6800.00
04791           -6800.00
04792           -6400.00
04793           -6400.00
04794           -6200.00
04795           -5800.00
04796           -5800.00
04797           -5600.00
04798           -5200.00
04799           -5200.00
04800           -4600.00
04801           -4600.00
04802           -4400.00
04803           -4200.00
04804           -4000.00
04805           -3800.00
04806           -3600.00
04807           -3400.00
04808           -3200.00
04809           -3000.00
04810           -2600.00
04811           -2400.00
04812           -2400.00
04813           -2000.00
04814           -2000.00
04815           -1600.00
04816           -1400.00
04817           -1200.00
04818           -1000.00
04819            -800.00
04820            -400.00
04821            -400.00
04822               0.00
04823             200.00
04824             400.00
04825             600.00
04826             800.00
04827            1200.00
04828            1200.00
04829            1400.00
04830            1600.00
04831            1800.00
04832            2200.00
04833            2400.00
04834            2800.00
04835            3000.00
04836            3000.00
04837            3200.00
04838            3400.00
04839            3800.00
04840            3800.00
04841            4000.00
04842            4400.00
04843            4400.00
04844            4800.00
04845            5000.00
04846            5200.00
04847            5600.00
04848            5600.00
04849            5800.00
04850            6200.00
04851            6200.00
04852            6400.00
04853            6600.00
04854            6800.00
04855            7000.00
04856            7200.00
04857            7200.00
04858            7600.00
04859            7800.00
04860            7800.00
04861            8200.00
04862            8200.00
04863            8400.00
04864            8600.00
04865            8800.00
04866            8800.00
04867            9000.00
04868            9200.00
04869            9400.00
04870            9400.00
04871            9600.00
04872           10000.00
04873           10000.00
04874           10000.00
04875           10200.00
04876           10200.00
04877           10400.00
04878           10600.00
04879           10400.00
04880           10800.00
04881           11000.00
04882           11000.00
04883           11200.00
04884           11000.00
04885           11400.00
04886           11200.00
04887           11600.00
04888           11600.00
04889           11600.00
04890           11600.00
04891           11800.00
04892           11800.00
04893           12000.00
04894           11800.00
04895           12000.00
04896           12000.00
04897           12000.00
04898           12000.00
04899           12000.00
04900           12200.00
04901           12200.00
04902           12200.00
04903           12200.00
04904           12200.00
04905           12000.00
04906           12200.00
04907           12000.00
04908           12000.00
04909           12000.00
04910           12200.00
04911           12000.00
04912           12000.00
04913           12000.00
04914           12000.00
04915           12000.00
04916           11800.00
04917           11800.00
04918           11800.00
04919           11800.00
04920           11600.00
04921           11600.00
04922           11600.00
04923           11400.00
04924           11600.00
04925           11200.00
04926           11200.00
04927           11200.00
04928           11200.00
04929           10800.00
04930           10800.00
04931           10800.00
04932           10800.00
04933           10400.00
04934           10400.00
04935           10400.00
04936           10200.00
04937           10000.00
04938           10000.00
04939            9800.00
04940            9600.00
04941            9400.00
04942            9400.00
04943            9200.00
04944            9200.00
04945            9000.00
04946            8800.00
04947            8600.00
04948            8400.00
04949            8400.00
04950            8000.00
04951            8000.00
04952            7800.00
04953            7600.00
04954            7600.00
04955            7200.00
04956            7000.00
04957            7000.00
04958            6600.00
04959            6400.00
04960            6200.00
04961            6200.00
04962            6000.00
04963            5600.00
04964            5400.00
04965            5400.00
04966            5000.00
04967            4800.00
04968            4600.00
04969            4400.00
04970            4200.00
04971            4000.00
04972            3800.00
04973            3400.00
04974            3200.00
04975            3200.00
04976            2800.00
04977            2800.00
04978            2400.00
04979            2200.00
04980            2000.00
04981            1800.00
04982            1400.00
04983            1400.00
04984            1200.00
04985             800.00
04986             600.00
04987             400.00
04988             200.00
04989               0.00
04990            -200.00
04991            -400.00
04992            -800.00
04993            -800.00
04994           -1000.00
04995           -1400.00
04996           -1600.00
04997           -1800.00
04998           -1800.00
04999           -2400.00
05000           -2800.00
