Unit:(mV)
                     CH1
Frequency    301.136 kHz
00001            2600.00
00002            2000.00
00003            1800.00
00004            1200.00
00005             600.00
00006             400.00
00007            -200.00
00008            -600.00
00009           -1000.00
00010           -1400.00
00011           -1800.00
00012           -2200.00
00013           -2600.00
00014           -3000.00
00015           -3400.00
00016           -3800.00
00017           -4600.00
00018           -5200.00
00019           -5600.00
00020           -5600.00
00021           -6000.00
00022           -6600.00
00023           -7000.00
00024           -7400.00
00025           -7800.00
00026           -8200.00
00027           -8600.00
00028           -9200.00
00029           -9400.00
00030          -10000.00
00031          -10200.00
00032          -10600.00
00033          -11200.00
00034          -11600.00
00035          -11800.00
00036          -12200.00
00037          -12600.00
00038          -13200.00
00039          -13400.00
00040          -14000.00
00041          -14200.00
00042          -14600.00
00043          -15000.00
00044          -15000.00
00045          -15600.00
00046          -15800.00
00047          -16400.00
00048          -16600.00
00049          -17000.00
00050          -17200.00
00051          -17600.00
00052          -18000.00
00053          -18200.00
00054          -18600.00
00055          -18800.00
00056          -19000.00
00057          -19400.00
00058          -19600.00
00059          -19800.00
00060          -20200.00
00061          -20400.00
00062          -20400.00
00063          -20600.00
00064          -21000.00
00065          -21200.00
00066          -21400.00
00067          -21400.00
00068          -21800.00
00069          -22000.00
00070          -22000.00
00071          -22200.00
00072          -22400.00
00073          -22400.00
00074          -23000.00
00075          -22800.00
00076          -22800.00
00077          -23000.00
00078          -23000.00
00079          -23200.00
00080          -23200.00
00081          -23400.00
00082          -23400.00
00083          -23600.00
00084          -23600.00
00085          -23600.00
00086          -23600.00
00087          -23400.00
00088          -23600.00
00089          -23800.00
00090          -23600.00
00091          -23600.00
00092          -23600.00
00093          -23600.00
00094          -23600.00
00095          -23600.00
00096          -23600.00
00097          -23400.00
00098          -23400.00
00099          -23400.00
00100          -23200.00
00101          -23000.00
00102          -23000.00
00103          -22800.00
00104          -22800.00
00105          -22800.00
00106          -22600.00
00107          -22600.00
00108          -22200.00
00109          -22000.00
00110          -22000.00
00111          -21800.00
00112          -21600.00
00113          -21400.00
00114          -21200.00
00115          -21000.00
00116          -21000.00
00117          -20600.00
00118          -20400.00
00119          -20200.00
00120          -19800.00
00121          -19600.00
00122          -19200.00
00123          -19000.00
00124          -18800.00
00125          -18600.00
00126          -18200.00
00127          -18000.00
00128          -17800.00
00129          -17400.00
00130          -17200.00
00131          -16600.00
00132          -16400.00
00133          -16200.00
00134          -15800.00
00135          -15400.00
00136          -15000.00
00137          -14800.00
00138          -14200.00
00139          -14000.00
00140          -13600.00
00141          -13200.00
00142          -13000.00
00143          -12400.00
00144          -12200.00
00145          -11800.00
00146          -11400.00
00147          -11000.00
00148          -10600.00
00149          -10200.00
00150           -9800.00
00151           -9200.00
00152           -9000.00
00153           -8600.00
00154           -8200.00
00155           -7600.00
00156           -7400.00
00157           -6800.00
00158           -6400.00
00159           -6000.00
00160           -5400.00
00161           -5000.00
00162           -4600.00
00163           -4200.00
00164           -3800.00
00165           -3400.00
00166           -2800.00
00167           -2600.00
00168           -2000.00
00169           -1800.00
00170           -1200.00
00171            -600.00
00172            -200.00
00173             200.00
00174             600.00
00175            1000.00
00176            1400.00
00177            2000.00
00178            2200.00
00179            2600.00
00180            3000.00
00181            3600.00
00182            3800.00
00183            4400.00
00184            5200.00
00185            5400.00
00186            5800.00
00187            6000.00
00188            6600.00
00189            7000.00
00190            7400.00
00191            7800.00
00192            8400.00
00193            8600.00
00194            9200.00
00195            9400.00
00196           10000.00
00197           10200.00
00198           10600.00
00199           11000.00
00200           11600.00
00201           11800.00
00202           12200.00
00203           12600.00
00204           13000.00
00205           13400.00
00206           13800.00
00207           14200.00
00208           14600.00
00209           15000.00
00210           15400.00
00211           15600.00
00212           16200.00
00213           16400.00
00214           16600.00
00215           17000.00
00216           17400.00
00217           17800.00
00218           18000.00
00219           18200.00
00220           18600.00
00221           18800.00
00222           19000.00
00223           19400.00
00224           19600.00
00225           19800.00
00226           20000.00
00227           20400.00
00228           20600.00
00229           21000.00
00230           21000.00
00231           21200.00
00232           21200.00
00233           21600.00
00234           21800.00
00235           21800.00
00236           22000.00
00237           22200.00
00238           22200.00
00239           22600.00
00240           22600.00
00241           22800.00
00242           22800.00
00243           23000.00
00244           23000.00
00245           23400.00
00246           23400.00
00247           23400.00
00248           23400.00
00249           23600.00
00250           23600.00
00251           23600.00
00252           23600.00
00253           23600.00
00254           23600.00
00255           23600.00
00256           23600.00
00257           23600.00
00258           23600.00
00259           23600.00
00260           23600.00
00261           23600.00
00262           23400.00
00263           23400.00
00264           23400.00
00265           23400.00
00266           23400.00
00267           23200.00
00268           23000.00
00269           22800.00
00270           22800.00
00271           22800.00
00272           22600.00
00273           22600.00
00274           22200.00
00275           22000.00
00276           22000.00
00277           21800.00
00278           21600.00
00279           21400.00
00280           21200.00
00281           21000.00
00282           21000.00
00283           20400.00
00284           20400.00
00285           20200.00
00286           20000.00
00287           19600.00
00288           19400.00
00289           19200.00
00290           18800.00
00291           18600.00
00292           18200.00
00293           18000.00
00294           17800.00
00295           17400.00
00296           17000.00
00297           16800.00
00298           16400.00
00299           16200.00
00300           15800.00
00301           15400.00
00302           15000.00
00303           14800.00
00304           14400.00
00305           14000.00
00306           13800.00
00307           13400.00
00308           13000.00
00309           12600.00
00310           12200.00
00311           11800.00
00312           11400.00
00313           11000.00
00314           10600.00
00315           10200.00
00316            9800.00
00317            9400.00
00318            9000.00
00319            8400.00
00320            8200.00
00321            7600.00
00322            7400.00
00323            6800.00
00324            6600.00
00325            6000.00
00326            5400.00
00327            5200.00
00328            4600.00
00329            4400.00
00330            3800.00
00331            3600.00
00332            2800.00
00333            2600.00
00334            2000.00
00335            1800.00
00336            1200.00
00337            1000.00
00338             400.00
00339            -200.00
00340            -600.00
00341           -1000.00
00342           -1400.00
00343           -1800.00
00344           -2200.00
00345           -2600.00
00346           -3000.00
00347           -3400.00
00348           -3800.00
00349           -4600.00
00350           -5200.00
00351           -5400.00
00352           -5400.00
00353           -6000.00
00354           -6600.00
00355           -7000.00
00356           -7200.00
00357           -7800.00
00358           -8200.00
00359           -8600.00
00360           -9200.00
00361           -9400.00
00362          -10000.00
00363          -10200.00
00364          -10600.00
00365          -11000.00
00366          -11600.00
00367          -11800.00
00368          -12400.00
00369          -12600.00
00370          -13200.00
00371          -13400.00
00372          -14000.00
00373          -14200.00
00374          -14600.00
00375          -15000.00
00376          -15400.00
00377          -15600.00
00378          -15800.00
00379          -16600.00
00380          -16600.00
00381          -17000.00
00382          -17200.00
00383          -17800.00
00384          -18000.00
00385          -18200.00
00386          -18600.00
00387          -18800.00
00388          -19000.00
00389          -19400.00
00390          -19600.00
00391          -19800.00
00392          -20200.00
00393          -20200.00
00394          -20400.00
00395          -20600.00
00396          -21000.00
00397          -21200.00
00398          -21400.00
00399          -21400.00
00400          -21600.00
00401          -21800.00
00402          -22000.00
00403          -22000.00
00404          -22200.00
00405          -22600.00
00406          -22600.00
00407          -22600.00
00408          -22800.00
00409          -23000.00
00410          -23000.00
00411          -23000.00
00412          -23000.00
00413          -23400.00
00414          -23400.00
00415          -23600.00
00416          -23600.00
00417          -23600.00
00418          -23600.00
00419          -23600.00
00420          -23600.00
00421          -23600.00
00422          -23600.00
00423          -23600.00
00424          -23600.00
00425          -23600.00
00426          -23600.00
00427          -23600.00
00428          -23600.00
00429          -23600.00
00430          -23600.00
00431          -23200.00
00432          -23400.00
00433          -23000.00
00434          -23000.00
00435          -23000.00
00436          -22800.00
00437          -22600.00
00438          -22600.00
00439          -22200.00
00440          -22200.00
00441          -22200.00
00442          -22000.00
00443          -21800.00
00444          -21800.00
00445          -21400.00
00446          -21400.00
00447          -21200.00
00448          -21000.00
00449          -20600.00
00450          -20400.00
00451          -20200.00
00452          -19800.00
00453          -19600.00
00454          -19400.00
00455          -19000.00
00456          -18800.00
00457          -18600.00
00458          -18200.00
00459          -18000.00
00460          -17800.00
00461          -17400.00
00462          -17000.00
00463          -17000.00
00464          -16400.00
00465          -16200.00
00466          -15600.00
00467          -15600.00
00468          -15000.00
00469          -14800.00
00470          -14200.00
00471          -14000.00
00472          -13800.00
00473          -13400.00
00474          -13000.00
00475          -12400.00
00476          -12200.00
00477          -11800.00
00478          -11400.00
00479          -11000.00
00480          -10600.00
00481          -10000.00
00482           -9800.00
00483           -9200.00
00484           -9000.00
00485           -8600.00
00486           -8200.00
00487           -7600.00
00488           -7400.00
00489           -6800.00
00490           -6200.00
00491           -6000.00
00492           -5600.00
00493           -5200.00
00494           -4600.00
00495           -4400.00
00496           -3800.00
00497           -3600.00
00498           -3000.00
00499           -2800.00
00500           -2000.00
00501           -1800.00
00502           -1200.00
00503            -600.00
00504            -400.00
00505             200.00
00506             400.00
00507            1000.00
00508            1400.00
00509            1800.00
00510            2200.00
00511            2600.00
00512            3000.00
00513            3400.00
00514            4000.00
00515            4400.00
00516            5000.00
00517            5400.00
00518            5800.00
00519            6000.00
00520            6600.00
00521            6800.00
00522            7400.00
00523            7800.00
00524            8200.00
00525            8600.00
00526            9000.00
00527            9200.00
00528            9800.00
00529           10200.00
00530           10600.00
00531           11000.00
00532           11600.00
00533           11600.00
00534           12200.00
00535           12600.00
00536           13000.00
00537           13400.00
00538           13800.00
00539           14000.00
00540           14600.00
00541           14800.00
00542           15400.00
00543           15400.00
00544           15800.00
00545           16400.00
00546           16600.00
00547           17000.00
00548           17200.00
00549           17400.00
00550           17800.00
00551           18000.00
00552           18600.00
00553           18600.00
00554           19000.00
00555           19400.00
00556           19400.00
00557           19800.00
00558           19800.00
00559           20200.00
00560           20400.00
00561           20600.00
00562           21000.00
00563           21200.00
00564           21200.00
00565           21400.00
00566           21800.00
00567           21800.00
00568           21800.00
00569           22200.00
00570           22200.00
00571           22400.00
00572           22600.00
00573           22600.00
00574           22800.00
00575           23000.00
00576           23000.00
00577           23000.00
00578           23400.00
00579           23400.00
00580           23400.00
00581           23400.00
00582           23600.00
00583           23600.00
00584           23600.00
00585           23600.00
00586           23600.00
00587           23600.00
00588           23800.00
00589           23600.00
00590           23600.00
00591           23600.00
00592           23400.00
00593           23600.00
00594           23400.00
00595           23400.00
00596           23400.00
00597           23400.00
00598           23400.00
00599           23000.00
00600           23000.00
00601           22800.00
00602           22800.00
00603           22800.00
00604           22600.00
00605           22600.00
00606           22200.00
00607           22200.00
00608           22000.00
00609           21800.00
00610           21400.00
00611           21400.00
00612           21200.00
00613           21000.00
00614           21000.00
00615           20600.00
00616           20400.00
00617           20200.00
00618           19800.00
00619           19600.00
00620           19600.00
00621           19400.00
00622           18800.00
00623           18600.00
00624           18200.00
00625           18000.00
00626           17800.00
00627           17200.00
00628           17000.00
00629           16800.00
00630           16400.00
00631           16200.00
00632           15600.00
00633           15400.00
00634           15000.00
00635           14800.00
00636           14600.00
00637           14200.00
00638           13800.00
00639           13200.00
00640           13000.00
00641           12600.00
00642           12200.00
00643           11800.00
00644           11600.00
00645           11000.00
00646           10600.00
00647           10200.00
00648           10000.00
00649            9400.00
00650            9000.00
00651            8600.00
00652            8200.00
00653            7800.00
00654            7400.00
00655            6800.00
00656            6600.00
00657            6000.00
00658            5400.00
00659            5200.00
00660            4600.00
00661            4200.00
00662            3800.00
00663            3400.00
00664            3000.00
00665            2600.00
00666            2200.00
00667            1800.00
00668            1400.00
00669             600.00
00670             400.00
00671             200.00
00672            -600.00
00673           -1000.00
00674           -1200.00
00675           -1800.00
00676           -2200.00
00677           -2600.00
00678           -2800.00
00679           -3200.00
00680           -3800.00
00681           -4600.00
00682           -5200.00
00683           -5400.00
00684           -5800.00
00685           -5800.00
00686           -6400.00
00687           -7000.00
00688           -7400.00
00689           -7800.00
00690           -8400.00
00691           -8600.00
00692           -9200.00
00693           -9400.00
00694          -10000.00
00695          -10200.00
00696          -10600.00
00697          -11000.00
00698          -11600.00
00699          -11800.00
00700          -12200.00
00701          -12600.00
00702          -13200.00
00703          -13400.00
00704          -13800.00
00705          -14200.00
00706          -14600.00
00707          -15000.00
00708          -15400.00
00709          -15600.00
00710          -16000.00
00711          -16200.00
00712          -16600.00
00713          -17000.00
00714          -17200.00
00715          -17600.00
00716          -17800.00
00717          -18200.00
00718          -18400.00
00719          -18800.00
00720          -19000.00
00721          -19200.00
00722          -19600.00
00723          -19800.00
00724          -20200.00
00725          -20200.00
00726          -20400.00
00727          -20800.00
00728          -21000.00
00729          -21200.00
00730          -21400.00
00731          -21400.00
00732          -21800.00
00733          -21800.00
00734          -22000.00
00735          -22200.00
00736          -22200.00
00737          -22600.00
00738          -22600.00
00739          -22800.00
00740          -22800.00
00741          -23000.00
00742          -23000.00
00743          -23200.00
00744          -23400.00
00745          -23400.00
00746          -23400.00
00747          -23600.00
00748          -23600.00
00749          -23600.00
00750          -23600.00
00751          -23600.00
00752          -23600.00
00753          -23600.00
00754          -23600.00
00755          -23600.00
00756          -23800.00
00757          -23600.00
00758          -23600.00
00759          -23600.00
00760          -23600.00
00761          -23600.00
00762          -23400.00
00763          -23400.00
00764          -23400.00
00765          -23000.00
00766          -23000.00
00767          -23000.00
00768          -23000.00
00769          -22800.00
00770          -22600.00
00771          -22600.00
00772          -22200.00
00773          -22200.00
00774          -22000.00
00775          -21800.00
00776          -21800.00
00777          -21600.00
00778          -21200.00
00779          -21200.00
00780          -21000.00
00781          -20600.00
00782          -20400.00
00783          -20200.00
00784          -19800.00
00785          -19600.00
00786          -19400.00
00787          -19000.00
00788          -18800.00
00789          -18600.00
00790          -18000.00
00791          -18000.00
00792          -17800.00
00793          -17400.00
00794          -17000.00
00795          -16600.00
00796          -16400.00
00797          -16200.00
00798          -15800.00
00799          -15400.00
00800          -15000.00
00801          -14800.00
00802          -14400.00
00803          -14000.00
00804          -13800.00
00805          -13400.00
00806          -13000.00
00807          -12600.00
00808          -12200.00
00809          -11800.00
00810          -11400.00
00811          -11000.00
00812          -10600.00
00813          -10200.00
00814          -10000.00
00815           -9200.00
00816           -9000.00
00817           -8600.00
00818           -8200.00
00819           -7600.00
00820           -7400.00
00821           -7000.00
00822           -6600.00
00823           -6200.00
00824           -5600.00
00825           -5200.00
00826           -4600.00
00827           -4400.00
00828           -3800.00
00829           -3600.00
00830           -3000.00
00831           -2600.00
00832           -2200.00
00833           -1800.00
00834           -1200.00
00835            -800.00
00836            -400.00
00837             200.00
00838             400.00
00839            1000.00
00840            1400.00
00841            1800.00
00842            2200.00
00843            2600.00
00844            2800.00
00845            3400.00
00846            3800.00
00847            4400.00
00848            5000.00
00849            5400.00
00850            5800.00
00851            6000.00
00852            6400.00
00853            6800.00
00854            7400.00
00855            7600.00
00856            8200.00
00857            8400.00
00858            9000.00
00859            9200.00
00860            9800.00
00861           10200.00
00862           10600.00
00863           11000.00
00864           11600.00
00865           11800.00
00866           12200.00
00867           12600.00
00868           13000.00
00869           13400.00
00870           13800.00
00871           14000.00
00872           14600.00
00873           14800.00
00874           15400.00
00875           15600.00
00876           15800.00
00877           16200.00
00878           16400.00
00879           17000.00
00880           17200.00
00881           17400.00
00882           18000.00
00883           18000.00
00884           18400.00
00885           18600.00
00886           19000.00
00887           19000.00
00888           19600.00
00889           19600.00
00890           19800.00
00891           20200.00
00892           20400.00
00893           20600.00
00894           20800.00
00895           21200.00
00896           21200.00
00897           21400.00
00898           21800.00
00899           21800.00
00900           21800.00
00901           22000.00
00902           22400.00
00903           22400.00
00904           22600.00
00905           22600.00
00906           22800.00
00907           23000.00
00908           23000.00
00909           23000.00
00910           23400.00
00911           23400.00
00912           23400.00
00913           23600.00
00914           23600.00
00915           23600.00
00916           23600.00
00917           23600.00
00918           23600.00
00919           23800.00
00920           23600.00
00921           23600.00
00922           23600.00
00923           23600.00
00924           23400.00
00925           23600.00
00926           23400.00
00927           23400.00
00928           23400.00
00929           23400.00
00930           23200.00
00931           23200.00
00932           23000.00
00933           23000.00
00934           22800.00
00935           22800.00
00936           22600.00
00937           22600.00
00938           22200.00
00939           22200.00
00940           22000.00
00941           21800.00
00942           21800.00
00943           21400.00
00944           21200.00
00945           21200.00
00946           21000.00
00947           20600.00
00948           20600.00
00949           20200.00
00950           19800.00
00951           19600.00
00952           19400.00
00953           19000.00
00954           18800.00
00955           18600.00
00956           18200.00
00957           18000.00
00958           17800.00
00959           17400.00
00960           17000.00
00961           16800.00
00962           16400.00
00963           16200.00
00964           15800.00
00965           15400.00
00966           15000.00
00967           14800.00
00968           14400.00
00969           14200.00
00970           13800.00
00971           13200.00
00972           13000.00
00973           12600.00
00974           12200.00
00975           11800.00
00976           11600.00
00977           11000.00
00978           10600.00
00979           10200.00
00980           10000.00
00981            9400.00
00982            9000.00
00983            8600.00
00984            8200.00
00985            7800.00
00986            7400.00
00987            7000.00
00988            6600.00
00989            6200.00
00990            5800.00
00991            5400.00
00992            4800.00
00993            4400.00
00994            3800.00
00995            3600.00
00996            2800.00
00997            2600.00
00998            2200.00
00999            1800.00
01000            1200.00
01001            1000.00
01002             400.00
01003               0.00
01004            -400.00
01005           -1000.00
01006           -1200.00
01007           -1800.00
01008           -2200.00
01009           -2600.00
01010           -3000.00
01011           -3400.00
01012           -3800.00
01013           -4400.00
01014           -5000.00
01015           -5400.00
01016           -5800.00
01017           -6000.00
01018           -6600.00
01019           -7000.00
01020           -7000.00
01021           -7800.00
01022           -8400.00
01023           -8600.00
01024           -9000.00
01025           -9400.00
01026           -9800.00
01027          -10200.00
01028          -10600.00
01029          -11000.00
01030          -11600.00
01031          -11800.00
01032          -12400.00
01033          -12600.00
01034          -13200.00
01035          -13400.00
01036          -13800.00
01037          -14200.00
01038          -14600.00
01039          -15000.00
01040          -15200.00
01041          -15600.00
01042          -15800.00
01043          -16200.00
01044          -16600.00
01045          -16800.00
01046          -17200.00
01047          -17400.00
01048          -17800.00
01049          -18200.00
01050          -18600.00
01051          -18800.00
01052          -19000.00
01053          -19400.00
01054          -19600.00
01055          -19600.00
01056          -19800.00
01057          -20200.00
01058          -20400.00
01059          -20400.00
01060          -20800.00
01061          -21200.00
01062          -21200.00
01063          -21400.00
01064          -21800.00
01065          -21800.00
01066          -22000.00
01067          -22000.00
01068          -22200.00
01069          -22600.00
01070          -22600.00
01071          -22800.00
01072          -22800.00
01073          -23000.00
01074          -23000.00
01075          -23200.00
01076          -23200.00
01077          -23400.00
01078          -23600.00
01079          -23600.00
01080          -23600.00
01081          -23600.00
01082          -23800.00
01083          -23600.00
01084          -23600.00
01085          -23800.00
01086          -23600.00
01087          -23600.00
01088          -23600.00
01089          -23600.00
01090          -23600.00
01091          -23600.00
01092          -23600.00
01093          -23600.00
01094          -23600.00
01095          -23400.00
01096          -23200.00
01097          -23000.00
01098          -23000.00
01099          -22800.00
01100          -22800.00
01101          -22800.00
01102          -22600.00
01103          -22400.00
01104          -22200.00
01105          -22200.00
01106          -22000.00
01107          -21800.00
01108          -21400.00
01109          -21400.00
01110          -21400.00
01111          -21000.00
01112          -21000.00
01113          -20600.00
01114          -20400.00
01115          -20200.00
01116          -19800.00
01117          -19800.00
01118          -19400.00
01119          -19000.00
01120          -18800.00
01121          -18600.00
01122          -18200.00
01123          -18000.00
01124          -17400.00
01125          -17400.00
01126          -17200.00
01127          -16800.00
01128          -16400.00
01129          -16200.00
01130          -15800.00
01131          -15600.00
01132          -15000.00
01133          -14800.00
01134          -14400.00
01135          -14000.00
01136          -13800.00
01137          -13400.00
01138          -13000.00
01139          -12600.00
01140          -12200.00
01141          -11800.00
01142          -11400.00
01143          -11000.00
01144          -10600.00
01145          -10200.00
01146          -10000.00
01147           -9400.00
01148           -9200.00
01149           -8600.00
01150           -8200.00
01151           -7800.00
01152           -7400.00
01153           -7000.00
01154           -6600.00
01155           -6000.00
01156           -5400.00
01157           -5200.00
01158           -4800.00
01159           -4400.00
01160           -3800.00
01161           -3600.00
01162           -3000.00
01163           -2600.00
01164           -2200.00
01165           -1800.00
01166           -1200.00
01167           -1000.00
01168            -400.00
01169             200.00
01170             400.00
01171            1000.00
01172            1400.00
01173            1800.00
01174            2200.00
01175            2600.00
01176            3000.00
01177            3400.00
01178            4000.00
01179            4400.00
01180            5000.00
01181            5400.00
01182            5800.00
01183            6000.00
01184            6600.00
01185            7000.00
01186            7400.00
01187            7600.00
01188            8200.00
01189            8400.00
01190            9000.00
01191            9400.00
01192            9800.00
01193           10200.00
01194           10600.00
01195           11000.00
01196           11600.00
01197           11800.00
01198           12200.00
01199           12600.00
01200           13000.00
01201           13200.00
01202           13800.00
01203           14200.00
01204           14400.00
01205           14800.00
01206           15200.00
01207           15600.00
01208           15800.00
01209           16200.00
01210           16400.00
01211           17000.00
01212           17000.00
01213           17400.00
01214           17800.00
01215           18200.00
01216           18200.00
01217           18600.00
01218           18800.00
01219           19400.00
01220           19400.00
01221           19600.00
01222           19800.00
01223           20200.00
01224           20400.00
01225           20600.00
01226           20800.00
01227           21000.00
01228           21200.00
01229           21400.00
01230           21600.00
01231           21800.00
01232           21800.00
01233           22200.00
01234           22400.00
01235           22600.00
01236           22600.00
01237           22600.00
01238           22800.00
01239           23000.00
01240           23000.00
01241           23400.00
01242           23400.00
01243           23400.00
01244           23400.00
01245           23400.00
01246           23600.00
01247           23600.00
01248           23600.00
01249           23600.00
01250           23600.00
01251           23800.00
01252           23600.00
01253           23600.00
01254           23600.00
01255           23800.00
01256           23600.00
01257           23600.00
01258           23400.00
01259           23600.00
01260           23400.00
01261           23400.00
01262           23400.00
01263           23000.00
01264           23000.00
01265           23000.00
01266           22800.00
01267           22800.00
01268           22800.00
01269           22600.00
01270           22600.00
01271           22200.00
01272           22000.00
01273           21800.00
01274           21600.00
01275           21400.00
01276           21200.00
01277           21000.00
01278           20800.00
01279           20600.00
01280           20400.00
01281           20200.00
01282           19800.00
01283           19600.00
01284           19400.00
01285           19200.00
01286           18800.00
01287           18600.00
01288           18200.00
01289           18000.00
01290           17800.00
01291           17400.00
01292           17000.00
01293           17000.00
01294           16400.00
01295           16200.00
01296           15800.00
01297           15600.00
01298           15000.00
01299           14800.00
01300           14600.00
01301           14200.00
01302           13800.00
01303           13400.00
01304           13000.00
01305           12600.00
01306           12200.00
01307           11800.00
01308           11600.00
01309           11000.00
01310           10600.00
01311           10200.00
01312           10000.00
01313            9400.00
01314            9200.00
01315            8600.00
01316            8400.00
01317            8000.00
01318            7400.00
01319            7000.00
01320            6600.00
01321            6200.00
01322            5800.00
01323            5200.00
01324            5000.00
01325            4400.00
01326            4200.00
01327            3600.00
01328            3000.00
01329            2600.00
01330            2200.00
01331            1800.00
01332            1400.00
01333             800.00
01334             400.00
01335             200.00
01336            -400.00
01337           -1000.00
01338           -1200.00
01339           -1800.00
01340           -2200.00
01341           -2600.00
01342           -2800.00
01343           -3200.00
01344           -3800.00
01345           -4600.00
01346           -5200.00
01347           -5400.00
01348           -5800.00
01349           -6000.00
01350           -6200.00
01351           -7000.00
01352           -7000.00
01353           -7600.00
01354           -8200.00
01355           -8600.00
01356           -9000.00
01357           -9400.00
01358           -9800.00
01359          -10200.00
01360          -10600.00
01361          -11000.00
01362          -11400.00
01363          -11800.00
01364          -12400.00
01365          -12600.00
01366          -13000.00
01367          -13400.00
01368          -13800.00
01369          -14000.00
01370          -14200.00
01371          -14600.00
01372          -15000.00
01373          -15600.00
01374          -15800.00
01375          -16200.00
01376          -16600.00
01377          -16800.00
01378          -17200.00
01379          -17400.00
01380          -17800.00
01381          -18000.00
01382          -18200.00
01383          -18800.00
01384          -19000.00
01385          -19000.00
01386          -19400.00
01387          -19800.00
01388          -19800.00
01389          -20200.00
01390          -20400.00
01391          -20600.00
01392          -21000.00
01393          -21000.00
01394          -21400.00
01395          -21400.00
01396          -21600.00
01397          -21800.00
01398          -22000.00
01399          -22000.00
01400          -22200.00
01401          -22400.00
01402          -22600.00
01403          -22800.00
01404          -22800.00
01405          -23000.00
01406          -23000.00
01407          -23000.00
01408          -23400.00
01409          -23400.00
01410          -23400.00
01411          -23800.00
01412          -23600.00
01413          -23600.00
01414          -23600.00
01415          -23600.00
01416          -23800.00
01417          -23600.00
01418          -23600.00
01419          -23800.00
01420          -23600.00
01421          -23600.00
01422          -23600.00
01423          -23600.00
01424          -23600.00
01425          -23600.00
01426          -23400.00
01427          -23600.00
01428          -23400.00
01429          -23000.00
01430          -23200.00
01431          -23000.00
01432          -22800.00
01433          -22800.00
01434          -22600.00
01435          -22400.00
01436          -22200.00
01437          -22000.00
01438          -22000.00
01439          -22000.00
01440          -21800.00
01441          -21400.00
01442          -21200.00
01443          -21000.00
01444          -20600.00
01445          -20600.00
01446          -20400.00
01447          -20200.00
01448          -19800.00
01449          -19600.00
01450          -19400.00
01451          -19000.00
01452          -18800.00
01453          -18600.00
01454          -18200.00
01455          -18000.00
01456          -17600.00
01457          -17400.00
01458          -17200.00
01459          -16600.00
01460          -16400.00
01461          -16000.00
01462          -15800.00
01463          -15600.00
01464          -15000.00
01465          -14800.00
01466          -14400.00
01467          -14000.00
01468          -13800.00
01469          -13400.00
01470          -13200.00
01471          -12600.00
01472          -12400.00
01473          -11800.00
01474          -11600.00
01475          -11000.00
01476          -10800.00
01477          -10200.00
01478           -9800.00
01479           -9400.00
01480           -9000.00
01481           -8600.00
01482           -8400.00
01483           -7800.00
01484           -7400.00
01485           -7000.00
01486           -6600.00
01487           -6200.00
01488           -5800.00
01489           -5200.00
01490           -4800.00
01491           -4600.00
01492           -3800.00
01493           -3600.00
01494           -3000.00
01495           -2800.00
01496           -2200.00
01497           -1800.00
01498           -1200.00
01499            -600.00
01500            -400.00
01501               0.00
01502             400.00
01503             600.00
01504            1400.00
01505            1400.00
01506            2000.00
01507            2600.00
01508            3000.00
01509            3400.00
01510            3800.00
01511            4200.00
01512            5000.00
01513            5200.00
01514            5800.00
01515            6000.00
01516            6400.00
01517            6800.00
01518            7200.00
01519            7600.00
01520            8200.00
01521            8600.00
01522            9000.00
01523            9200.00
01524            9800.00
01525           10000.00
01526           10600.00
01527           11000.00
01528           11400.00
01529           11800.00
01530           12200.00
01531           12400.00
01532           13000.00
01533           13400.00
01534           13600.00
01535           14000.00
01536           14600.00
01537           14800.00
01538           15000.00
01539           15600.00
01540           15800.00
01541           16200.00
01542           16400.00
01543           16800.00
01544           17000.00
01545           17400.00
01546           17800.00
01547           18000.00
01548           18400.00
01549           18600.00
01550           18800.00
01551           19000.00
01552           19400.00
01553           19600.00
01554           19800.00
01555           20200.00
01556           20400.00
01557           20600.00
01558           20600.00
01559           21000.00
01560           21200.00
01561           21400.00
01562           21400.00
01563           21800.00
01564           21800.00
01565           22200.00
01566           22200.00
01567           22400.00
01568           22800.00
01569           22800.00
01570           22800.00
01571           22800.00
01572           23000.00
01573           23000.00
01574           23000.00
01575           23400.00
01576           23400.00
01577           23400.00
01578           23600.00
01579           23600.00
01580           23600.00
01581           23600.00
01582           23600.00
01583           23800.00
01584           23600.00
01585           23600.00
01586           23600.00
01587           23600.00
01588           23600.00
01589           23600.00
01590           23600.00
01591           23400.00
01592           23400.00
01593           23400.00
01594           23400.00
01595           23200.00
01596           23000.00
01597           22800.00
01598           22800.00
01599           22800.00
01600           22600.00
01601           22400.00
01602           22200.00
01603           22200.00
01604           22000.00
01605           21800.00
01606           21800.00
01607           21400.00
01608           21200.00
01609           21200.00
01610           21000.00
01611           20600.00
01612           20600.00
01613           20200.00
01614           19800.00
01615           19600.00
01616           19600.00
01617           19200.00
01618           18800.00
01619           18600.00
01620           18400.00
01621           18000.00
01622           17800.00
01623           17400.00
01624           17200.00
01625           16800.00
01626           16400.00
01627           16200.00
01628           15800.00
01629           15600.00
01630           15200.00
01631           14800.00
01632           14600.00
01633           14200.00
01634           13800.00
01635           13400.00
01636           13200.00
01637           12600.00
01638           12400.00
01639           12000.00
01640           11600.00
01641           11200.00
01642           10800.00
01643           10200.00
01644           10000.00
01645            9400.00
01646            9000.00
01647            8600.00
01648            8400.00
01649            7800.00
01650            7400.00
01651            7000.00
01652            6600.00
01653            6000.00
01654            5800.00
01655            5200.00
01656            4800.00
01657            4400.00
01658            3800.00
01659            3600.00
01660            3200.00
01661            2800.00
01662            2200.00
01663            2000.00
01664            1200.00
01665            1000.00
01666             600.00
01667               0.00
01668            -600.00
01669            -600.00
01670           -1200.00
01671           -1800.00
01672           -2000.00
01673           -2600.00
01674           -2800.00
01675           -3200.00
01676           -3800.00
01677           -4400.00
01678           -5000.00
01679           -5400.00
01680           -5800.00
01681           -6000.00
01682           -6200.00
01683           -7000.00
01684           -7000.00
01685           -7600.00
01686           -8200.00
01687           -8600.00
01688           -9000.00
01689           -9400.00
01690           -9800.00
01691          -10200.00
01692          -10600.00
01693          -11000.00
01694          -11400.00
01695          -11800.00
01696          -12200.00
01697          -12400.00
01698          -13000.00
01699          -13400.00
01700          -13400.00
01701          -14000.00
01702          -14200.00
01703          -14600.00
01704          -15000.00
01705          -15400.00
01706          -15800.00
01707          -16200.00
01708          -16400.00
01709          -16600.00
01710          -17200.00
01711          -17400.00
01712          -17800.00
01713          -17800.00
01714          -18200.00
01715          -18800.00
01716          -18800.00
01717          -19000.00
01718          -19400.00
01719          -19800.00
01720          -19800.00
01721          -20200.00
01722          -20400.00
01723          -20400.00
01724          -21000.00
01725          -21000.00
01726          -21400.00
01727          -21200.00
01728          -21600.00
01729          -21800.00
01730          -22000.00
01731          -22200.00
01732          -22200.00
01733          -22600.00
01734          -22800.00
01735          -22800.00
01736          -22800.00
01737          -23000.00
01738          -23200.00
01739          -23000.00
01740          -23400.00
01741          -23600.00
01742          -23400.00
01743          -23600.00
01744          -23600.00
01745          -23600.00
01746          -23600.00
01747          -23600.00
01748          -23600.00
01749          -23600.00
01750          -23800.00
01751          -23600.00
01752          -23600.00
01753          -23600.00
01754          -23600.00
01755          -23600.00
01756          -23400.00
01757          -23600.00
01758          -23400.00
01759          -23400.00
01760          -23200.00
01761          -23000.00
01762          -23000.00
01763          -23000.00
01764          -22800.00
01765          -22600.00
01766          -22600.00
01767          -22600.00
01768          -22200.00
01769          -22200.00
01770          -22000.00
01771          -21800.00
01772          -21600.00
01773          -21400.00
01774          -21400.00
01775          -21000.00
01776          -20800.00
01777          -20600.00
01778          -20400.00
01779          -20000.00
01780          -19800.00
01781          -19800.00
01782          -19400.00
01783          -19000.00
01784          -18800.00
01785          -18600.00
01786          -18200.00
01787          -18000.00
01788          -17800.00
01789          -17400.00
01790          -17200.00
01791          -16800.00
01792          -16400.00
01793          -16200.00
01794          -15800.00
01795          -15600.00
01796          -15000.00
01797          -14800.00
01798          -14600.00
01799          -14200.00
01800          -13800.00
01801          -13400.00
01802          -13200.00
01803          -12600.00
01804          -12200.00
01805          -11800.00
01806          -11400.00
01807          -11000.00
01808          -10800.00
01809          -10200.00
01810           -9800.00
01811           -9400.00
01812           -9200.00
01813           -8600.00
01814           -8400.00
01815           -7800.00
01816           -7400.00
01817           -7000.00
01818           -6600.00
01819           -6200.00
01820           -5800.00
01821           -5200.00
01822           -5000.00
01823           -4400.00
01824           -4000.00
01825           -3400.00
01826           -3000.00
01827           -2600.00
01828           -2200.00
01829           -1800.00
01830           -1200.00
01831           -1000.00
01832            -400.00
01833               0.00
01834             400.00
01835            1000.00
01836            1400.00
01837            1800.00
01838            2200.00
01839            2600.00
01840            3000.00
01841            3400.00
01842            3800.00
01843            4200.00
01844            5000.00
01845            5200.00
01846            5800.00
01847            6000.00
01848            6400.00
01849            7000.00
01850            7400.00
01851            7600.00
01852            8200.00
01853            8600.00
01854            9000.00
01855            9200.00
01856            9800.00
01857           10000.00
01858           10600.00
01859           11000.00
01860           11400.00
01861           11800.00
01862           12200.00
01863           12400.00
01864           13000.00
01865           13200.00
01866           13400.00
01867           14000.00
01868           14400.00
01869           14800.00
01870           15000.00
01871           15400.00
01872           15800.00
01873           16200.00
01874           16400.00
01875           16600.00
01876           17000.00
01877           17400.00
01878           17800.00
01879           18000.00
01880           18200.00
01881           18600.00
01882           18800.00
01883           19400.00
01884           19600.00
01885           19600.00
01886           20000.00
01887           20200.00
01888           20400.00
01889           20600.00
01890           21000.00
01891           21000.00
01892           21200.00
01893           21400.00
01894           21600.00
01895           21800.00
01896           22000.00
01897           22000.00
01898           22200.00
01899           22600.00
01900           22600.00
01901           22800.00
01902           22800.00
01903           22800.00
01904           23000.00
01905           23200.00
01906           23400.00
01907           23400.00
01908           23400.00
01909           23600.00
01910           23600.00
01911           23600.00
01912           23600.00
01913           23600.00
01914           23600.00
01915           23600.00
01916           23800.00
01917           23600.00
01918           23600.00
01919           23600.00
01920           23600.00
01921           23600.00
01922           23400.00
01923           23400.00
01924           23400.00
01925           23400.00
01926           23400.00
01927           23000.00
01928           23000.00
01929           22800.00
01930           22800.00
01931           22800.00
01932           22600.00
01933           22600.00
01934           22200.00
01935           22000.00
01936           22000.00
01937           21800.00
01938           21800.00
01939           21400.00
01940           21200.00
01941           21200.00
01942           21000.00
01943           20600.00
01944           20400.00
01945           20200.00
01946           19800.00
01947           19600.00
01948           19400.00
01949           19000.00
01950           18800.00
01951           18600.00
01952           18400.00
01953           18000.00
01954           17800.00
01955           17400.00
01956           17000.00
01957           17000.00
01958           16600.00
01959           16200.00
01960           15800.00
01961           15400.00
01962           15400.00
01963           14800.00
01964           14600.00
01965           14200.00
01966           13800.00
01967           13600.00
01968           13000.00
01969           13000.00
01970           12200.00
01971           12200.00
01972           11600.00
01973           11200.00
01974           10800.00
01975           10400.00
01976           10000.00
01977            9600.00
01978            9000.00
01979            8800.00
01980            8400.00
01981            8200.00
01982            7400.00
01983            7000.00
01984            6800.00
01985            6200.00
01986            5800.00
01987            5400.00
01988            5000.00
01989            4400.00
01990            4000.00
01991            3600.00
01992            3000.00
01993            2600.00
01994            2200.00
01995            1800.00
01996            1200.00
01997            1000.00
01998             400.00
01999             200.00
02000            -400.00
02001           -1000.00
02002           -1200.00
02003           -1800.00
02004           -2000.00
02005           -2600.00
02006           -2800.00
02007           -3200.00
02008           -3800.00
02009           -4400.00
02010           -5000.00
02011           -5400.00
02012           -5800.00
02013           -5800.00
02014           -6200.00
02015           -7000.00
02016           -7200.00
02017           -7600.00
02018           -8200.00
02019           -8200.00
02020           -9000.00
02021           -9200.00
02022           -9800.00
02023          -10200.00
02024          -10600.00
02025          -10800.00
02026          -11400.00
02027          -11600.00
02028          -12400.00
02029          -12600.00
02030          -13000.00
02031          -13200.00
02032          -13400.00
02033          -14000.00
02034          -14200.00
02035          -14800.00
02036          -15000.00
02037          -15400.00
02038          -15800.00
02039          -16000.00
02040          -16400.00
02041          -16600.00
02042          -17200.00
02043          -17400.00
02044          -17800.00
02045          -18000.00
02046          -18200.00
02047          -18600.00
02048          -18800.00
02049          -19000.00
02050          -19600.00
02051          -19600.00
02052          -19800.00
02053          -20200.00
02054          -20400.00
02055          -20400.00
02056          -21000.00
02057          -21200.00
02058          -21200.00
02059          -21400.00
02060          -21400.00
02061          -22000.00
02062          -22000.00
02063          -22200.00
02064          -22200.00
02065          -22200.00
02066          -22600.00
02067          -22800.00
02068          -22800.00
02069          -23000.00
02070          -23000.00
02071          -23000.00
02072          -23400.00
02073          -23400.00
02074          -23400.00
02075          -23400.00
02076          -23600.00
02077          -23600.00
02078          -23600.00
02079          -23600.00
02080          -23600.00
02081          -23600.00
02082          -23600.00
02083          -23600.00
02084          -23600.00
02085          -23600.00
02086          -23600.00
02087          -23600.00
02088          -23600.00
02089          -23400.00
02090          -23400.00
02091          -23200.00
02092          -23200.00
02093          -23000.00
02094          -23000.00
02095          -23000.00
02096          -22800.00
02097          -22800.00
02098          -22600.00
02099          -22400.00
02100          -22200.00
02101          -22200.00
02102          -22000.00
02103          -21800.00
02104          -21800.00
02105          -21400.00
02106          -21400.00
02107          -21200.00
02108          -20800.00
02109          -20600.00
02110          -20400.00
02111          -20200.00
02112          -19800.00
02113          -19600.00
02114          -19400.00
02115          -19000.00
02116          -18800.00
02117          -18800.00
02118          -18200.00
02119          -18000.00
02120          -18000.00
02121          -17400.00
02122          -17200.00
02123          -16800.00
02124          -16600.00
02125          -16400.00
02126          -15800.00
02127          -15600.00
02128          -15200.00
02129          -14800.00
02130          -14600.00
02131          -14200.00
02132          -13800.00
02133          -13400.00
02134          -13200.00
02135          -12600.00
02136          -12400.00
02137          -12000.00
02138          -11400.00
02139          -11200.00
02140          -10800.00
02141          -10200.00
02142          -10000.00
02143           -9400.00
02144           -9200.00
02145           -8600.00
02146           -8200.00
02147           -7800.00
02148           -7600.00
02149           -7000.00
02150           -6600.00
02151           -6000.00
02152           -5600.00
02153           -5200.00
02154           -4800.00
02155           -4400.00
02156           -3800.00
02157           -3600.00
02158           -3000.00
02159           -2800.00
02160           -2200.00
02161           -1800.00
02162           -1200.00
02163            -800.00
02164            -400.00
02165               0.00
02166             400.00
02167            1000.00
02168            1200.00
02169            1800.00
02170            2200.00
02171            2600.00
02172            2800.00
02173            3400.00
02174            3600.00
02175            4200.00
02176            5000.00
02177            5400.00
02178            5800.00
02179            6000.00
02180            6200.00
02181            6800.00
02182            7200.00
02183            7600.00
02184            8200.00
02185            8400.00
02186            9000.00
02187            9200.00
02188            9800.00
02189           10200.00
02190           10600.00
02191           10800.00
02192           11400.00
02193           11600.00
02194           12200.00
02195           12400.00
02196           12600.00
02197           13200.00
02198           13400.00
02199           14000.00
02200           14200.00
02201           14600.00
02202           14800.00
02203           15400.00
02204           15600.00
02205           16200.00
02206           16400.00
02207           16600.00
02208           17000.00
02209           17200.00
02210           17600.00
02211           18000.00
02212           18200.00
02213           18600.00
02214           18800.00
02215           19000.00
02216           19400.00
02217           19600.00
02218           20000.00
02219           20200.00
02220           20400.00
02221           20600.00
02222           20800.00
02223           21000.00
02224           21200.00
02225           21400.00
02226           21800.00
02227           21800.00
02228           21800.00
02229           22000.00
02230           22600.00
02231           22400.00
02232           22600.00
02233           22600.00
02234           22800.00
02235           22800.00
02236           22800.00
02237           23000.00
02238           23000.00
02239           23400.00
02240           23400.00
02241           23400.00
02242           23600.00
02243           23600.00
02244           23600.00
02245           23600.00
02246           23600.00
02247           23600.00
02248           23800.00
02249           23600.00
02250           23600.00
02251           23600.00
02252           23600.00
02253           23600.00
02254           23400.00
02255           23400.00
02256           23400.00
02257           23400.00
02258           23000.00
02259           23000.00
02260           23000.00
02261           22800.00
02262           22800.00
02263           22600.00
02264           22600.00
02265           22200.00
02266           22200.00
02267           22200.00
02268           21800.00
02269           21800.00
02270           21800.00
02271           21400.00
02272           21200.00
02273           21200.00
02274           21000.00
02275           20400.00
02276           20400.00
02277           20200.00
02278           20000.00
02279           19600.00
02280           19600.00
02281           19400.00
02282           19000.00
02283           18600.00
02284           18400.00
02285           18000.00
02286           17800.00
02287           17400.00
02288           17200.00
02289           17000.00
02290           16600.00
02291           16400.00
02292           15800.00
02293           15600.00
02294           15400.00
02295           15000.00
02296           14600.00
02297           14200.00
02298           14000.00
02299           13400.00
02300           13200.00
02301           12800.00
02302           12400.00
02303           12200.00
02304           11600.00
02305           11400.00
02306           10800.00
02307           10400.00
02308           10000.00
02309            9800.00
02310            9200.00
02311            8600.00
02312            8400.00
02313            7800.00
02314            7600.00
02315            7000.00
02316            6800.00
02317            6200.00
02318            5800.00
02319            5200.00
02320            4800.00
02321            4400.00
02322            4000.00
02323            3600.00
02324            3000.00
02325            2600.00
02326            2200.00
02327            1800.00
02328            1400.00
02329            1000.00
02330             400.00
02331             200.00
02332            -400.00
02333           -1000.00
02334           -1200.00
02335           -1800.00
02336           -2000.00
02337           -2400.00
02338           -2800.00
02339           -3000.00
02340           -3600.00
02341           -4400.00
02342           -5000.00
02343           -5400.00
02344           -5800.00
02345           -6000.00
02346           -6000.00
02347           -6800.00
02348           -7000.00
02349           -7600.00
02350           -8200.00
02351           -8400.00
02352           -9000.00
02353           -9400.00
02354           -9400.00
02355          -10000.00
02356          -10200.00
02357          -10800.00
02358          -11400.00
02359          -11800.00
02360          -12000.00
02361          -12400.00
02362          -13000.00
02363          -13200.00
02364          -13400.00
02365          -14000.00
02366          -14200.00
02367          -14600.00
02368          -15000.00
02369          -15400.00
02370          -15600.00
02371          -16200.00
02372          -16400.00
02373          -16600.00
02374          -17000.00
02375          -17200.00
02376          -17800.00
02377          -18000.00
02378          -18200.00
02379          -18600.00
02380          -18800.00
02381          -19000.00
02382          -19600.00
02383          -19600.00
02384          -19800.00
02385          -20200.00
02386          -20400.00
02387          -20600.00
02388          -20800.00
02389          -21000.00
02390          -21200.00
02391          -21400.00
02392          -21800.00
02393          -21800.00
02394          -22000.00
02395          -22200.00
02396          -22200.00
02397          -22400.00
02398          -22800.00
02399          -22800.00
02400          -23000.00
02401          -23000.00
02402          -23000.00
02403          -23000.00
02404          -23400.00
02405          -23400.00
02406          -23400.00
02407          -23600.00
02408          -23600.00
02409          -23600.00
02410          -23600.00
02411          -23600.00
02412          -23600.00
02413          -23600.00
02414          -23600.00
02415          -23600.00
02416          -23600.00
02417          -23600.00
02418          -23400.00
02419          -23600.00
02420          -23400.00
02421          -23400.00
02422          -23400.00
02423          -23400.00
02424          -23000.00
02425          -23000.00
02426          -23000.00
02427          -23000.00
02428          -22800.00
02429          -22800.00
02430          -22600.00
02431          -22600.00
02432          -22200.00
02433          -22200.00
02434          -22000.00
02435          -21800.00
02436          -21400.00
02437          -21400.00
02438          -21200.00
02439          -21200.00
02440          -21000.00
02441          -20400.00
02442          -20400.00
02443          -20200.00
02444          -19800.00
02445          -19600.00
02446          -19400.00
02447          -19000.00
02448          -18800.00
02449          -18800.00
02450          -18400.00
02451          -18000.00
02452          -17800.00
02453          -17400.00
02454          -17200.00
02455          -17000.00
02456          -16600.00
02457          -16200.00
02458          -15800.00
02459          -15600.00
02460          -15200.00
02461          -15000.00
02462          -14600.00
02463          -14200.00
02464          -14000.00
02465          -13400.00
02466          -13200.00
02467          -12800.00
02468          -12400.00
02469          -11800.00
02470          -11600.00
02471          -11000.00
02472          -10800.00
02473          -10400.00
02474          -10200.00
02475           -9600.00
02476           -9200.00
02477           -8600.00
02478           -8200.00
02479           -7800.00
02480           -7400.00
02481           -7000.00
02482           -6800.00
02483           -6200.00
02484           -5800.00
02485           -5400.00
02486           -5000.00
02487           -4400.00
02488           -4000.00
02489           -3600.00
02490           -3000.00
02491           -2600.00
02492           -2200.00
02493           -1800.00
02494           -1400.00
02495           -1000.00
02496            -400.00
02497            -200.00
02498             400.00
02499            1000.00
02500            1200.00
02501            1800.00
02502            2000.00
02503            2600.00
02504            2600.00
02505            3400.00
02506            3600.00
02507            4200.00
02508            4600.00
02509            5200.00
02510            5800.00
02511            5800.00
02512            6200.00
02513            6800.00
02514            7000.00
02515            7400.00
02516            8000.00
02517            8400.00
02518            8800.00
02519            9200.00
02520            9600.00
02521           10000.00
02522           10600.00
02523           10800.00
02524           11400.00
02525           11600.00
02526           12000.00
02527           12400.00
02528           13000.00
02529           13200.00
02530           13400.00
02531           13800.00
02532           14400.00
02533           14800.00
02534           15000.00
02535           15400.00
02536           15600.00
02537           16200.00
02538           16400.00
02539           16600.00
02540           17000.00
02541           17200.00
02542           17800.00
02543           18000.00
02544           18200.00
02545           18600.00
02546           18800.00
02547           19000.00
02548           19400.00
02549           19600.00
02550           19800.00
02551           20200.00
02552           20400.00
02553           20600.00
02554           20800.00
02555           21200.00
02556           21400.00
02557           21400.00
02558           21800.00
02559           21800.00
02560           21800.00
02561           22000.00
02562           22200.00
02563           22600.00
02564           22600.00
02565           22800.00
02566           22800.00
02567           22800.00
02568           23000.00
02569           23200.00
02570           23400.00
02571           23400.00
02572           23400.00
02573           23400.00
02574           23400.00
02575           23600.00
02576           23600.00
02577           23600.00
02578           23600.00
02579           23600.00
02580           23600.00
02581           23600.00
02582           23600.00
02583           23600.00
02584           23600.00
02585           23400.00
02586           23600.00
02587           23400.00
02588           23400.00
02589           23400.00
02590           23000.00
02591           23000.00
02592           23000.00
02593           22800.00
02594           22800.00
02595           22800.00
02596           22600.00
02597           22400.00
02598           22200.00
02599           22200.00
02600           21800.00
02601           21800.00
02602           21800.00
02603           21400.00
02604           21400.00
02605           21000.00
02606           21000.00
02607           20800.00
02608           20400.00
02609           20200.00
02610           20000.00
02611           19600.00
02612           19600.00
02613           19000.00
02614           18800.00
02615           18600.00
02616           18600.00
02617           18200.00
02618           18000.00
02619           17400.00
02620           17200.00
02621           17000.00
02622           16600.00
02623           16400.00
02624           15800.00
02625           15600.00
02626           15400.00
02627           15000.00
02628           14600.00
02629           14200.00
02630           13800.00
02631           13400.00
02632           13200.00
02633           12600.00
02634           12400.00
02635           12200.00
02636           11600.00
02637           11400.00
02638           10800.00
02639           10400.00
02640           10000.00
02641            9400.00
02642            9200.00
02643            8600.00
02644            8400.00
02645            7800.00
02646            7600.00
02647            7000.00
02648            6800.00
02649            6200.00
02650            5800.00
02651            5400.00
02652            5000.00
02653            4600.00
02654            4000.00
02655            3600.00
02656            3200.00
02657            2600.00
02658            2200.00
02659            1800.00
02660            1400.00
02661            1000.00
02662             400.00
02663             200.00
02664            -400.00
02665            -600.00
02666           -1200.00
02667           -1800.00
02668           -2000.00
02669           -2400.00
02670           -2800.00
02671           -3000.00
02672           -3600.00
02673           -4400.00
02674           -5000.00
02675           -5200.00
02676           -5800.00
02677           -6000.00
02678           -6000.00
02679           -6800.00
02680           -7000.00
02681           -7600.00
02682           -8200.00
02683           -8400.00
02684           -8600.00
02685           -9200.00
02686           -9400.00
02687          -10200.00
02688          -10600.00
02689          -10800.00
02690          -11400.00
02691          -11600.00
02692          -12200.00
02693          -12200.00
02694          -12800.00
02695          -13200.00
02696          -13400.00
02697          -14000.00
02698          -14200.00
02699          -14800.00
02700          -15000.00
02701          -15600.00
02702          -15600.00
02703          -16200.00
02704          -16600.00
02705          -16600.00
02706          -17200.00
02707          -17400.00
02708          -17800.00
02709          -18000.00
02710          -18200.00
02711          -18600.00
02712          -18800.00
02713          -19000.00
02714          -19400.00
02715          -19600.00
02716          -19800.00
02717          -20200.00
02718          -20400.00
02719          -20600.00
02720          -20800.00
02721          -21000.00
02722          -21400.00
02723          -21400.00
02724          -21400.00
02725          -21800.00
02726          -22000.00
02727          -22000.00
02728          -22200.00
02729          -22600.00
02730          -22600.00
02731          -22600.00
02732          -22800.00
02733          -23000.00
02734          -23000.00
02735          -23200.00
02736          -23400.00
02737          -23200.00
02738          -23400.00
02739          -23600.00
02740          -23400.00
02741          -23600.00
02742          -23600.00
02743          -23600.00
02744          -23600.00
02745          -23600.00
02746          -23600.00
02747          -23600.00
02748          -23600.00
02749          -23600.00
02750          -23600.00
02751          -23600.00
02752          -23400.00
02753          -23400.00
02754          -23400.00
02755          -23400.00
02756          -23400.00
02757          -23000.00
02758          -23000.00
02759          -23000.00
02760          -22800.00
02761          -22800.00
02762          -22600.00
02763          -22200.00
02764          -22200.00
02765          -22200.00
02766          -21800.00
02767          -22000.00
02768          -21600.00
02769          -21400.00
02770          -21200.00
02771          -21000.00
02772          -21000.00
02773          -20600.00
02774          -20400.00
02775          -20200.00
02776          -20200.00
02777          -19800.00
02778          -19600.00
02779          -19400.00
02780          -19000.00
02781          -18800.00
02782          -18600.00
02783          -18000.00
02784          -17800.00
02785          -17400.00
02786          -17200.00
02787          -17000.00
02788          -16600.00
02789          -16200.00
02790          -15800.00
02791          -15600.00
02792          -15400.00
02793          -15000.00
02794          -14600.00
02795          -14200.00
02796          -13800.00
02797          -13600.00
02798          -13200.00
02799          -12600.00
02800          -12400.00
02801          -11800.00
02802          -11600.00
02803          -11000.00
02804          -10800.00
02805          -10200.00
02806          -10000.00
02807           -9400.00
02808           -9200.00
02809           -8800.00
02810           -8400.00
02811           -7800.00
02812           -7400.00
02813           -7000.00
02814           -6800.00
02815           -6200.00
02816           -5800.00
02817           -5200.00
02818           -5000.00
02819           -4400.00
02820           -3800.00
02821           -3600.00
02822           -3000.00
02823           -2800.00
02824           -2200.00
02825           -1800.00
02826           -1200.00
02827           -1000.00
02828            -600.00
02829               0.00
02830             400.00
02831             600.00
02832            1200.00
02833            1800.00
02834            2000.00
02835            2400.00
02836            2800.00
02837            3400.00
02838            3600.00
02839            4200.00
02840            4600.00
02841            5200.00
02842            5600.00
02843            6000.00
02844            6200.00
02845            6600.00
02846            7200.00
02847            7400.00
02848            8200.00
02849            8400.00
02850            9000.00
02851            9200.00
02852            9800.00
02853           10000.00
02854           10600.00
02855           10800.00
02856           11400.00
02857           11600.00
02858           12000.00
02859           12400.00
02860           12800.00
02861           13200.00
02862           13400.00
02863           14000.00
02864           14200.00
02865           14600.00
02866           15000.00
02867           15400.00
02868           15600.00
02869           16200.00
02870           16400.00
02871           16600.00
02872           17000.00
02873           17200.00
02874           17800.00
02875           18000.00
02876           18200.00
02877           18600.00
02878           18800.00
02879           19200.00
02880           19400.00
02881           19600.00
02882           19800.00
02883           20200.00
02884           20400.00
02885           20600.00
02886           21000.00
02887           21000.00
02888           21200.00
02889           21400.00
02890           21600.00
02891           21800.00
02892           22000.00
02893           22200.00
02894           22200.00
02895           22600.00
02896           22400.00
02897           22600.00
02898           22800.00
02899           22800.00
02900           23000.00
02901           23200.00
02902           23000.00
02903           23400.00
02904           23400.00
02905           23400.00
02906           23600.00
02907           23400.00
02908           23400.00
02909           23600.00
02910           23600.00
02911           23600.00
02912           23600.00
02913           23600.00
02914           23600.00
02915           23600.00
02916           23600.00
02917           23600.00
02918           23600.00
02919           23400.00
02920           23400.00
02921           23400.00
02922           23400.00
02923           23400.00
02924           23000.00
02925           23000.00
02926           22800.00
02927           22800.00
02928           22600.00
02929           22600.00
02930           22600.00
02931           22200.00
02932           22000.00
02933           21800.00
02934           21800.00
02935           21400.00
02936           21200.00
02937           21200.00
02938           21000.00
02939           20800.00
02940           20400.00
02941           20400.00
02942           20200.00
02943           19800.00
02944           19600.00
02945           19400.00
02946           19000.00
02947           18800.00
02948           18600.00
02949           18200.00
02950           18000.00
02951           17600.00
02952           17400.00
02953           16800.00
02954           16600.00
02955           16400.00
02956           16000.00
02957           15600.00
02958           15400.00
02959           15000.00
02960           14600.00
02961           14200.00
02962           14000.00
02963           13400.00
02964           13200.00
02965           13000.00
02966           12400.00
02967           12200.00
02968           11600.00
02969           11400.00
02970           10800.00
02971           10400.00
02972           10000.00
02973            9800.00
02974            9200.00
02975            8800.00
02976            8400.00
02977            7800.00
02978            7600.00
02979            7000.00
02980            6600.00
02981            6200.00
02982            5800.00
02983            5400.00
02984            5000.00
02985            4400.00
02986            4200.00
02987            3600.00
02988            3000.00
02989            2800.00
02990            2200.00
02991            2000.00
02992            1400.00
02993            1000.00
02994             400.00
02995             200.00
02996            -200.00
02997            -600.00
02998           -1000.00
02999           -1400.00
03000           -2000.00
03001           -2200.00
03002           -2600.00
03003           -3000.00
03004           -3600.00
03005           -4200.00
03006           -4800.00
03007           -5400.00
03008           -5600.00
03009           -5800.00
03010           -6000.00
03011           -6800.00
03012           -7000.00
03013           -7600.00
03014           -8200.00
03015           -8400.00
03016           -8800.00
03017           -9200.00
03018           -9400.00
03019          -10000.00
03020          -10200.00
03021          -11000.00
03022          -11200.00
03023          -11600.00
03024          -12000.00
03025          -12400.00
03026          -12600.00
03027          -13200.00
03028          -13400.00
03029          -13800.00
03030          -14000.00
03031          -14800.00
03032          -15000.00
03033          -15200.00
03034          -15600.00
03035          -15800.00
03036          -16400.00
03037          -16800.00
03038          -17000.00
03039          -17400.00
03040          -17800.00
03041          -18000.00
03042          -18200.00
03043          -18600.00
03044          -18800.00
03045          -19000.00
03046          -19400.00
03047          -19600.00
03048          -19800.00
03049          -20400.00
03050          -20400.00
03051          -20600.00
03052          -20600.00
03053          -21200.00
03054          -21200.00
03055          -21400.00
03056          -21400.00
03057          -21800.00
03058          -22000.00
03059          -22000.00
03060          -22200.00
03061          -22200.00
03062          -22600.00
03063          -22600.00
03064          -22600.00
03065          -23000.00
03066          -23000.00
03067          -23000.00
03068          -23400.00
03069          -23400.00
03070          -23400.00
03071          -23400.00
03072          -23400.00
03073          -23600.00
03074          -23600.00
03075          -23600.00
03076          -23600.00
03077          -23600.00
03078          -23600.00
03079          -23600.00
03080          -23600.00
03081          -23600.00
03082          -23600.00
03083          -23600.00
03084          -23400.00
03085          -23400.00
03086          -23400.00
03087          -23000.00
03088          -23200.00
03089          -23000.00
03090          -23000.00
03091          -23000.00
03092          -22800.00
03093          -22800.00
03094          -22600.00
03095          -22400.00
03096          -22200.00
03097          -22000.00
03098          -22000.00
03099          -21800.00
03100          -21600.00
03101          -21600.00
03102          -21400.00
03103          -21000.00
03104          -21000.00
03105          -20600.00
03106          -20600.00
03107          -20400.00
03108          -20000.00
03109          -19800.00
03110          -19600.00
03111          -19400.00
03112          -19000.00
03113          -18800.00
03114          -18400.00
03115          -18200.00
03116          -17800.00
03117          -17400.00
03118          -17400.00
03119          -17000.00
03120          -16600.00
03121          -16400.00
03122          -15800.00
03123          -15600.00
03124          -15400.00
03125          -15000.00
03126          -14600.00
03127          -14200.00
03128          -14000.00
03129          -13400.00
03130          -13200.00
03131          -12600.00
03132          -12200.00
03133          -11800.00
03134          -11600.00
03135          -11400.00
03136          -10800.00
03137          -10200.00
03138          -10000.00
03139           -9400.00
03140           -9200.00
03141           -8600.00
03142           -8400.00
03143           -7800.00
03144           -7400.00
03145           -7000.00
03146           -6600.00
03147           -6200.00
03148           -5800.00
03149           -5400.00
03150           -5000.00
03151           -4400.00
03152           -4200.00
03153           -3600.00
03154           -3000.00
03155           -2600.00
03156           -2200.00
03157           -1800.00
03158           -1400.00
03159           -1000.00
03160            -400.00
03161            -200.00
03162             400.00
03163             600.00
03164            1200.00
03165            1400.00
03166            2000.00
03167            2200.00
03168            2600.00
03169            3000.00
03170            3600.00
03171            4200.00
03172            4600.00
03173            5200.00
03174            5400.00
03175            6000.00
03176            6000.00
03177            6600.00
03178            7000.00
03179            7400.00
03180            7800.00
03181            8400.00
03182            8600.00
03183            9200.00
03184            9400.00
03185           10000.00
03186           10400.00
03187           10800.00
03188           11400.00
03189           11600.00
03190           12200.00
03191           12400.00
03192           13000.00
03193           13200.00
03194           13600.00
03195           14000.00
03196           14200.00
03197           14600.00
03198           15000.00
03199           15400.00
03200           15800.00
03201           16000.00
03202           16400.00
03203           16600.00
03204           17000.00
03205           17200.00
03206           17800.00
03207           18000.00
03208           18200.00
03209           18600.00
03210           18800.00
03211           19000.00
03212           19400.00
03213           19600.00
03214           19800.00
03215           20200.00
03216           20400.00
03217           20600.00
03218           20800.00
03219           21000.00
03220           21200.00
03221           21400.00
03222           21600.00
03223           21800.00
03224           21800.00
03225           22000.00
03226           22200.00
03227           22600.00
03228           22600.00
03229           22600.00
03230           22800.00
03231           22800.00
03232           23000.00
03233           23000.00
03234           23200.00
03235           23400.00
03236           23200.00
03237           23400.00
03238           23400.00
03239           23600.00
03240           23600.00
03241           23600.00
03242           23600.00
03243           23600.00
03244           23600.00
03245           23600.00
03246           23600.00
03247           23600.00
03248           23600.00
03249           23400.00
03250           23400.00
03251           23400.00
03252           23400.00
03253           23400.00
03254           23000.00
03255           23000.00
03256           23000.00
03257           22800.00
03258           22800.00
03259           22800.00
03260           22800.00
03261           22600.00
03262           22400.00
03263           22200.00
03264           22000.00
03265           21800.00
03266           21600.00
03267           21600.00
03268           21200.00
03269           21200.00
03270           21000.00
03271           20800.00
03272           20600.00
03273           20200.00
03274           20200.00
03275           19800.00
03276           19600.00
03277           19400.00
03278           19000.00
03279           18800.00
03280           18600.00
03281           18200.00
03282           18000.00
03283           17800.00
03284           17200.00
03285           17000.00
03286           16600.00
03287           16400.00
03288           16200.00
03289           15600.00
03290           15400.00
03291           15000.00
03292           14600.00
03293           14400.00
03294           14000.00
03295           13600.00
03296           13000.00
03297           12800.00
03298           12200.00
03299           12000.00
03300           11600.00
03301           11400.00
03302           10800.00
03303           10600.00
03304           10000.00
03305            9800.00
03306            9200.00
03307            9000.00
03308            8400.00
03309            8000.00
03310            7600.00
03311            7000.00
03312            6800.00
03313            6200.00
03314            5800.00
03315            5400.00
03316            5200.00
03317            4400.00
03318            4200.00
03319            3600.00
03320            3400.00
03321            2800.00
03322            2400.00
03323            2000.00
03324            1400.00
03325            1000.00
03326             600.00
03327             200.00
03328            -200.00
03329            -600.00
03330           -1200.00
03331           -1600.00
03332           -2000.00
03333           -2200.00
03334           -2800.00
03335           -3000.00
03336           -3600.00
03337           -4200.00
03338           -4800.00
03339           -5400.00
03340           -5400.00
03341           -5800.00
03342           -6000.00
03343           -6800.00
03344           -7000.00
03345           -7600.00
03346           -8200.00
03347           -8400.00
03348           -8600.00
03349           -9200.00
03350           -9400.00
03351          -10000.00
03352          -10400.00
03353          -10800.00
03354          -11000.00
03355          -11600.00
03356          -11800.00
03357          -12400.00
03358          -12600.00
03359          -13200.00
03360          -13600.00
03361          -13800.00
03362          -14200.00
03363          -14800.00
03364          -15000.00
03365          -15400.00
03366          -15800.00
03367          -15800.00
03368          -16400.00
03369          -16600.00
03370          -17000.00
03371          -17200.00
03372          -17600.00
03373          -18000.00
03374          -18200.00
03375          -18600.00
03376          -18800.00
03377          -19000.00
03378          -19400.00
03379          -19600.00
03380          -19800.00
03381          -20200.00
03382          -20400.00
03383          -20600.00
03384          -21000.00
03385          -21000.00
03386          -21400.00
03387          -21200.00
03388          -21600.00
03389          -21800.00
03390          -22000.00
03391          -22000.00
03392          -22200.00
03393          -22200.00
03394          -22600.00
03395          -22800.00
03396          -22800.00
03397          -22800.00
03398          -23000.00
03399          -23000.00
03400          -23200.00
03401          -23400.00
03402          -23400.00
03403          -23600.00
03404          -23600.00
03405          -23600.00
03406          -23600.00
03407          -23600.00
03408          -23600.00
03409          -23600.00
03410          -23600.00
03411          -23600.00
03412          -23600.00
03413          -23600.00
03414          -23600.00
03415          -23600.00
03416          -23400.00
03417          -23400.00
03418          -23600.00
03419          -23400.00
03420          -23400.00
03421          -23000.00
03422          -23000.00
03423          -23000.00
03424          -22800.00
03425          -22800.00
03426          -22600.00
03427          -22600.00
03428          -22400.00
03429          -22200.00
03430          -22000.00
03431          -21800.00
03432          -21800.00
03433          -21400.00
03434          -21400.00
03435          -21200.00
03436          -21000.00
03437          -20600.00
03438          -20400.00
03439          -20200.00
03440          -20200.00
03441          -19800.00
03442          -19600.00
03443          -19400.00
03444          -19000.00
03445          -18600.00
03446          -18200.00
03447          -18200.00
03448          -17800.00
03449          -17400.00
03450          -17200.00
03451          -16800.00
03452          -16600.00
03453          -16400.00
03454          -15800.00
03455          -15800.00
03456          -15400.00
03457          -15000.00
03458          -14600.00
03459          -14000.00
03460          -14000.00
03461          -13400.00
03462          -13200.00
03463          -12600.00
03464          -12400.00
03465          -12000.00
03466          -11600.00
03467          -11200.00
03468          -10800.00
03469          -10200.00
03470          -10000.00
03471           -9400.00
03472           -9200.00
03473           -9000.00
03474           -8400.00
03475           -7800.00
03476           -7600.00
03477           -7000.00
03478           -6800.00
03479           -6200.00
03480           -5800.00
03481           -5400.00
03482           -5000.00
03483           -4600.00
03484           -4000.00
03485           -3600.00
03486           -3400.00
03487           -2800.00
03488           -2200.00
03489           -2000.00
03490           -1400.00
03491           -1000.00
03492            -600.00
03493            -200.00
03494             200.00
03495             600.00
03496            1000.00
03497            1400.00
03498            2000.00
03499            2200.00
03500            2600.00
03501            3000.00
03502            3600.00
03503            4000.00
03504            4600.00
03505            5200.00
03506            5600.00
03507            6000.00
03508            6200.00
03509            6600.00
03510            7000.00
03511            7400.00
03512            7800.00
03513            8200.00
03514            8600.00
03515            9200.00
03516            9400.00
03517            9800.00
03518           10200.00
03519           10800.00
03520           11200.00
03521           11600.00
03522           12200.00
03523           12400.00
03524           12800.00
03525           13200.00
03526           13400.00
03527           14000.00
03528           14200.00
03529           14800.00
03530           15000.00
03531           15400.00
03532           15600.00
03533           16000.00
03534           16400.00
03535           16600.00
03536           17000.00
03537           17400.00
03538           17600.00
03539           17800.00
03540           18200.00
03541           18600.00
03542           18800.00
03543           19000.00
03544           19400.00
03545           19600.00
03546           19800.00
03547           20200.00
03548           20400.00
03549           20600.00
03550           20800.00
03551           21000.00
03552           21200.00
03553           21400.00
03554           21400.00
03555           21800.00
03556           21800.00
03557           22000.00
03558           22200.00
03559           22200.00
03560           22200.00
03561           22600.00
03562           22800.00
03563           22800.00
03564           22800.00
03565           23000.00
03566           23000.00
03567           23400.00
03568           23400.00
03569           23400.00
03570           23600.00
03571           23400.00
03572           23600.00
03573           23600.00
03574           23600.00
03575           23600.00
03576           23600.00
03577           23600.00
03578           23400.00
03579           23600.00
03580           23600.00
03581           23400.00
03582           23600.00
03583           23400.00
03584           23400.00
03585           23400.00
03586           23400.00
03587           23200.00
03588           22800.00
03589           22800.00
03590           22800.00
03591           22800.00
03592           22600.00
03593           22600.00
03594           22200.00
03595           22400.00
03596           22200.00
03597           22000.00
03598           21800.00
03599           21800.00
03600           21400.00
03601           21200.00
03602           21000.00
03603           20800.00
03604           20600.00
03605           20400.00
03606           20200.00
03607           19800.00
03608           19600.00
03609           19400.00
03610           19000.00
03611           18800.00
03612           18600.00
03613           18200.00
03614           18000.00
03615           17800.00
03616           17400.00
03617           17000.00
03618           16600.00
03619           16400.00
03620           16200.00
03621           15800.00
03622           15400.00
03623           15000.00
03624           14600.00
03625           14200.00
03626           14000.00
03627           13400.00
03628           13200.00
03629           13000.00
03630           12400.00
03631           12200.00
03632           11600.00
03633           11200.00
03634           10800.00
03635           10600.00
03636           10200.00
03637            9800.00
03638            9200.00
03639            8800.00
03640            8400.00
03641            7800.00
03642            7600.00
03643            7000.00
03644            6800.00
03645            6200.00
03646            5800.00
03647            5400.00
03648            5200.00
03649            4400.00
03650            4200.00
03651            3600.00
03652            3400.00
03653            2800.00
03654            2600.00
03655            2000.00
03656            1400.00
03657            1200.00
03658             600.00
03659             200.00
03660            -200.00
03661            -600.00
03662           -1200.00
03663           -1400.00
03664           -2000.00
03665           -2200.00
03666           -2600.00
03667           -3000.00
03668           -3400.00
03669           -4200.00
03670           -4600.00
03671           -5200.00
03672           -5400.00
03673           -5800.00
03674           -6000.00
03675           -6800.00
03676           -7000.00
03677           -7400.00
03678           -7800.00
03679           -8200.00
03680           -8600.00
03681           -9200.00
03682           -9400.00
03683          -10000.00
03684          -10200.00
03685          -10800.00
03686          -11400.00
03687          -11600.00
03688          -12000.00
03689          -12400.00
03690          -13000.00
03691          -13200.00
03692          -13400.00
03693          -14000.00
03694          -14200.00
03695          -14600.00
03696          -15000.00
03697          -15400.00
03698          -15600.00
03699          -15800.00
03700          -16400.00
03701          -16600.00
03702          -17000.00
03703          -17200.00
03704          -17400.00
03705          -18000.00
03706          -18200.00
03707          -18600.00
03708          -18800.00
03709          -19000.00
03710          -19400.00
03711          -19600.00
03712          -19800.00
03713          -20200.00
03714          -20400.00
03715          -20600.00
03716          -20600.00
03717          -21000.00
03718          -21200.00
03719          -21400.00
03720          -21400.00
03721          -21800.00
03722          -22000.00
03723          -22000.00
03724          -22200.00
03725          -22400.00
03726          -22600.00
03727          -22600.00
03728          -22800.00
03729          -22800.00
03730          -23000.00
03731          -23200.00
03732          -23200.00
03733          -23400.00
03734          -23400.00
03735          -23400.00
03736          -23400.00
03737          -23600.00
03738          -23600.00
03739          -23600.00
03740          -23600.00
03741          -23600.00
03742          -23600.00
03743          -23600.00
03744          -23600.00
03745          -23600.00
03746          -23600.00
03747          -23600.00
03748          -23600.00
03749          -23600.00
03750          -23400.00
03751          -23400.00
03752          -23400.00
03753          -23000.00
03754          -23000.00
03755          -23000.00
03756          -23000.00
03757          -22800.00
03758          -22600.00
03759          -22600.00
03760          -22400.00
03761          -22200.00
03762          -22000.00
03763          -22000.00
03764          -21800.00
03765          -21600.00
03766          -21400.00
03767          -21400.00
03768          -21000.00
03769          -20600.00
03770          -20400.00
03771          -20400.00
03772          -20000.00
03773          -19800.00
03774          -19600.00
03775          -19000.00
03776          -19000.00
03777          -18800.00
03778          -18600.00
03779          -18200.00
03780          -18000.00
03781          -17400.00
03782          -17200.00
03783          -17000.00
03784          -16800.00
03785          -16400.00
03786          -16200.00
03787          -15600.00
03788          -15400.00
03789          -15000.00
03790          -14600.00
03791          -14400.00
03792          -13800.00
03793          -13400.00
03794          -13200.00
03795          -12800.00
03796          -12400.00
03797          -12200.00
03798          -11800.00
03799          -11200.00
03800          -10800.00
03801          -10600.00
03802          -10000.00
03803           -9800.00
03804           -9200.00
03805           -8600.00
03806           -8400.00
03807           -8000.00
03808           -7600.00
03809           -7000.00
03810           -6800.00
03811           -6200.00
03812           -5800.00
03813           -5400.00
03814           -5000.00
03815           -4600.00
03816           -4200.00
03817           -3800.00
03818           -3400.00
03819           -2800.00
03820           -2600.00
03821           -2000.00
03822           -1400.00
03823           -1200.00
03824            -600.00
03825            -200.00
03826             200.00
03827             600.00
03828            1000.00
03829            1600.00
03830            1800.00
03831            2200.00
03832            2600.00
03833            3000.00
03834            3400.00
03835            4200.00
03836            4400.00
03837            5000.00
03838            5400.00
03839            5800.00
03840            6200.00
03841            6600.00
03842            7000.00
03843            7400.00
03844            8000.00
03845            8400.00
03846            8600.00
03847            9200.00
03848            9400.00
03849           10000.00
03850           10200.00
03851           10800.00
03852           11000.00
03853           11600.00
03854           12000.00
03855           12400.00
03856           12800.00
03857           13200.00
03858           13400.00
03859           13800.00
03860           14200.00
03861           14600.00
03862           15000.00
03863           15400.00
03864           15400.00
03865           16200.00
03866           16400.00
03867           16600.00
03868           17000.00
03869           17200.00
03870           17400.00
03871           18000.00
03872           18200.00
03873           18600.00
03874           18600.00
03875           19200.00
03876           19400.00
03877           19600.00
03878           19800.00
03879           20200.00
03880           20200.00
03881           20600.00
03882           21000.00
03883           21000.00
03884           21200.00
03885           21200.00
03886           21400.00
03887           21800.00
03888           21800.00
03889           22000.00
03890           22200.00
03891           22200.00
03892           22600.00
03893           22600.00
03894           22800.00
03895           22800.00
03896           23000.00
03897           23000.00
03898           23400.00
03899           23400.00
03900           23400.00
03901           23400.00
03902           23600.00
03903           23400.00
03904           23600.00
03905           23600.00
03906           23600.00
03907           23600.00
03908           23600.00
03909           23600.00
03910           23600.00
03911           23600.00
03912           23600.00
03913           23600.00
03914           23400.00
03915           23400.00
03916           23400.00
03917           23400.00
03918           23400.00
03919           23400.00
03920           23000.00
03921           23000.00
03922           22800.00
03923           22800.00
03924           22800.00
03925           22600.00
03926           22600.00
03927           22200.00
03928           22200.00
03929           22000.00
03930           21800.00
03931           21600.00
03932           21200.00
03933           21200.00
03934           21000.00
03935           20600.00
03936           20600.00
03937           20400.00
03938           20000.00
03939           19800.00
03940           19600.00
03941           19400.00
03942           19000.00
03943           18800.00
03944           18600.00
03945           18000.00
03946           18000.00
03947           17400.00
03948           17200.00
03949           17000.00
03950           16600.00
03951           16400.00
03952           16000.00
03953           15600.00
03954           15400.00
03955           15000.00
03956           14600.00
03957           14200.00
03958           14000.00
03959           13800.00
03960           13200.00
03961           13000.00
03962           12400.00
03963           12200.00
03964           11800.00
03965           11400.00
03966           10800.00
03967           10600.00
03968           10200.00
03969            9800.00
03970            9200.00
03971            8800.00
03972            8400.00
03973            8000.00
03974            7600.00
03975            7400.00
03976            6800.00
03977            6400.00
03978            6000.00
03979            5600.00
03980            5200.00
03981            4600.00
03982            4200.00
03983            3800.00
03984            3400.00
03985            3000.00
03986            2600.00
03987            2200.00
03988            1600.00
03989            1200.00
03990             600.00
03991             400.00
03992            -200.00
03993            -600.00
03994           -1000.00
03995           -1400.00
03996           -1800.00
03997           -2200.00
03998           -2600.00
03999           -2800.00
04000           -3400.00
04001           -4000.00
04002           -4600.00
04003           -5200.00
04004           -5400.00
04005           -5800.00
04006           -5800.00
04007           -6600.00
04008           -7000.00
04009           -7600.00
04010           -8000.00
04011           -8400.00
04012           -8600.00
04013           -9200.00
04014           -9400.00
04015          -10000.00
04016          -10600.00
04017          -10800.00
04018          -11200.00
04019          -11600.00
04020          -11800.00
04021          -12400.00
04022          -12600.00
04023          -13200.00
04024          -13400.00
04025          -13800.00
04026          -14000.00
04027          -14600.00
04028          -15000.00
04029          -15400.00
04030          -15600.00
04031          -15800.00
04032          -16200.00
04033          -16600.00
04034          -17000.00
04035          -17200.00
04036          -17800.00
04037          -18000.00
04038          -18200.00
04039          -18600.00
04040          -18800.00
04041          -19000.00
04042          -19400.00
04043          -19400.00
04044          -19800.00
04045          -20200.00
04046          -20400.00
04047          -20400.00
04048          -20600.00
04049          -21000.00
04050          -21200.00
04051          -21200.00
04052          -21400.00
04053          -21800.00
04054          -21800.00
04055          -22000.00
04056          -22200.00
04057          -22200.00
04058          -22600.00
04059          -22800.00
04060          -22800.00
04061          -22800.00
04062          -23000.00
04063          -23000.00
04064          -23000.00
04065          -23400.00
04066          -23600.00
04067          -23400.00
04068          -23400.00
04069          -23600.00
04070          -23600.00
04071          -23600.00
04072          -23600.00
04073          -23600.00
04074          -23600.00
04075          -23600.00
04076          -23600.00
04077          -23600.00
04078          -23600.00
04079          -23600.00
04080          -23600.00
04081          -23600.00
04082          -23600.00
04083          -23400.00
04084          -23400.00
04085          -23000.00
04086          -23000.00
04087          -23000.00
04088          -22800.00
04089          -22800.00
04090          -22800.00
04091          -22600.00
04092          -22400.00
04093          -22000.00
04094          -22000.00
04095          -22000.00
04096          -21800.00
04097          -21400.00
04098          -21400.00
04099          -21200.00
04100          -21000.00
04101          -20600.00
04102          -20600.00
04103          -20400.00
04104          -20000.00
04105          -19800.00
04106          -19400.00
04107          -19200.00
04108          -19000.00
04109          -18800.00
04110          -18600.00
04111          -18200.00
04112          -18000.00
04113          -17600.00
04114          -17200.00
04115          -17000.00
04116          -16600.00
04117          -16400.00
04118          -15800.00
04119          -15600.00
04120          -15400.00
04121          -15000.00
04122          -14800.00
04123          -14200.00
04124          -14000.00
04125          -13400.00
04126          -13200.00
04127          -13000.00
04128          -12400.00
04129          -12200.00
04130          -11800.00
04131          -11000.00
04132          -11000.00
04133          -10600.00
04134          -10200.00
04135           -9600.00
04136           -9200.00
04137           -9000.00
04138           -8600.00
04139           -7800.00
04140           -7600.00
04141           -7000.00
04142           -6800.00
04143           -6200.00
04144           -6000.00
04145           -5600.00
04146           -5000.00
04147           -4600.00
04148           -4400.00
04149           -3800.00
04150           -3400.00
04151           -3000.00
04152           -2600.00
04153           -2000.00
04154           -1600.00
04155           -1200.00
04156            -600.00
04157            -200.00
04158             200.00
04159             600.00
04160            1000.00
04161            1400.00
04162            1800.00
04163            2200.00
04164            2600.00
04165            2800.00
04166            3600.00
04167            3800.00
04168            4400.00
04169            5000.00
04170            5600.00
04171            5800.00
04172            6200.00
04173            6600.00
04174            7000.00
04175            7400.00
04176            7800.00
04177            8200.00
04178            8600.00
04179            9200.00
04180            9400.00
04181            9800.00
04182           10600.00
04183           10600.00
04184           11400.00
04185           11600.00
04186           12000.00
04187           12400.00
04188           12800.00
04189           13200.00
04190           13400.00
04191           13800.00
04192           14200.00
04193           14600.00
04194           15000.00
04195           15400.00
04196           15400.00
04197           16200.00
04198           16400.00
04199           16600.00
04200           17000.00
04201           17200.00
04202           17600.00
04203           18000.00
04204           18200.00
04205           18600.00
04206           18600.00
04207           19000.00
04208           19200.00
04209           19600.00
04210           19600.00
04211           20000.00
04212           20200.00
04213           20400.00
04214           20600.00
04215           21000.00
04216           21000.00
04217           21400.00
04218           21400.00
04219           21800.00
04220           21800.00
04221           22000.00
04222           22000.00
04223           22200.00
04224           22400.00
04225           22600.00
04226           22800.00
04227           22800.00
04228           22800.00
04229           23000.00
04230           23400.00
04231           23400.00
04232           23400.00
04233           23400.00
04234           23400.00
04235           23600.00
04236           23400.00
04237           23600.00
04238           23600.00
04239           23600.00
04240           23600.00
04241           23600.00
04242           23600.00
04243           23600.00
04244           23600.00
04245           23600.00
04246           23600.00
04247           23400.00
04248           23400.00
04249           23400.00
04250           23400.00
04251           23400.00
04252           23200.00
04253           23000.00
04254           23000.00
04255           22800.00
04256           22800.00
04257           22600.00
04258           22600.00
04259           22200.00
04260           22000.00
04261           22000.00
04262           21800.00
04263           21800.00
04264           21400.00
04265           21200.00
04266           21000.00
04267           21000.00
04268           20600.00
04269           20400.00
04270           20200.00
04271           19800.00
04272           19600.00
04273           19400.00
04274           19000.00
04275           18800.00
04276           18600.00
04277           18000.00
04278           17800.00
04279           17800.00
04280           17200.00
04281           17000.00
04282           16600.00
04283           16400.00
04284           16200.00
04285           15800.00
04286           15400.00
04287           15000.00
04288           14800.00
04289           14200.00
04290           14000.00
04291           13800.00
04292           13200.00
04293           13000.00
04294           12400.00
04295           12200.00
04296           11600.00
04297           11600.00
04298           11000.00
04299           10600.00
04300           10200.00
04301            9800.00
04302            9200.00
04303            9000.00
04304            8600.00
04305            8200.00
04306            7600.00
04307            7400.00
04308            6800.00
04309            6200.00
04310            6000.00
04311            5400.00
04312            5200.00
04313            4600.00
04314            4200.00
04315            3800.00
04316            3400.00
04317            3000.00
04318            2600.00
04319            2200.00
04320            1800.00
04321            1200.00
04322             800.00
04323             400.00
04324            -200.00
04325            -600.00
04326           -1000.00
04327           -1400.00
04328           -1800.00
04329           -2200.00
04330           -2600.00
04331           -2800.00
04332           -3400.00
04333           -3800.00
04334           -4600.00
04335           -5200.00
04336           -5400.00
04337           -5800.00
04338           -6000.00
04339           -6600.00
04340           -7000.00
04341           -7400.00
04342           -7800.00
04343           -8400.00
04344           -8600.00
04345           -9200.00
04346           -9400.00
04347          -10000.00
04348          -10200.00
04349          -10600.00
04350          -11000.00
04351          -11600.00
04352          -11800.00
04353          -12400.00
04354          -12600.00
04355          -13200.00
04356          -13400.00
04357          -14000.00
04358          -14200.00
04359          -14600.00
04360          -15000.00
04361          -15400.00
04362          -15600.00
04363          -15800.00
04364          -16200.00
04365          -16600.00
04366          -17000.00
04367          -17200.00
04368          -17400.00
04369          -17800.00
04370          -18200.00
04371          -18600.00
04372          -18800.00
04373          -19000.00
04374          -19000.00
04375          -19400.00
04376          -19800.00
04377          -20200.00
04378          -20000.00
04379          -20400.00
04380          -20600.00
04381          -21000.00
04382          -21200.00
04383          -21200.00
04384          -21400.00
04385          -21400.00
04386          -21800.00
04387          -22000.00
04388          -22000.00
04389          -22200.00
04390          -22600.00
04391          -22600.00
04392          -22800.00
04393          -22800.00
04394          -23000.00
04395          -23000.00
04396          -23200.00
04397          -23000.00
04398          -23400.00
04399          -23400.00
04400          -23600.00
04401          -23600.00
04402          -23600.00
04403          -23600.00
04404          -23600.00
04405          -23600.00
04406          -23800.00
04407          -23600.00
04408          -23600.00
04409          -23600.00
04410          -23600.00
04411          -23600.00
04412          -23600.00
04413          -23600.00
04414          -23400.00
04415          -23600.00
04416          -23400.00
04417          -23000.00
04418          -23000.00
04419          -23000.00
04420          -23000.00
04421          -22800.00
04422          -22800.00
04423          -22400.00
04424          -22400.00
04425          -22200.00
04426          -22200.00
04427          -22000.00
04428          -21800.00
04429          -21600.00
04430          -21400.00
04431          -21400.00
04432          -21000.00
04433          -20600.00
04434          -20400.00
04435          -20400.00
04436          -20000.00
04437          -19800.00
04438          -19600.00
04439          -19400.00
04440          -18800.00
04441          -18800.00
04442          -18600.00
04443          -18000.00
04444          -18000.00
04445          -17400.00
04446          -17200.00
04447          -17000.00
04448          -16600.00
04449          -16400.00
04450          -16200.00
04451          -15600.00
04452          -15400.00
04453          -15000.00
04454          -14800.00
04455          -14200.00
04456          -14000.00
04457          -13400.00
04458          -13200.00
04459          -12800.00
04460          -12400.00
04461          -12200.00
04462          -11600.00
04463          -11400.00
04464          -10800.00
04465          -10600.00
04466          -10200.00
04467           -9800.00
04468           -9400.00
04469           -9000.00
04470           -8600.00
04471           -8200.00
04472           -7600.00
04473           -7400.00
04474           -6800.00
04475           -6600.00
04476           -6000.00
04477           -5400.00
04478           -5200.00
04479           -4600.00
04480           -4400.00
04481           -3800.00
04482           -3400.00
04483           -3000.00
04484           -2600.00
04485           -2000.00
04486           -1600.00
04487           -1200.00
04488            -600.00
04489            -400.00
04490             200.00
04491             600.00
04492            1000.00
04493            1400.00
04494            2000.00
04495            2200.00
04496            2600.00
04497            3000.00
04498            3600.00
04499            4000.00
04500            4400.00
04501            5000.00
04502            5400.00
04503            5800.00
04504            6000.00
04505            6600.00
04506            7000.00
04507            7400.00
04508            7800.00
04509            8400.00
04510            8600.00
04511            9200.00
04512            9400.00
04513            9800.00
04514           10400.00
04515           10800.00
04516           11200.00
04517           11600.00
04518           11800.00
04519           12400.00
04520           12600.00
04521           13000.00
04522           13400.00
04523           13800.00
04524           14200.00
04525           14600.00
04526           15000.00
04527           15400.00
04528           15600.00
04529           15800.00
04530           16400.00
04531           16600.00
04532           17000.00
04533           17200.00
04534           17400.00
04535           18000.00
04536           18200.00
04537           18400.00
04538           18600.00
04539           19000.00
04540           19200.00
04541           19600.00
04542           19800.00
04543           19800.00
04544           20400.00
04545           20400.00
04546           20600.00
04547           21000.00
04548           21200.00
04549           21200.00
04550           21400.00
04551           21800.00
04552           21800.00
04553           22000.00
04554           22200.00
04555           22200.00
04556           22600.00
04557           22600.00
04558           22800.00
04559           22800.00
04560           23000.00
04561           23000.00
04562           23200.00
04563           23400.00
04564           23400.00
04565           23400.00
04566           23400.00
04567           23600.00
04568           23600.00
04569           23600.00
04570           23800.00
04571           23600.00
04572           23800.00
04573           23600.00
04574           23600.00
04575           23800.00
04576           23600.00
04577           23600.00
04578           23600.00
04579           23400.00
04580           23600.00
04581           23400.00
04582           23400.00
04583           23400.00
04584           23200.00
04585           23000.00
04586           22800.00
04587           22800.00
04588           22800.00
04589           22600.00
04590           22400.00
04591           22400.00
04592           22000.00
04593           22000.00
04594           21800.00
04595           21800.00
04596           21400.00
04597           21200.00
04598           21000.00
04599           20800.00
04600           20400.00
04601           20400.00
04602           20000.00
04603           19800.00
04604           19600.00
04605           19400.00
04606           19000.00
04607           18800.00
04608           18600.00
04609           18200.00
04610           18000.00
04611           17800.00
04612           17200.00
04613           17000.00
04614           16600.00
04615           16400.00
04616           16200.00
04617           15800.00
04618           15400.00
04619           15200.00
04620           14800.00
04621           14400.00
04622           14000.00
04623           13800.00
04624           13200.00
04625           13200.00
04626           12600.00
04627           12200.00
04628           11800.00
04629           11600.00
04630           10800.00
04631           10600.00
04632           10200.00
04633            9800.00
04634            9400.00
04635            9000.00
04636            8600.00
04637            8200.00
04638            7800.00
04639            7400.00
04640            6800.00
04641            6600.00
04642            6000.00
04643            5800.00
04644            5200.00
04645            4600.00
04646            4400.00
04647            3800.00
04648            3600.00
04649            3000.00
04650            2600.00
04651            2200.00
04652            1600.00
04653            1200.00
04654            1000.00
04655             400.00
04656               0.00
04657            -600.00
04658           -1000.00
04659           -1400.00
04660           -1800.00
04661           -2200.00
04662           -2600.00
04663           -2800.00
04664           -3400.00
04665           -4000.00
04666           -4600.00
04667           -5200.00
04668           -5800.00
04669           -5800.00
04670           -6000.00
04671           -6600.00
04672           -7000.00
04673           -7400.00
04674           -7800.00
04675           -8200.00
04676           -8600.00
04677           -9200.00
04678           -9400.00
04679           -9800.00
04680          -10200.00
04681          -10600.00
04682          -11000.00
04683          -11400.00
04684          -11800.00
04685          -12400.00
04686          -12600.00
04687          -13200.00
04688          -13400.00
04689          -13800.00
04690          -14200.00
04691          -14600.00
04692          -14800.00
04693          -15000.00
04694          -15600.00
04695          -15800.00
04696          -16400.00
04697          -16600.00
04698          -16600.00
04699          -17200.00
04700          -17400.00
04701          -17800.00
04702          -18200.00
04703          -18200.00
04704          -18600.00
04705          -19000.00
04706          -19000.00
04707          -19400.00
04708          -19800.00
04709          -19800.00
04710          -20200.00
04711          -20400.00
04712          -20600.00
04713          -20600.00
04714          -21200.00
04715          -21200.00
04716          -21400.00
04717          -21400.00
04718          -21800.00
04719          -22000.00
04720          -22000.00
04721          -22200.00
04722          -22200.00
04723          -22600.00
04724          -22600.00
04725          -22800.00
04726          -23000.00
04727          -23000.00
04728          -23000.00
04729          -23400.00
04730          -23400.00
04731          -23400.00
04732          -23600.00
04733          -23600.00
04734          -23600.00
04735          -23600.00
04736          -23600.00
04737          -23800.00
04738          -23600.00
04739          -23600.00
04740          -23600.00
04741          -23600.00
04742          -23400.00
04743          -23600.00
04744          -23600.00
04745          -23600.00
04746          -23400.00
04747          -23400.00
04748          -23400.00
04749          -23400.00
04750          -23000.00
04751          -23000.00
04752          -22800.00
04753          -22800.00
04754          -22800.00
04755          -22600.00
04756          -22200.00
04757          -22200.00
04758          -22000.00
04759          -22000.00
04760          -21800.00
04761          -21400.00
04762          -21400.00
04763          -21200.00
04764          -21000.00
04765          -21000.00
04766          -20600.00
04767          -20400.00
04768          -20200.00
04769          -19800.00
04770          -19400.00
04771          -19400.00
04772          -19000.00
04773          -18800.00
04774          -18600.00
04775          -18200.00
04776          -18000.00
04777          -17600.00
04778          -17400.00
04779          -17000.00
04780          -16600.00
04781          -16400.00
04782          -15800.00
04783          -15800.00
04784          -15400.00
04785          -15000.00
04786          -14800.00
04787          -14200.00
04788          -14000.00
04789          -13600.00
04790          -13400.00
04791          -12600.00
04792          -12600.00
04793          -12200.00
04794          -11800.00
04795          -11400.00
04796          -11000.00
04797          -10600.00
04798          -10200.00
04799           -9800.00
04800           -9400.00
04801           -9000.00
04802           -8600.00
04803           -8000.00
04804           -7600.00
04805           -7400.00
04806           -6800.00
04807           -6600.00
04808           -6000.00
04809           -5400.00
04810           -5200.00
04811           -4600.00
04812           -4400.00
04813           -3800.00
04814           -3400.00
04815           -3000.00
04816           -2600.00
04817           -2000.00
04818           -1800.00
04819           -1200.00
04820            -600.00
04821            -400.00
04822             200.00
04823             400.00
04824            1000.00
04825            1400.00
04826            1800.00
04827            2200.00
04828            2600.00
04829            3000.00
04830            3600.00
04831            4000.00
04832            4600.00
04833            5000.00
04834            5600.00
04835            5800.00
04836            6200.00
04837            6600.00
04838            6800.00
04839            7400.00
04840            7800.00
04841            8400.00
04842            8600.00
04843            9000.00
04844            9400.00
04845            9800.00
04846           10200.00
04847           10600.00
04848           11000.00
04849           11600.00
04850           12000.00
04851           12200.00
04852           12600.00
04853           13000.00
04854           13400.00
04855           13800.00
04856           14200.00
04857           14600.00
04858           14800.00
04859           15400.00
04860           15400.00
04861           16000.00
04862           16200.00
04863           16600.00
04864           17000.00
04865           17200.00
04866           17400.00
04867           18000.00
04868           18000.00
04869           18600.00
04870           18800.00
04871           19000.00
04872           19400.00
04873           19400.00
04874           19800.00
04875           19800.00
04876           20200.00
04877           20400.00
04878           20600.00
04879           21000.00
04880           21000.00
04881           21200.00
04882           21400.00
04883           21800.00
04884           21800.00
04885           21800.00
04886           22200.00
04887           22400.00
04888           22600.00
04889           22800.00
04890           22800.00
04891           22800.00
04892           22800.00
04893           23000.00
04894           23000.00
04895           23400.00
04896           23400.00
04897           23400.00
04898           23400.00
04899           23400.00
04900           23600.00
04901           23600.00
04902           23600.00
04903           23600.00
04904           23600.00
04905           23600.00
04906           23800.00
04907           23600.00
04908           23600.00
04909           23600.00
04910           23600.00
04911           23400.00
04912           23600.00
04913           23400.00
04914           23400.00
04915           23200.00
04916           23000.00
04917           23000.00
04918           22800.00
04919           22800.00
04920           22800.00
04921           22600.00
04922           22600.00
04923           22400.00
04924           22000.00
04925           21800.00
04926           21800.00
04927           21400.00
04928           21400.00
04929           21200.00
04930           21000.00
04931           21000.00
04932           20400.00
04933           20400.00
04934           20200.00
04935           19800.00
04936           19600.00
04937           19400.00
04938           19000.00
04939           18800.00
04940           18600.00
04941           18200.00
04942           18000.00
04943           17800.00
04944           17200.00
04945           17000.00
04946           17000.00
04947           16400.00
04948           16200.00
04949           15800.00
04950           15400.00
04951           15400.00
04952           14800.00
04953           14400.00
04954           14200.00
04955           13800.00
04956           13200.00
04957           13200.00
04958           12600.00
04959           12400.00
04960           11800.00
04961           11600.00
04962           11000.00
04963           10600.00
04964           10200.00
04965            9800.00
04966            9400.00
04967            9000.00
04968            8600.00
04969            8200.00
04970            7800.00
04971            7400.00
04972            7000.00
04973            6600.00
04974            6000.00
04975            5800.00
04976            5200.00
04977            4800.00
04978            4200.00
04979            3800.00
04980            3400.00
04981            3000.00
04982            2600.00
04983            2200.00
04984            1800.00
04985            1200.00
04986            1000.00
04987             400.00
04988            -200.00
04989            -600.00
04990           -1000.00
04991           -1400.00
04992           -1800.00
04993           -2200.00
04994           -2600.00
04995           -2800.00
04996           -3200.00
04997           -3800.00
04998           -4600.00
04999           -5000.00
05000           -5800.00
