Unit:(mV)
                     CH2
Frequency    301.174 kHz
00001            2000.00
00002            1800.00
00003            1600.00
00004            1200.00
00005            1200.00
00006             600.00
00007             400.00
00008               0.00
00009               0.00
00010            -200.00
00011            -800.00
00012            -800.00
00013           -1000.00
00014           -1400.00
00015           -1600.00
00016           -1800.00
00017           -2000.00
00018           -2000.00
00019           -2600.00
00020           -3200.00
00021           -3400.00
00022           -3400.00
00023           -3200.00
00024           -3600.00
00025           -4200.00
00026           -4200.00
00027           -4400.00
00028           -5000.00
00029           -5000.00
00030           -5200.00
00031           -5800.00
00032           -5600.00
00033           -6000.00
00034           -6400.00
00035           -6400.00
00036           -6800.00
00037           -6800.00
00038           -7000.00
00039           -7600.00
00040           -7600.00
00041           -7600.00
00042           -8200.00
00043           -8400.00
00044           -8400.00
00045           -8800.00
00046           -8800.00
00047           -9200.00
00048           -9400.00
00049           -9600.00
00050           -9800.00
00051          -10000.00
00052          -10000.00
00053          -10400.00
00054          -10400.00
00055          -10600.00
00056          -10800.00
00057          -11000.00
00058          -11200.00
00059          -11200.00
00060          -11400.00
00061          -11600.00
00062          -11600.00
00063          -12000.00
00064          -12000.00
00065          -12200.00
00066          -12400.00
00067          -12400.00
00068          -12400.00
00069          -12800.00
00070          -12800.00
00071          -12800.00
00072          -13000.00
00073          -13000.00
00074          -13000.00
00075          -13200.00
00076          -13400.00
00077          -13200.00
00078          -13400.00
00079          -13400.00
00080          -13600.00
00081          -13600.00
00082          -13600.00
00083          -13800.00
00084          -13800.00
00085          -13800.00
00086          -13800.00
00087          -13800.00
00088          -13800.00
00089          -13800.00
00090          -14000.00
00091          -14000.00
00092          -13800.00
00093          -13800.00
00094          -14000.00
00095          -13800.00
00096          -13800.00
00097          -13600.00
00098          -13800.00
00099          -13600.00
00100          -13600.00
00101          -13600.00
00102          -13600.00
00103          -13400.00
00104          -13600.00
00105          -13400.00
00106          -13200.00
00107          -13200.00
00108          -13200.00
00109          -13000.00
00110          -13000.00
00111          -13000.00
00112          -12800.00
00113          -12800.00
00114          -12600.00
00115          -12400.00
00116          -12400.00
00117          -12400.00
00118          -12200.00
00119          -12000.00
00120          -12000.00
00121          -11600.00
00122          -11600.00
00123          -11400.00
00124          -11200.00
00125          -11000.00
00126          -10800.00
00127          -10800.00
00128          -10600.00
00129          -10400.00
00130          -10200.00
00131          -10000.00
00132           -9800.00
00133           -9800.00
00134           -9600.00
00135           -9400.00
00136           -9000.00
00137           -9000.00
00138           -8800.00
00139           -8400.00
00140           -8400.00
00141           -8200.00
00142           -8000.00
00143           -7800.00
00144           -7600.00
00145           -7200.00
00146           -7200.00
00147           -6800.00
00148           -6600.00
00149           -6400.00
00150           -6000.00
00151           -6000.00
00152           -5600.00
00153           -5600.00
00154           -5000.00
00155           -4800.00
00156           -4600.00
00157           -4400.00
00158           -4200.00
00159           -4000.00
00160           -3600.00
00161           -3400.00
00162           -3000.00
00163           -2800.00
00164           -2600.00
00165           -2400.00
00166           -2200.00
00167           -2000.00
00168           -1600.00
00169           -1200.00
00170           -1000.00
00171            -800.00
00172            -600.00
00173            -200.00
00174               0.00
00175             400.00
00176             400.00
00177             800.00
00178             800.00
00179            1200.00
00180            1400.00
00181            1800.00
00182            2000.00
00183            2200.00
00184            2400.00
00185            2800.00
00186            3200.00
00187            3400.00
00188            3600.00
00189            3600.00
00190            3800.00
00191            4000.00
00192            4400.00
00193            4600.00
00194            5000.00
00195            5000.00
00196            5600.00
00197            5800.00
00198            6000.00
00199            6200.00
00200            6400.00
00201            6600.00
00202            7000.00
00203            7200.00
00204            7200.00
00205            7600.00
00206            7800.00
00207            8200.00
00208            8400.00
00209            8400.00
00210            8600.00
00211            8800.00
00212            9200.00
00213            9200.00
00214            9400.00
00215            9600.00
00216           10000.00
00217           10000.00
00218           10200.00
00219           10400.00
00220           10600.00
00221           10800.00
00222           11000.00
00223           11000.00
00224           11200.00
00225           11200.00
00226           11600.00
00227           11800.00
00228           11800.00
00229           12000.00
00230           12200.00
00231           12400.00
00232           12400.00
00233           12600.00
00234           12600.00
00235           12800.00
00236           12800.00
00237           12800.00
00238           13200.00
00239           13200.00
00240           13200.00
00241           13400.00
00242           13400.00
00243           13600.00
00244           13600.00
00245           13600.00
00246           13800.00
00247           13600.00
00248           14000.00
00249           13800.00
00250           13800.00
00251           14000.00
00252           14000.00
00253           14000.00
00254           14000.00
00255           14200.00
00256           14000.00
00257           14000.00
00258           14000.00
00259           14000.00
00260           14000.00
00261           13800.00
00262           14000.00
00263           14000.00
00264           13800.00
00265           14000.00
00266           13800.00
00267           13800.00
00268           13600.00
00269           13600.00
00270           13600.00
00271           13600.00
00272           13400.00
00273           13400.00
00274           13200.00
00275           13400.00
00276           13200.00
00277           13200.00
00278           13000.00
00279           12800.00
00280           12800.00
00281           12600.00
00282           12600.00
00283           12400.00
00284           12400.00
00285           12200.00
00286           12000.00
00287           11800.00
00288           11800.00
00289           11600.00
00290           11600.00
00291           11200.00
00292           11200.00
00293           11000.00
00294           10800.00
00295           10800.00
00296           10400.00
00297           10200.00
00298           10000.00
00299           10000.00
00300            9600.00
00301            9600.00
00302            9400.00
00303            9200.00
00304            8800.00
00305            8800.00
00306            8600.00
00307            8400.00
00308            8000.00
00309            7800.00
00310            7600.00
00311            7600.00
00312            7200.00
00313            6800.00
00314            6800.00
00315            6400.00
00316            6400.00
00317            6000.00
00318            6000.00
00319            5600.00
00320            5400.00
00321            5200.00
00322            4800.00
00323            4400.00
00324            4200.00
00325            4000.00
00326            3800.00
00327            3600.00
00328            3200.00
00329            3000.00
00330            2800.00
00331            2400.00
00332            2400.00
00333            2000.00
00334            1600.00
00335            1400.00
00336            1200.00
00337            1000.00
00338             800.00
00339             400.00
00340               0.00
00341               0.00
00342            -400.00
00343            -600.00
00344            -800.00
00345           -1000.00
00346           -1600.00
00347           -1600.00
00348           -1800.00
00349           -2000.00
00350           -2200.00
00351           -2600.00
00352           -3200.00
00353           -3400.00
00354           -3200.00
00355           -3400.00
00356           -3800.00
00357           -4200.00
00358           -4200.00
00359           -4400.00
00360           -5000.00
00361           -5000.00
00362           -5200.00
00363           -5800.00
00364           -5800.00
00365           -5800.00
00366           -6400.00
00367           -6400.00
00368           -6800.00
00369           -7200.00
00370           -7000.00
00371           -7400.00
00372           -7800.00
00373           -7800.00
00374           -8200.00
00375           -8200.00
00376           -8400.00
00377           -9000.00
00378           -9000.00
00379           -9200.00
00380           -9600.00
00381           -9600.00
00382           -9800.00
00383          -10000.00
00384          -10000.00
00385          -10400.00
00386          -10600.00
00387          -10600.00
00388          -10800.00
00389          -10800.00
00390          -11200.00
00391          -11000.00
00392          -11400.00
00393          -11600.00
00394          -11800.00
00395          -12000.00
00396          -12000.00
00397          -12200.00
00398          -12200.00
00399          -12400.00
00400          -12400.00
00401          -12600.00
00402          -12800.00
00403          -12800.00
00404          -13000.00
00405          -13000.00
00406          -13000.00
00407          -13200.00
00408          -13200.00
00409          -13400.00
00410          -13400.00
00411          -13400.00
00412          -13600.00
00413          -13600.00
00414          -13600.00
00415          -13800.00
00416          -13800.00
00417          -13800.00
00418          -13800.00
00419          -14000.00
00420          -13800.00
00421          -13800.00
00422          -14000.00
00423          -13800.00
00424          -14000.00
00425          -14000.00
00426          -13800.00
00427          -13800.00
00428          -13800.00
00429          -13800.00
00430          -13800.00
00431          -13800.00
00432          -13600.00
00433          -13800.00
00434          -13600.00
00435          -13600.00
00436          -13200.00
00437          -13400.00
00438          -13400.00
00439          -13400.00
00440          -13200.00
00441          -13000.00
00442          -13000.00
00443          -13000.00
00444          -12800.00
00445          -12800.00
00446          -12600.00
00447          -12400.00
00448          -12400.00
00449          -12200.00
00450          -12200.00
00451          -12000.00
00452          -12000.00
00453          -11600.00
00454          -11600.00
00455          -11400.00
00456          -11400.00
00457          -11000.00
00458          -10800.00
00459          -10800.00
00460          -10600.00
00461          -10400.00
00462          -10400.00
00463          -10000.00
00464          -10000.00
00465           -9600.00
00466           -9600.00
00467           -9400.00
00468           -9200.00
00469           -9000.00
00470           -8800.00
00471           -8800.00
00472           -8400.00
00473           -8200.00
00474           -8000.00
00475           -7600.00
00476           -7400.00
00477           -7200.00
00478           -7200.00
00479           -6800.00
00480           -6600.00
00481           -6400.00
00482           -6000.00
00483           -6000.00
00484           -5600.00
00485           -5600.00
00486           -5200.00
00487           -4800.00
00488           -4600.00
00489           -4400.00
00490           -4200.00
00491           -4000.00
00492           -3600.00
00493           -3400.00
00494           -3200.00
00495           -2800.00
00496           -2600.00
00497           -2400.00
00498           -2000.00
00499           -2000.00
00500           -1600.00
00501           -1200.00
00502           -1200.00
00503            -800.00
00504            -600.00
00505            -200.00
00506               0.00
00507             400.00
00508             400.00
00509             800.00
00510            1000.00
00511            1200.00
00512            1400.00
00513            1800.00
00514            2000.00
00515            2200.00
00516            2400.00
00517            2800.00
00518            3200.00
00519            3400.00
00520            3400.00
00521            3600.00
00522            4000.00
00523            4200.00
00524            4400.00
00525            4800.00
00526            5000.00
00527            5200.00
00528            5400.00
00529            6000.00
00530            6000.00
00531            6200.00
00532            6400.00
00533            6400.00
00534            7000.00
00535            7000.00
00536            7200.00
00537            7600.00
00538            7800.00
00539            8200.00
00540            8400.00
00541            8400.00
00542            8600.00
00543            8800.00
00544            9000.00
00545            9400.00
00546            9400.00
00547            9600.00
00548           10000.00
00549           10200.00
00550           10200.00
00551           10600.00
00552           10600.00
00553           10800.00
00554           10800.00
00555           11000.00
00556           11200.00
00557           11400.00
00558           11600.00
00559           11800.00
00560           11800.00
00561           12000.00
00562           12400.00
00563           12400.00
00564           12400.00
00565           12600.00
00566           12800.00
00567           12800.00
00568           12800.00
00569           12800.00
00570           13200.00
00571           13200.00
00572           13200.00
00573           13400.00
00574           13400.00
00575           13600.00
00576           13600.00
00577           13600.00
00578           13600.00
00579           13800.00
00580           13800.00
00581           14000.00
00582           14000.00
00583           14000.00
00584           14000.00
00585           14000.00
00586           14000.00
00587           14000.00
00588           14200.00
00589           14000.00
00590           14000.00
00591           14000.00
00592           14000.00
00593           14000.00
00594           14000.00
00595           14000.00
00596           14000.00
00597           13800.00
00598           13800.00
00599           13800.00
00600           13600.00
00601           13800.00
00602           13600.00
00603           13600.00
00604           13600.00
00605           13400.00
00606           13400.00
00607           13200.00
00608           13200.00
00609           13000.00
00610           13000.00
00611           12800.00
00612           12800.00
00613           12600.00
00614           12600.00
00615           12400.00
00616           12400.00
00617           12200.00
00618           12000.00
00619           11800.00
00620           11800.00
00621           11600.00
00622           11600.00
00623           11200.00
00624           11200.00
00625           11000.00
00626           10800.00
00627           10800.00
00628           10400.00
00629           10200.00
00630           10000.00
00631           10000.00
00632            9600.00
00633            9600.00
00634            9400.00
00635            9200.00
00636            8800.00
00637            8800.00
00638            8600.00
00639            8400.00
00640            8200.00
00641            8000.00
00642            7600.00
00643            7600.00
00644            7200.00
00645            7000.00
00646            6800.00
00647            6600.00
00648            6200.00
00649            6200.00
00650            6000.00
00651            5600.00
00652            5400.00
00653            5200.00
00654            4800.00
00655            4600.00
00656            4400.00
00657            4000.00
00658            3800.00
00659            3400.00
00660            3400.00
00661            3000.00
00662            2800.00
00663            2600.00
00664            2200.00
00665            2200.00
00666            1800.00
00667            1400.00
00668            1200.00
00669             800.00
00670             600.00
00671             600.00
00672             200.00
00673            -200.00
00674            -200.00
00675            -400.00
00676            -800.00
00677           -1000.00
00678           -1200.00
00679           -1600.00
00680           -1800.00
00681           -2000.00
00682           -2200.00
00683           -2600.00
00684           -3200.00
00685           -3400.00
00686           -3400.00
00687           -3400.00
00688           -3600.00
00689           -4200.00
00690           -4200.00
00691           -4400.00
00692           -5000.00
00693           -5000.00
00694           -5200.00
00695           -5600.00
00696           -5800.00
00697           -6000.00
00698           -6400.00
00699           -6400.00
00700           -6600.00
00701           -7000.00
00702           -7200.00
00703           -7400.00
00704           -7800.00
00705           -8000.00
00706           -8200.00
00707           -8400.00
00708           -8400.00
00709           -8800.00
00710           -8800.00
00711           -9000.00
00712           -9400.00
00713           -9600.00
00714           -9800.00
00715           -9800.00
00716          -10000.00
00717          -10400.00
00718          -10400.00
00719          -10600.00
00720          -10800.00
00721          -10800.00
00722          -11000.00
00723          -11200.00
00724          -11400.00
00725          -11400.00
00726          -11600.00
00727          -11800.00
00728          -12200.00
00729          -12200.00
00730          -12200.00
00731          -12400.00
00732          -12400.00
00733          -12800.00
00734          -12800.00
00735          -12800.00
00736          -12800.00
00737          -13000.00
00738          -13200.00
00739          -13200.00
00740          -13200.00
00741          -13200.00
00742          -13400.00
00743          -13400.00
00744          -13600.00
00745          -13600.00
00746          -13600.00
00747          -13800.00
00748          -13800.00
00749          -13800.00
00750          -13800.00
00751          -13800.00
00752          -14000.00
00753          -13800.00
00754          -13800.00
00755          -14000.00
00756          -13800.00
00757          -14000.00
00758          -13800.00
00759          -13800.00
00760          -13800.00
00761          -14000.00
00762          -13600.00
00763          -13600.00
00764          -13800.00
00765          -13800.00
00766          -13600.00
00767          -13400.00
00768          -13600.00
00769          -13200.00
00770          -13200.00
00771          -13200.00
00772          -13200.00
00773          -13000.00
00774          -13200.00
00775          -13000.00
00776          -12800.00
00777          -12800.00
00778          -12600.00
00779          -12400.00
00780          -12400.00
00781          -12200.00
00782          -12200.00
00783          -12000.00
00784          -12000.00
00785          -11600.00
00786          -11800.00
00787          -11400.00
00788          -11200.00
00789          -11200.00
00790          -10800.00
00791          -10800.00
00792          -10600.00
00793          -10400.00
00794          -10400.00
00795          -10000.00
00796          -10000.00
00797           -9800.00
00798           -9600.00
00799           -9200.00
00800           -9200.00
00801           -9000.00
00802           -8800.00
00803           -8600.00
00804           -8400.00
00805           -8200.00
00806           -8000.00
00807           -7800.00
00808           -7400.00
00809           -7200.00
00810           -6800.00
00811           -6800.00
00812           -6600.00
00813           -6400.00
00814           -6200.00
00815           -5800.00
00816           -5600.00
00817           -5400.00
00818           -5000.00
00819           -4800.00
00820           -4600.00
00821           -4400.00
00822           -4000.00
00823           -3600.00
00824           -3600.00
00825           -3400.00
00826           -3200.00
00827           -2800.00
00828           -2600.00
00829           -2400.00
00830           -2200.00
00831           -1800.00
00832           -1800.00
00833           -1400.00
00834           -1000.00
00835            -800.00
00836            -400.00
00837            -400.00
00838               0.00
00839             200.00
00840             400.00
00841             800.00
00842            1200.00
00843            1200.00
00844            1400.00
00845            1600.00
00846            2000.00
00847            2200.00
00848            2400.00
00849            2800.00
00850            3000.00
00851            3400.00
00852            3600.00
00853            3800.00
00854            4000.00
00855            4200.00
00856            4400.00
00857            4800.00
00858            5000.00
00859            5200.00
00860            5400.00
00861            5800.00
00862            6000.00
00863            6200.00
00864            6400.00
00865            6600.00
00866            7000.00
00867            7200.00
00868            7200.00
00869            7600.00
00870            7800.00
00871            8000.00
00872            8200.00
00873            8400.00
00874            8800.00
00875            8800.00
00876            9200.00
00877            9400.00
00878            9400.00
00879            9800.00
00880           10000.00
00881           10000.00
00882           10200.00
00883           10400.00
00884           10600.00
00885           10800.00
00886           11000.00
00887           11000.00
00888           11200.00
00889           11600.00
00890           11600.00
00891           11800.00
00892           11800.00
00893           12000.00
00894           12200.00
00895           12400.00
00896           12400.00
00897           12600.00
00898           12600.00
00899           12800.00
00900           12800.00
00901           13000.00
00902           13000.00
00903           13200.00
00904           13200.00
00905           13400.00
00906           13400.00
00907           13600.00
00908           13400.00
00909           13600.00
00910           13600.00
00911           13600.00
00912           14000.00
00913           14000.00
00914           14000.00
00915           13800.00
00916           14000.00
00917           14000.00
00918           14000.00
00919           14000.00
00920           14200.00
00921           14000.00
00922           14000.00
00923           14000.00
00924           14200.00
00925           14000.00
00926           14000.00
00927           14000.00
00928           13800.00
00929           14000.00
00930           14000.00
00931           13800.00
00932           13800.00
00933           13600.00
00934           13600.00
00935           13600.00
00936           13600.00
00937           13600.00
00938           13200.00
00939           13200.00
00940           13200.00
00941           13200.00
00942           13000.00
00943           12800.00
00944           12800.00
00945           12600.00
00946           12600.00
00947           12400.00
00948           12400.00
00949           12400.00
00950           12200.00
00951           12000.00
00952           11800.00
00953           11600.00
00954           11200.00
00955           11200.00
00956           11000.00
00957           10800.00
00958           10800.00
00959           10800.00
00960           10400.00
00961           10200.00
00962           10000.00
00963           10000.00
00964            9800.00
00965            9600.00
00966            9200.00
00967            9200.00
00968            8800.00
00969            8800.00
00970            8600.00
00971            8400.00
00972            8000.00
00973            7800.00
00974            7800.00
00975            7400.00
00976            7200.00
00977            7000.00
00978            6800.00
00979            6400.00
00980            6400.00
00981            6000.00
00982            5800.00
00983            5600.00
00984            5400.00
00985            5000.00
00986            4800.00
00987            4600.00
00988            4400.00
00989            4000.00
00990            3800.00
00991            3600.00
00992            3200.00
00993            3000.00
00994            2800.00
00995            2600.00
00996            2200.00
00997            2000.00
00998            1800.00
00999            1400.00
01000            1400.00
01001            1000.00
01002             800.00
01003             400.00
01004             200.00
01005               0.00
01006            -200.00
01007            -600.00
01008            -800.00
01009           -1000.00
01010           -1200.00
01011           -1600.00
01012           -1800.00
01013           -1800.00
01014           -2200.00
01015           -2600.00
01016           -3200.00
01017           -3400.00
01018           -3400.00
01019           -3400.00
01020           -3600.00
01021           -4200.00
01022           -4200.00
01023           -4400.00
01024           -4800.00
01025           -5000.00
01026           -5200.00
01027           -5600.00
01028           -5600.00
01029           -6000.00
01030           -6400.00
01031           -6400.00
01032           -6800.00
01033           -7000.00
01034           -7000.00
01035           -7400.00
01036           -7600.00
01037           -7600.00
01038           -8200.00
01039           -8200.00
01040           -8400.00
01041           -8800.00
01042           -9000.00
01043           -9000.00
01044           -9200.00
01045           -9400.00
01046           -9600.00
01047          -10000.00
01048          -10000.00
01049          -10200.00
01050          -10600.00
01051          -10600.00
01052          -10800.00
01053          -11000.00
01054          -11000.00
01055          -11400.00
01056          -11400.00
01057          -11600.00
01058          -11600.00
01059          -12000.00
01060          -12000.00
01061          -12200.00
01062          -12400.00
01063          -12400.00
01064          -12400.00
01065          -12800.00
01066          -12800.00
01067          -13000.00
01068          -12800.00
01069          -13000.00
01070          -13200.00
01071          -13200.00
01072          -13200.00
01073          -13400.00
01074          -13600.00
01075          -13400.00
01076          -13600.00
01077          -13600.00
01078          -13600.00
01079          -13800.00
01080          -13600.00
01081          -13800.00
01082          -13800.00
01083          -13800.00
01084          -13800.00
01085          -13800.00
01086          -13800.00
01087          -14000.00
01088          -13800.00
01089          -13800.00
01090          -13800.00
01091          -13600.00
01092          -13800.00
01093          -13800.00
01094          -13800.00
01095          -13800.00
01096          -13600.00
01097          -13600.00
01098          -13600.00
01099          -13400.00
01100          -13400.00
01101          -13200.00
01102          -13400.00
01103          -13200.00
01104          -13200.00
01105          -13000.00
01106          -13200.00
01107          -13000.00
01108          -12800.00
01109          -12800.00
01110          -12800.00
01111          -12600.00
01112          -12400.00
01113          -12200.00
01114          -12000.00
01115          -12200.00
01116          -12000.00
01117          -11800.00
01118          -11600.00
01119          -11400.00
01120          -11200.00
01121          -11200.00
01122          -10800.00
01123          -10800.00
01124          -10600.00
01125          -10400.00
01126          -10200.00
01127          -10000.00
01128          -10000.00
01129           -9800.00
01130           -9600.00
01131           -9400.00
01132           -9000.00
01133           -9200.00
01134           -8800.00
01135           -8800.00
01136           -8400.00
01137           -8200.00
01138           -8000.00
01139           -7800.00
01140           -7600.00
01141           -7200.00
01142           -7200.00
01143           -6800.00
01144           -6400.00
01145           -6400.00
01146           -6000.00
01147           -6000.00
01148           -5600.00
01149           -5400.00
01150           -5200.00
01151           -5000.00
01152           -4600.00
01153           -4600.00
01154           -4200.00
01155           -4000.00
01156           -3600.00
01157           -3400.00
01158           -3200.00
01159           -3000.00
01160           -2600.00
01161           -2400.00
01162           -2200.00
01163           -1800.00
01164           -1800.00
01165           -1400.00
01166           -1200.00
01167            -800.00
01168            -600.00
01169            -400.00
01170               0.00
01171             200.00
01172             400.00
01173             600.00
01174             800.00
01175            1200.00
01176            1400.00
01177            1800.00
01178            2000.00
01179            2000.00
01180            2400.00
01181            2600.00
01182            3000.00
01183            3200.00
01184            3600.00
01185            3600.00
01186            4000.00
01187            4200.00
01188            4400.00
01189            4600.00
01190            4800.00
01191            5000.00
01192            5400.00
01193            5800.00
01194            6000.00
01195            6200.00
01196            6400.00
01197            6600.00
01198            7000.00
01199            7000.00
01200            7200.00
01201            7600.00
01202            7800.00
01203            8000.00
01204            8200.00
01205            8400.00
01206            8800.00
01207            8800.00
01208            9000.00
01209            9200.00
01210            9400.00
01211            9600.00
01212           10000.00
01213           10000.00
01214           10200.00
01215           10400.00
01216           10600.00
01217           10800.00
01218           10800.00
01219           11000.00
01220           11200.00
01221           11400.00
01222           11600.00
01223           11600.00
01224           12000.00
01225           12000.00
01226           12200.00
01227           12400.00
01228           12200.00
01229           12600.00
01230           12800.00
01231           12800.00
01232           12800.00
01233           13200.00
01234           13200.00
01235           13200.00
01236           13400.00
01237           13400.00
01238           13200.00
01239           13600.00
01240           13600.00
01241           13600.00
01242           13600.00
01243           13800.00
01244           14000.00
01245           14000.00
01246           14000.00
01247           14000.00
01248           14000.00
01249           14000.00
01250           14000.00
01251           14000.00
01252           14200.00
01253           14000.00
01254           14200.00
01255           14200.00
01256           14200.00
01257           14000.00
01258           14200.00
01259           14000.00
01260           14000.00
01261           14000.00
01262           13800.00
01263           13800.00
01264           13600.00
01265           13600.00
01266           13600.00
01267           13600.00
01268           13600.00
01269           13400.00
01270           13400.00
01271           13400.00
01272           13200.00
01273           13200.00
01274           13200.00
01275           13000.00
01276           12800.00
01277           12800.00
01278           12600.00
01279           12400.00
01280           12400.00
01281           12400.00
01282           12000.00
01283           12000.00
01284           11800.00
01285           11600.00
01286           11600.00
01287           11200.00
01288           11200.00
01289           11000.00
01290           11000.00
01291           10800.00
01292           10400.00
01293           10400.00
01294           10200.00
01295           10000.00
01296            9800.00
01297            9600.00
01298            9400.00
01299            9200.00
01300            8800.00
01301            8800.00
01302            8400.00
01303            8400.00
01304            8000.00
01305            8000.00
01306            7800.00
01307            7400.00
01308            7200.00
01309            7000.00
01310            6800.00
01311            6600.00
01312            6400.00
01313            6200.00
01314            6000.00
01315            5600.00
01316            5400.00
01317            5000.00
01318            4800.00
01319            4400.00
01320            4400.00
01321            4000.00
01322            3800.00
01323            3600.00
01324            3200.00
01325            3000.00
01326            2800.00
01327            2400.00
01328            2400.00
01329            2000.00
01330            1800.00
01331            1600.00
01332            1200.00
01333            1000.00
01334             800.00
01335             600.00
01336             200.00
01337               0.00
01338            -200.00
01339            -400.00
01340            -800.00
01341           -1000.00
01342           -1200.00
01343           -1600.00
01344           -1800.00
01345           -2000.00
01346           -2200.00
01347           -2600.00
01348           -3200.00
01349           -3400.00
01350           -3400.00
01351           -3400.00
01352           -3600.00
01353           -4200.00
01354           -4200.00
01355           -4400.00
01356           -5000.00
01357           -5000.00
01358           -5000.00
01359           -5600.00
01360           -5600.00
01361           -6000.00
01362           -6400.00
01363           -6400.00
01364           -6800.00
01365           -7200.00
01366           -7000.00
01367           -7400.00
01368           -7800.00
01369           -7800.00
01370           -8000.00
01371           -8200.00
01372           -8400.00
01373           -8800.00
01374           -8800.00
01375           -9200.00
01376           -9400.00
01377           -9600.00
01378           -9800.00
01379          -10000.00
01380          -10000.00
01381          -10400.00
01382          -10400.00
01383          -10600.00
01384          -10800.00
01385          -10800.00
01386          -11200.00
01387          -11400.00
01388          -11400.00
01389          -11600.00
01390          -11800.00
01391          -12000.00
01392          -12000.00
01393          -12200.00
01394          -12200.00
01395          -12400.00
01396          -12400.00
01397          -12800.00
01398          -12600.00
01399          -12800.00
01400          -13000.00
01401          -13000.00
01402          -13200.00
01403          -13200.00
01404          -13200.00
01405          -13200.00
01406          -13600.00
01407          -13400.00
01408          -13600.00
01409          -13600.00
01410          -13800.00
01411          -13600.00
01412          -13800.00
01413          -13800.00
01414          -13800.00
01415          -13800.00
01416          -14000.00
01417          -13800.00
01418          -13800.00
01419          -14000.00
01420          -14000.00
01421          -13800.00
01422          -13800.00
01423          -14000.00
01424          -13800.00
01425          -13800.00
01426          -13600.00
01427          -13800.00
01428          -13600.00
01429          -13800.00
01430          -13600.00
01431          -13600.00
01432          -13600.00
01433          -13400.00
01434          -13400.00
01435          -13400.00
01436          -13200.00
01437          -13200.00
01438          -13200.00
01439          -13000.00
01440          -12800.00
01441          -12800.00
01442          -12800.00
01443          -12400.00
01444          -12600.00
01445          -12400.00
01446          -12200.00
01447          -12000.00
01448          -12000.00
01449          -11800.00
01450          -11600.00
01451          -11400.00
01452          -11400.00
01453          -11200.00
01454          -10800.00
01455          -10800.00
01456          -10600.00
01457          -10400.00
01458          -10200.00
01459          -10000.00
01460           -9800.00
01461           -9800.00
01462           -9600.00
01463           -9400.00
01464           -9200.00
01465           -9000.00
01466           -8800.00
01467           -8600.00
01468           -8400.00
01469           -8200.00
01470           -8000.00
01471           -7800.00
01472           -7600.00
01473           -7200.00
01474           -7200.00
01475           -6800.00
01476           -6600.00
01477           -6400.00
01478           -6000.00
01479           -5800.00
01480           -5600.00
01481           -5400.00
01482           -5200.00
01483           -5000.00
01484           -4600.00
01485           -4400.00
01486           -4200.00
01487           -4000.00
01488           -3600.00
01489           -3400.00
01490           -3200.00
01491           -3000.00
01492           -2600.00
01493           -2400.00
01494           -2000.00
01495           -2000.00
01496           -1600.00
01497           -1400.00
01498           -1200.00
01499            -800.00
01500            -600.00
01501            -400.00
01502               0.00
01503             200.00
01504             400.00
01505             800.00
01506             800.00
01507            1200.00
01508            1400.00
01509            1800.00
01510            2000.00
01511            2000.00
01512            2400.00
01513            2800.00
01514            3000.00
01515            3200.00
01516            3600.00
01517            3600.00
01518            3800.00
01519            4200.00
01520            4400.00
01521            4600.00
01522            5000.00
01523            5000.00
01524            5400.00
01525            5800.00
01526            5800.00
01527            6200.00
01528            6400.00
01529            6600.00
01530            6800.00
01531            7000.00
01532            7200.00
01533            7600.00
01534            7800.00
01535            8000.00
01536            8200.00
01537            8400.00
01538            8800.00
01539            8800.00
01540            9000.00
01541            9200.00
01542            9400.00
01543            9600.00
01544           10000.00
01545           10000.00
01546           10400.00
01547           10400.00
01548           10600.00
01549           10800.00
01550           11000.00
01551           11000.00
01552           11200.00
01553           11400.00
01554           11800.00
01555           11800.00
01556           11800.00
01557           12200.00
01558           12200.00
01559           12400.00
01560           12400.00
01561           12600.00
01562           12600.00
01563           12800.00
01564           12800.00
01565           12800.00
01566           13200.00
01567           13200.00
01568           13200.00
01569           13200.00
01570           13400.00
01571           13400.00
01572           13400.00
01573           13600.00
01574           13600.00
01575           13800.00
01576           14000.00
01577           14000.00
01578           14000.00
01579           14000.00
01580           14000.00
01581           14000.00
01582           14000.00
01583           14000.00
01584           14200.00
01585           14000.00
01586           14000.00
01587           14200.00
01588           14000.00
01589           14000.00
01590           14000.00
01591           14000.00
01592           14000.00
01593           14000.00
01594           14000.00
01595           13800.00
01596           13800.00
01597           13600.00
01598           13600.00
01599           13600.00
01600           13600.00
01601           13400.00
01602           13400.00
01603           13200.00
01604           13200.00
01605           13000.00
01606           12800.00
01607           13000.00
01608           12800.00
01609           12600.00
01610           12400.00
01611           12400.00
01612           12400.00
01613           12200.00
01614           12000.00
01615           12000.00
01616           11800.00
01617           11600.00
01618           11400.00
01619           11200.00
01620           11200.00
01621           11000.00
01622           10800.00
01623           10800.00
01624           10400.00
01625           10400.00
01626           10000.00
01627           10000.00
01628            9800.00
01629            9600.00
01630            9400.00
01631            9200.00
01632            9000.00
01633            8800.00
01634            8600.00
01635            8400.00
01636            8200.00
01637            8000.00
01638            7800.00
01639            7600.00
01640            7200.00
01641            7000.00
01642            6800.00
01643            6600.00
01644            6400.00
01645            6200.00
01646            6000.00
01647            5600.00
01648            5400.00
01649            5200.00
01650            4800.00
01651            4600.00
01652            4400.00
01653            4000.00
01654            3600.00
01655            3600.00
01656            3400.00
01657            3200.00
01658            2800.00
01659            2600.00
01660            2200.00
01661            2000.00
01662            2000.00
01663            1600.00
01664            1200.00
01665            1000.00
01666             600.00
01667             400.00
01668             400.00
01669            -200.00
01670            -400.00
01671            -600.00
01672            -800.00
01673           -1000.00
01674           -1400.00
01675           -1600.00
01676           -1800.00
01677           -2000.00
01678           -2200.00
01679           -2600.00
01680           -3000.00
01681           -3400.00
01682           -3400.00
01683           -3200.00
01684           -3600.00
01685           -4200.00
01686           -4200.00
01687           -4200.00
01688           -4800.00
01689           -5000.00
01690           -5200.00
01691           -5600.00
01692           -5800.00
01693           -5800.00
01694           -6400.00
01695           -6400.00
01696           -6800.00
01697           -7000.00
01698           -7200.00
01699           -7400.00
01700           -7800.00
01701           -7600.00
01702           -8200.00
01703           -8200.00
01704           -8400.00
01705           -8800.00
01706           -9000.00
01707           -9200.00
01708           -9400.00
01709           -9400.00
01710           -9800.00
01711          -10000.00
01712          -10000.00
01713          -10400.00
01714          -10400.00
01715          -10600.00
01716          -10800.00
01717          -10800.00
01718          -11000.00
01719          -11200.00
01720          -11400.00
01721          -11600.00
01722          -11800.00
01723          -11800.00
01724          -12000.00
01725          -12000.00
01726          -12400.00
01727          -12400.00
01728          -12400.00
01729          -12600.00
01730          -12800.00
01731          -12800.00
01732          -13000.00
01733          -13000.00
01734          -13200.00
01735          -13200.00
01736          -13400.00
01737          -13200.00
01738          -13400.00
01739          -13400.00
01740          -13600.00
01741          -13600.00
01742          -13600.00
01743          -13600.00
01744          -13600.00
01745          -13800.00
01746          -13800.00
01747          -13800.00
01748          -14000.00
01749          -13800.00
01750          -13800.00
01751          -13800.00
01752          -14000.00
01753          -13800.00
01754          -13800.00
01755          -13800.00
01756          -13800.00
01757          -13800.00
01758          -13800.00
01759          -13600.00
01760          -13800.00
01761          -13800.00
01762          -13600.00
01763          -13600.00
01764          -13400.00
01765          -13600.00
01766          -13200.00
01767          -13200.00
01768          -13200.00
01769          -13200.00
01770          -13000.00
01771          -13000.00
01772          -13000.00
01773          -12800.00
01774          -12600.00
01775          -12600.00
01776          -12400.00
01777          -12400.00
01778          -12200.00
01779          -12200.00
01780          -12000.00
01781          -11800.00
01782          -11600.00
01783          -11400.00
01784          -11400.00
01785          -11000.00
01786          -10800.00
01787          -10800.00
01788          -10800.00
01789          -10400.00
01790          -10400.00
01791          -10000.00
01792          -10000.00
01793           -9800.00
01794           -9600.00
01795           -9600.00
01796           -9200.00
01797           -9000.00
01798           -8800.00
01799           -8600.00
01800           -8400.00
01801           -8200.00
01802           -8000.00
01803           -7800.00
01804           -7600.00
01805           -7200.00
01806           -7000.00
01807           -6800.00
01808           -6800.00
01809           -6400.00
01810           -6000.00
01811           -6000.00
01812           -5600.00
01813           -5600.00
01814           -5000.00
01815           -5000.00
01816           -4600.00
01817           -4400.00
01818           -4200.00
01819           -4000.00
01820           -3600.00
01821           -3400.00
01822           -3200.00
01823           -3000.00
01824           -2600.00
01825           -2400.00
01826           -2400.00
01827           -1800.00
01828           -1800.00
01829           -1400.00
01830           -1200.00
01831            -800.00
01832            -600.00
01833            -400.00
01834               0.00
01835             200.00
01836             400.00
01837             600.00
01838             800.00
01839            1200.00
01840            1400.00
01841            1600.00
01842            1800.00
01843            2000.00
01844            2400.00
01845            2800.00
01846            3000.00
01847            3200.00
01848            3400.00
01849            3600.00
01850            3800.00
01851            4400.00
01852            4400.00
01853            4600.00
01854            5000.00
01855            5200.00
01856            5400.00
01857            5800.00
01858            6000.00
01859            6000.00
01860            6400.00
01861            6600.00
01862            7000.00
01863            7200.00
01864            7200.00
01865            7600.00
01866            7800.00
01867            8000.00
01868            8400.00
01869            8400.00
01870            8600.00
01871            8800.00
01872            8800.00
01873            9200.00
01874            9600.00
01875            9600.00
01876           10000.00
01877           10000.00
01878           10200.00
01879           10400.00
01880           10400.00
01881           10800.00
01882           11000.00
01883           11200.00
01884           11200.00
01885           11400.00
01886           11600.00
01887           11800.00
01888           11800.00
01889           12000.00
01890           12200.00
01891           12400.00
01892           12400.00
01893           12600.00
01894           12600.00
01895           12800.00
01896           12800.00
01897           12800.00
01898           13000.00
01899           13200.00
01900           13200.00
01901           13400.00
01902           13400.00
01903           13400.00
01904           13600.00
01905           13600.00
01906           13600.00
01907           13600.00
01908           13800.00
01909           14000.00
01910           14000.00
01911           14000.00
01912           14000.00
01913           14000.00
01914           14000.00
01915           14200.00
01916           14000.00
01917           14000.00
01918           14000.00
01919           14000.00
01920           14000.00
01921           14000.00
01922           14000.00
01923           14000.00
01924           14000.00
01925           14000.00
01926           13800.00
01927           13800.00
01928           13600.00
01929           13800.00
01930           13600.00
01931           13600.00
01932           13400.00
01933           13400.00
01934           13400.00
01935           13400.00
01936           13200.00
01937           13200.00
01938           13000.00
01939           12800.00
01940           12800.00
01941           12800.00
01942           12600.00
01943           12400.00
01944           12400.00
01945           12200.00
01946           12000.00
01947           11800.00
01948           11800.00
01949           11600.00
01950           11600.00
01951           11200.00
01952           11000.00
01953           11000.00
01954           10800.00
01955           10600.00
01956           10400.00
01957           10200.00
01958           10000.00
01959            9800.00
01960            9600.00
01961            9600.00
01962            9400.00
01963            9200.00
01964            9200.00
01965            8800.00
01966            8600.00
01967            8400.00
01968            8000.00
01969            7800.00
01970            7600.00
01971            7600.00
01972            7200.00
01973            7000.00
01974            6800.00
01975            6600.00
01976            6400.00
01977            6200.00
01978            5800.00
01979            5600.00
01980            5400.00
01981            5200.00
01982            4800.00
01983            4400.00
01984            4200.00
01985            4000.00
01986            3800.00
01987            3400.00
01988            3200.00
01989            3200.00
01990            2800.00
01991            2400.00
01992            2400.00
01993            2000.00
01994            1800.00
01995            1600.00
01996            1200.00
01997            1000.00
01998             600.00
01999             600.00
02000             400.00
02001               0.00
02002            -200.00
02003            -600.00
02004            -800.00
02005           -1000.00
02006           -1200.00
02007           -1600.00
02008           -1800.00
02009           -2000.00
02010           -2200.00
02011           -2600.00
02012           -2800.00
02013           -3400.00
02014           -3400.00
02015           -3200.00
02016           -3600.00
02017           -4200.00
02018           -4200.00
02019           -4400.00
02020           -4800.00
02021           -5000.00
02022           -5000.00
02023           -5600.00
02024           -5600.00
02025           -6000.00
02026           -6400.00
02027           -6400.00
02028           -6800.00
02029           -7200.00
02030           -7000.00
02031           -7400.00
02032           -7800.00
02033           -7800.00
02034           -8200.00
02035           -8400.00
02036           -8400.00
02037           -8800.00
02038           -8800.00
02039           -9000.00
02040           -9600.00
02041           -9400.00
02042           -9600.00
02043          -10000.00
02044          -10000.00
02045          -10200.00
02046          -10400.00
02047          -10600.00
02048          -10800.00
02049          -10800.00
02050          -11000.00
02051          -11400.00
02052          -11400.00
02053          -11600.00
02054          -11600.00
02055          -12000.00
02056          -12000.00
02057          -12200.00
02058          -12200.00
02059          -12200.00
02060          -12600.00
02061          -12600.00
02062          -12600.00
02063          -12800.00
02064          -13000.00
02065          -13000.00
02066          -13000.00
02067          -13200.00
02068          -13200.00
02069          -13200.00
02070          -13400.00
02071          -13600.00
02072          -13600.00
02073          -13600.00
02074          -13600.00
02075          -13800.00
02076          -13600.00
02077          -13800.00
02078          -13800.00
02079          -13800.00
02080          -13800.00
02081          -13800.00
02082          -13800.00
02083          -13800.00
02084          -13800.00
02085          -14000.00
02086          -13800.00
02087          -13800.00
02088          -13800.00
02089          -13800.00
02090          -13800.00
02091          -13600.00
02092          -13600.00
02093          -13600.00
02094          -13600.00
02095          -13600.00
02096          -13400.00
02097          -13400.00
02098          -13200.00
02099          -13200.00
02100          -13200.00
02101          -13200.00
02102          -13000.00
02103          -13000.00
02104          -12800.00
02105          -12800.00
02106          -12800.00
02107          -12600.00
02108          -12400.00
02109          -12400.00
02110          -12200.00
02111          -12200.00
02112          -12000.00
02113          -11600.00
02114          -11800.00
02115          -11400.00
02116          -11000.00
02117          -11200.00
02118          -11000.00
02119          -10800.00
02120          -10800.00
02121          -10400.00
02122          -10200.00
02123          -10000.00
02124           -9800.00
02125           -9800.00
02126           -9600.00
02127           -9200.00
02128           -9200.00
02129           -9000.00
02130           -9000.00
02131           -8800.00
02132           -8400.00
02133           -8200.00
02134           -8000.00
02135           -7600.00
02136           -7400.00
02137           -7400.00
02138           -7200.00
02139           -6800.00
02140           -6600.00
02141           -6400.00
02142           -6200.00
02143           -6000.00
02144           -5600.00
02145           -5600.00
02146           -5200.00
02147           -5000.00
02148           -4800.00
02149           -4400.00
02150           -4200.00
02151           -4000.00
02152           -3600.00
02153           -3400.00
02154           -3200.00
02155           -2800.00
02156           -2600.00
02157           -2400.00
02158           -2200.00
02159           -2000.00
02160           -1800.00
02161           -1600.00
02162           -1000.00
02163           -1000.00
02164            -400.00
02165            -400.00
02166            -200.00
02167               0.00
02168             400.00
02169             600.00
02170             800.00
02171            1200.00
02172            1400.00
02173            1800.00
02174            2000.00
02175            2000.00
02176            2200.00
02177            2800.00
02178            3000.00
02179            3400.00
02180            3600.00
02181            3600.00
02182            3800.00
02183            4000.00
02184            4400.00
02185            4600.00
02186            4800.00
02187            5200.00
02188            5400.00
02189            5800.00
02190            6000.00
02191            6000.00
02192            6400.00
02193            6600.00
02194            7000.00
02195            7000.00
02196            7200.00
02197            7600.00
02198            7800.00
02199            8000.00
02200            8200.00
02201            8400.00
02202            8600.00
02203            8800.00
02204            8800.00
02205            9200.00
02206            9400.00
02207            9600.00
02208            9800.00
02209           10000.00
02210           10200.00
02211           10400.00
02212           10400.00
02213           10800.00
02214           11000.00
02215           11000.00
02216           11200.00
02217           11600.00
02218           11600.00
02219           11800.00
02220           12000.00
02221           12000.00
02222           12000.00
02223           12400.00
02224           12400.00
02225           12400.00
02226           12600.00
02227           12800.00
02228           12800.00
02229           12800.00
02230           13000.00
02231           13200.00
02232           13200.00
02233           13400.00
02234           13400.00
02235           13400.00
02236           13600.00
02237           13600.00
02238           13600.00
02239           13600.00
02240           13800.00
02241           14000.00
02242           14000.00
02243           14000.00
02244           14000.00
02245           14000.00
02246           14000.00
02247           14000.00
02248           14200.00
02249           14000.00
02250           14000.00
02251           14000.00
02252           14000.00
02253           14000.00
02254           14000.00
02255           14000.00
02256           14000.00
02257           14000.00
02258           14000.00
02259           13800.00
02260           13800.00
02261           13600.00
02262           13600.00
02263           13600.00
02264           13400.00
02265           13600.00
02266           13400.00
02267           13400.00
02268           13200.00
02269           13200.00
02270           13000.00
02271           13000.00
02272           12800.00
02273           12800.00
02274           12600.00
02275           12400.00
02276           12400.00
02277           12200.00
02278           12000.00
02279           12000.00
02280           11800.00
02281           11600.00
02282           11600.00
02283           11200.00
02284           11000.00
02285           11000.00
02286           10800.00
02287           10600.00
02288           10400.00
02289           10400.00
02290           10200.00
02291           10000.00
02292            9800.00
02293            9600.00
02294            9400.00
02295            9200.00
02296            9000.00
02297            8800.00
02298            8600.00
02299            8400.00
02300            8200.00
02301            8000.00
02302            7600.00
02303            7600.00
02304            7200.00
02305            7000.00
02306            7000.00
02307            6600.00
02308            6400.00
02309            6200.00
02310            6000.00
02311            5800.00
02312            5400.00
02313            5200.00
02314            4800.00
02315            4600.00
02316            4400.00
02317            4000.00
02318            3800.00
02319            3600.00
02320            3400.00
02321            3200.00
02322            2800.00
02323            2600.00
02324            2400.00
02325            2000.00
02326            2000.00
02327            1600.00
02328            1200.00
02329            1000.00
02330             800.00
02331             400.00
02332             400.00
02333               0.00
02334            -200.00
02335            -400.00
02336            -800.00
02337           -1000.00
02338           -1200.00
02339           -1400.00
02340           -1600.00
02341           -2000.00
02342           -2000.00
02343           -2600.00
02344           -3000.00
02345           -3400.00
02346           -3400.00
02347           -3200.00
02348           -3600.00
02349           -4200.00
02350           -4000.00
02351           -4200.00
02352           -4800.00
02353           -5000.00
02354           -5200.00
02355           -5600.00
02356           -5600.00
02357           -5800.00
02358           -6400.00
02359           -6400.00
02360           -6800.00
02361           -6800.00
02362           -7000.00
02363           -7400.00
02364           -7800.00
02365           -7600.00
02366           -8200.00
02367           -8400.00
02368           -8400.00
02369           -8800.00
02370           -9000.00
02371           -9000.00
02372           -9400.00
02373           -9600.00
02374           -9800.00
02375          -10000.00
02376          -10000.00
02377          -10200.00
02378          -10400.00
02379          -10600.00
02380          -10600.00
02381          -10800.00
02382          -11000.00
02383          -11200.00
02384          -11200.00
02385          -11600.00
02386          -11800.00
02387          -12000.00
02388          -12000.00
02389          -12200.00
02390          -12200.00
02391          -12400.00
02392          -12400.00
02393          -12600.00
02394          -12600.00
02395          -12800.00
02396          -13000.00
02397          -13000.00
02398          -13200.00
02399          -13200.00
02400          -13400.00
02401          -13200.00
02402          -13600.00
02403          -13400.00
02404          -13600.00
02405          -13600.00
02406          -13600.00
02407          -13800.00
02408          -13800.00
02409          -13600.00
02410          -13800.00
02411          -13800.00
02412          -13800.00
02413          -13800.00
02414          -13800.00
02415          -14000.00
02416          -14000.00
02417          -13800.00
02418          -13800.00
02419          -13800.00
02420          -14000.00
02421          -13800.00
02422          -13600.00
02423          -13800.00
02424          -13800.00
02425          -13600.00
02426          -13600.00
02427          -13400.00
02428          -13600.00
02429          -13400.00
02430          -13400.00
02431          -13200.00
02432          -13200.00
02433          -13200.00
02434          -13000.00
02435          -13000.00
02436          -13000.00
02437          -12400.00
02438          -12800.00
02439          -12400.00
02440          -12400.00
02441          -12400.00
02442          -12200.00
02443          -12000.00
02444          -12000.00
02445          -11800.00
02446          -11800.00
02447          -11400.00
02448          -11400.00
02449          -11000.00
02450          -11000.00
02451          -10800.00
02452          -10600.00
02453          -10400.00
02454          -10400.00
02455          -10000.00
02456           -9800.00
02457           -9800.00
02458           -9800.00
02459           -9200.00
02460           -9200.00
02461           -9000.00
02462           -8800.00
02463           -8800.00
02464           -8400.00
02465           -8200.00
02466           -8000.00
02467           -8000.00
02468           -7600.00
02469           -7200.00
02470           -7200.00
02471           -6800.00
02472           -6600.00
02473           -6400.00
02474           -6200.00
02475           -5800.00
02476           -5600.00
02477           -5600.00
02478           -5200.00
02479           -4800.00
02480           -4600.00
02481           -4400.00
02482           -4200.00
02483           -4000.00
02484           -3600.00
02485           -3400.00
02486           -3400.00
02487           -3000.00
02488           -2600.00
02489           -2400.00
02490           -2200.00
02491           -2000.00
02492           -1600.00
02493           -1200.00
02494           -1200.00
02495           -1000.00
02496            -600.00
02497            -400.00
02498               0.00
02499               0.00
02500             400.00
02501             600.00
02502             800.00
02503            1200.00
02504            1400.00
02505            1800.00
02506            2000.00
02507            2200.00
02508            2200.00
02509            2600.00
02510            3000.00
02511            3200.00
02512            3400.00
02513            3600.00
02514            3800.00
02515            4200.00
02516            4400.00
02517            4600.00
02518            5000.00
02519            5200.00
02520            5400.00
02521            5800.00
02522            5800.00
02523            6200.00
02524            6400.00
02525            6600.00
02526            7000.00
02527            7200.00
02528            7200.00
02529            7600.00
02530            7800.00
02531            8000.00
02532            8200.00
02533            8400.00
02534            8600.00
02535            8800.00
02536            9000.00
02537            9200.00
02538            9400.00
02539            9600.00
02540            9800.00
02541           10000.00
02542           10200.00
02543           10400.00
02544           10600.00
02545           10800.00
02546           11000.00
02547           11000.00
02548           11200.00
02549           11400.00
02550           11600.00
02551           11600.00
02552           11800.00
02553           12000.00
02554           12000.00
02555           12200.00
02556           12400.00
02557           12600.00
02558           12600.00
02559           12800.00
02560           12800.00
02561           12800.00
02562           12800.00
02563           13200.00
02564           13200.00
02565           13400.00
02566           13400.00
02567           13400.00
02568           13400.00
02569           13600.00
02570           13600.00
02571           13800.00
02572           14000.00
02573           14000.00
02574           14000.00
02575           13800.00
02576           14000.00
02577           14000.00
02578           14200.00
02579           14000.00
02580           14000.00
02581           14200.00
02582           14000.00
02583           14200.00
02584           14200.00
02585           14000.00
02586           14000.00
02587           14000.00
02588           14000.00
02589           13800.00
02590           13800.00
02591           13800.00
02592           13800.00
02593           13800.00
02594           13600.00
02595           13600.00
02596           13400.00
02597           13400.00
02598           13400.00
02599           13200.00
02600           13200.00
02601           13200.00
02602           13200.00
02603           12800.00
02604           12800.00
02605           12800.00
02606           12800.00
02607           12400.00
02608           12400.00
02609           12400.00
02610           12000.00
02611           12000.00
02612           11800.00
02613           11600.00
02614           11600.00
02615           11400.00
02616           11200.00
02617           10800.00
02618           11000.00
02619           10800.00
02620           10400.00
02621           10400.00
02622           10000.00
02623           10000.00
02624            9600.00
02625            9400.00
02626            9400.00
02627            9200.00
02628            9000.00
02629            8800.00
02630            8600.00
02631            8400.00
02632            8200.00
02633            8000.00
02634            7800.00
02635            7600.00
02636            7200.00
02637            7000.00
02638            6800.00
02639            6600.00
02640            6400.00
02641            6200.00
02642            6000.00
02643            5600.00
02644            5400.00
02645            5000.00
02646            4800.00
02647            4600.00
02648            4400.00
02649            4000.00
02650            3800.00
02651            3600.00
02652            3400.00
02653            3200.00
02654            2800.00
02655            2400.00
02656            2400.00
02657            2200.00
02658            1800.00
02659            1600.00
02660            1400.00
02661            1000.00
02662             800.00
02663             600.00
02664             400.00
02665               0.00
02666            -200.00
02667            -400.00
02668            -800.00
02669           -1000.00
02670           -1200.00
02671           -1400.00
02672           -1800.00
02673           -1800.00
02674           -2000.00
02675           -2400.00
02676           -3000.00
02677           -3400.00
02678           -3400.00
02679           -3400.00
02680           -3600.00
02681           -4200.00
02682           -4200.00
02683           -4400.00
02684           -4800.00
02685           -5000.00
02686           -5200.00
02687           -5600.00
02688           -5600.00
02689           -5800.00
02690           -6400.00
02691           -6600.00
02692           -6600.00
02693           -7200.00
02694           -7000.00
02695           -7400.00
02696           -7800.00
02697           -7600.00
02698           -8200.00
02699           -8200.00
02700           -8400.00
02701           -8800.00
02702           -9000.00
02703           -9000.00
02704           -9200.00
02705           -9600.00
02706           -9800.00
02707           -9800.00
02708          -10000.00
02709          -10400.00
02710          -10400.00
02711          -10600.00
02712          -10800.00
02713          -10800.00
02714          -11200.00
02715          -11400.00
02716          -11400.00
02717          -11600.00
02718          -12000.00
02719          -12000.00
02720          -12000.00
02721          -12200.00
02722          -12200.00
02723          -12400.00
02724          -12600.00
02725          -12600.00
02726          -12800.00
02727          -12800.00
02728          -13000.00
02729          -13000.00
02730          -13000.00
02731          -13200.00
02732          -13200.00
02733          -13400.00
02734          -13400.00
02735          -13600.00
02736          -13600.00
02737          -13600.00
02738          -13600.00
02739          -13800.00
02740          -13600.00
02741          -13800.00
02742          -13800.00
02743          -13800.00
02744          -13800.00
02745          -13800.00
02746          -13800.00
02747          -13800.00
02748          -13800.00
02749          -13800.00
02750          -13800.00
02751          -13800.00
02752          -13800.00
02753          -13800.00
02754          -13800.00
02755          -13600.00
02756          -13800.00
02757          -13600.00
02758          -13600.00
02759          -13600.00
02760          -13600.00
02761          -13600.00
02762          -13400.00
02763          -13400.00
02764          -13200.00
02765          -13200.00
02766          -13200.00
02767          -13000.00
02768          -12800.00
02769          -12800.00
02770          -12800.00
02771          -12600.00
02772          -12400.00
02773          -12400.00
02774          -12200.00
02775          -12200.00
02776          -11800.00
02777          -12000.00
02778          -11600.00
02779          -11600.00
02780          -11400.00
02781          -11400.00
02782          -11000.00
02783          -10800.00
02784          -10600.00
02785          -10600.00
02786          -10400.00
02787          -10200.00
02788          -10000.00
02789           -9800.00
02790           -9600.00
02791           -9600.00
02792           -9200.00
02793           -9000.00
02794           -9000.00
02795           -8600.00
02796           -8400.00
02797           -8200.00
02798           -8000.00
02799           -7600.00
02800           -7600.00
02801           -7200.00
02802           -7200.00
02803           -6800.00
02804           -6800.00
02805           -6400.00
02806           -6200.00
02807           -6000.00
02808           -5800.00
02809           -5600.00
02810           -5400.00
02811           -4800.00
02812           -4600.00
02813           -4400.00
02814           -4200.00
02815           -4000.00
02816           -3800.00
02817           -3400.00
02818           -3200.00
02819           -3000.00
02820           -2600.00
02821           -2600.00
02822           -2400.00
02823           -2000.00
02824           -1600.00
02825           -1400.00
02826           -1200.00
02827           -1000.00
02828            -800.00
02829            -400.00
02830            -200.00
02831               0.00
02832             400.00
02833             600.00
02834             800.00
02835            1200.00
02836            1400.00
02837            1800.00
02838            2000.00
02839            2200.00
02840            2400.00
02841            2600.00
02842            3000.00
02843            3200.00
02844            3400.00
02845            3600.00
02846            3800.00
02847            4000.00
02848            4200.00
02849            4600.00
02850            4800.00
02851            5000.00
02852            5400.00
02853            5600.00
02854            6000.00
02855            6000.00
02856            6400.00
02857            6400.00
02858            7000.00
02859            7200.00
02860            7200.00
02861            7600.00
02862            7800.00
02863            8000.00
02864            8200.00
02865            8400.00
02866            8600.00
02867            8800.00
02868            9000.00
02869            9200.00
02870            9400.00
02871            9600.00
02872           10000.00
02873           10000.00
02874           10200.00
02875           10400.00
02876           10400.00
02877           10800.00
02878           11000.00
02879           11000.00
02880           11200.00
02881           11400.00
02882           11600.00
02883           11800.00
02884           11800.00
02885           12000.00
02886           12000.00
02887           12400.00
02888           12400.00
02889           12400.00
02890           12600.00
02891           12800.00
02892           12800.00
02893           12800.00
02894           13000.00
02895           13200.00
02896           13200.00
02897           13200.00
02898           13400.00
02899           13600.00
02900           13600.00
02901           13600.00
02902           13600.00
02903           13800.00
02904           13600.00
02905           14000.00
02906           14000.00
02907           14000.00
02908           14000.00
02909           14000.00
02910           14000.00
02911           14200.00
02912           14200.00
02913           14000.00
02914           14000.00
02915           14000.00
02916           14200.00
02917           14200.00
02918           14000.00
02919           14000.00
02920           14000.00
02921           14000.00
02922           13800.00
02923           14000.00
02924           13600.00
02925           13600.00
02926           13600.00
02927           13600.00
02928           13600.00
02929           13400.00
02930           13400.00
02931           13200.00
02932           13200.00
02933           13200.00
02934           13000.00
02935           12800.00
02936           12800.00
02937           12800.00
02938           12600.00
02939           12400.00
02940           12400.00
02941           12400.00
02942           12000.00
02943           12000.00
02944           11800.00
02945           11600.00
02946           11600.00
02947           11200.00
02948           11200.00
02949           11000.00
02950           10800.00
02951           10800.00
02952           10400.00
02953           10400.00
02954           10000.00
02955           10000.00
02956           10000.00
02957            9600.00
02958            9400.00
02959            9200.00
02960            9200.00
02961            8600.00
02962            8600.00
02963            8400.00
02964            8200.00
02965            8000.00
02966            7600.00
02967            7600.00
02968            7200.00
02969            7000.00
02970            6800.00
02971            6800.00
02972            6400.00
02973            6200.00
02974            6000.00
02975            5600.00
02976            5400.00
02977            5200.00
02978            4800.00
02979            4600.00
02980            4400.00
02981            4000.00
02982            3800.00
02983            3600.00
02984            3600.00
02985            3200.00
02986            3000.00
02987            2800.00
02988            2400.00
02989            2200.00
02990            2000.00
02991            1600.00
02992            1400.00
02993            1000.00
02994             800.00
02995             600.00
02996             200.00
02997               0.00
02998            -200.00
02999            -400.00
03000            -800.00
03001           -1000.00
03002           -1000.00
03003           -1400.00
03004           -1800.00
03005           -1800.00
03006           -2000.00
03007           -2400.00
03008           -2800.00
03009           -3400.00
03010           -3400.00
03011           -3200.00
03012           -3600.00
03013           -4200.00
03014           -4200.00
03015           -4200.00
03016           -4800.00
03017           -5000.00
03018           -5000.00
03019           -5600.00
03020           -5800.00
03021           -5800.00
03022           -6400.00
03023           -6400.00
03024           -6600.00
03025           -7000.00
03026           -7000.00
03027           -7400.00
03028           -7800.00
03029           -8000.00
03030           -8000.00
03031           -8400.00
03032           -8400.00
03033           -8800.00
03034           -9000.00
03035           -9200.00
03036           -9200.00
03037           -9600.00
03038           -9800.00
03039           -9800.00
03040          -10000.00
03041          -10200.00
03042          -10400.00
03043          -10600.00
03044          -10800.00
03045          -10800.00
03046          -11200.00
03047          -11200.00
03048          -11400.00
03049          -11400.00
03050          -11800.00
03051          -11800.00
03052          -12000.00
03053          -12200.00
03054          -12200.00
03055          -12400.00
03056          -12400.00
03057          -12600.00
03058          -12600.00
03059          -12800.00
03060          -13000.00
03061          -13000.00
03062          -13000.00
03063          -13200.00
03064          -13200.00
03065          -13200.00
03066          -13200.00
03067          -13400.00
03068          -13600.00
03069          -13600.00
03070          -13600.00
03071          -13600.00
03072          -13600.00
03073          -13800.00
03074          -13800.00
03075          -13800.00
03076          -13800.00
03077          -13800.00
03078          -14000.00
03079          -13800.00
03080          -13800.00
03081          -14000.00
03082          -14000.00
03083          -13800.00
03084          -13800.00
03085          -13800.00
03086          -13800.00
03087          -13600.00
03088          -13600.00
03089          -13600.00
03090          -13600.00
03091          -13600.00
03092          -13600.00
03093          -13400.00
03094          -13400.00
03095          -13200.00
03096          -13000.00
03097          -13200.00
03098          -13000.00
03099          -13000.00
03100          -12800.00
03101          -12800.00
03102          -12600.00
03103          -12800.00
03104          -12400.00
03105          -12400.00
03106          -12200.00
03107          -12200.00
03108          -12000.00
03109          -12000.00
03110          -11400.00
03111          -11600.00
03112          -11200.00
03113          -11000.00
03114          -11000.00
03115          -10800.00
03116          -10800.00
03117          -10400.00
03118          -10400.00
03119          -10000.00
03120          -10000.00
03121           -9800.00
03122           -9600.00
03123           -9400.00
03124           -9200.00
03125           -9000.00
03126           -9000.00
03127           -8600.00
03128           -8400.00
03129           -8200.00
03130           -8000.00
03131           -7600.00
03132           -7600.00
03133           -7200.00
03134           -7200.00
03135           -6800.00
03136           -6600.00
03137           -6400.00
03138           -6200.00
03139           -6000.00
03140           -5800.00
03141           -5400.00
03142           -5200.00
03143           -5000.00
03144           -4600.00
03145           -4400.00
03146           -4400.00
03147           -4000.00
03148           -3800.00
03149           -3400.00
03150           -3200.00
03151           -3000.00
03152           -2800.00
03153           -2400.00
03154           -2200.00
03155           -1800.00
03156           -1800.00
03157           -1400.00
03158           -1000.00
03159            -800.00
03160            -800.00
03161            -400.00
03162               0.00
03163             200.00
03164             400.00
03165             600.00
03166             800.00
03167            1200.00
03168            1400.00
03169            1600.00
03170            1800.00
03171            2200.00
03172            2200.00
03173            2800.00
03174            3000.00
03175            3200.00
03176            3600.00
03177            3800.00
03178            3800.00
03179            4000.00
03180            4200.00
03181            4600.00
03182            4800.00
03183            5000.00
03184            5400.00
03185            5600.00
03186            6000.00
03187            6000.00
03188            6400.00
03189            6600.00
03190            6800.00
03191            7000.00
03192            7200.00
03193            7600.00
03194            7800.00
03195            7800.00
03196            8400.00
03197            8200.00
03198            8600.00
03199            8800.00
03200            9000.00
03201            9200.00
03202            9400.00
03203            9600.00
03204           10000.00
03205           10000.00
03206           10200.00
03207           10400.00
03208           10600.00
03209           10800.00
03210           10800.00
03211           11200.00
03212           11200.00
03213           11400.00
03214           11400.00
03215           11800.00
03216           11800.00
03217           11800.00
03218           12000.00
03219           12400.00
03220           12400.00
03221           12400.00
03222           12600.00
03223           12800.00
03224           12800.00
03225           13000.00
03226           13200.00
03227           13200.00
03228           13200.00
03229           13200.00
03230           13400.00
03231           13400.00
03232           13400.00
03233           13600.00
03234           13600.00
03235           13800.00
03236           13600.00
03237           14000.00
03238           13600.00
03239           14000.00
03240           14000.00
03241           14000.00
03242           14200.00
03243           14200.00
03244           14000.00
03245           14000.00
03246           14000.00
03247           14000.00
03248           14000.00
03249           14000.00
03250           14000.00
03251           14000.00
03252           14000.00
03253           14000.00
03254           13600.00
03255           14000.00
03256           13600.00
03257           13800.00
03258           13800.00
03259           13600.00
03260           13600.00
03261           13600.00
03262           13200.00
03263           13400.00
03264           13200.00
03265           13200.00
03266           13000.00
03267           13000.00
03268           12800.00
03269           12600.00
03270           12600.00
03271           12400.00
03272           12400.00
03273           12200.00
03274           12200.00
03275           12000.00
03276           11800.00
03277           11600.00
03278           11600.00
03279           11200.00
03280           11200.00
03281           11000.00
03282           10800.00
03283           10800.00
03284           10400.00
03285           10200.00
03286           10200.00
03287           10000.00
03288            9800.00
03289            9600.00
03290            9400.00
03291            9200.00
03292            9000.00
03293            8800.00
03294            8600.00
03295            8400.00
03296            8200.00
03297            8000.00
03298            7800.00
03299            7600.00
03300            7200.00
03301            7200.00
03302            6800.00
03303            6600.00
03304            6400.00
03305            6200.00
03306            6000.00
03307            5800.00
03308            5400.00
03309            5000.00
03310            4800.00
03311            4600.00
03312            4400.00
03313            4200.00
03314            3800.00
03315            3600.00
03316            3200.00
03317            3200.00
03318            3000.00
03319            2800.00
03320            2400.00
03321            2000.00
03322            2000.00
03323            1600.00
03324            1400.00
03325            1000.00
03326             800.00
03327             400.00
03328             400.00
03329               0.00
03330            -200.00
03331            -400.00
03332            -800.00
03333           -1000.00
03334           -1200.00
03335           -1600.00
03336           -1800.00
03337           -1800.00
03338           -2000.00
03339           -2400.00
03340           -2800.00
03341           -3400.00
03342           -3400.00
03343           -3200.00
03344           -3600.00
03345           -4000.00
03346           -4200.00
03347           -4200.00
03348           -4800.00
03349           -5000.00
03350           -5000.00
03351           -5600.00
03352           -5800.00
03353           -5800.00
03354           -6200.00
03355           -6400.00
03356           -6600.00
03357           -7200.00
03358           -7000.00
03359           -7400.00
03360           -7800.00
03361           -7800.00
03362           -8000.00
03363           -8400.00
03364           -8400.00
03365           -8800.00
03366           -9000.00
03367           -9000.00
03368           -9400.00
03369           -9600.00
03370           -9600.00
03371          -10000.00
03372          -10000.00
03373          -10200.00
03374          -10400.00
03375          -10600.00
03376          -10600.00
03377          -10800.00
03378          -11200.00
03379          -11200.00
03380          -11400.00
03381          -11600.00
03382          -11600.00
03383          -11600.00
03384          -12000.00
03385          -12200.00
03386          -12200.00
03387          -12400.00
03388          -12400.00
03389          -12600.00
03390          -12800.00
03391          -12800.00
03392          -13000.00
03393          -13000.00
03394          -13000.00
03395          -13200.00
03396          -13200.00
03397          -13400.00
03398          -13400.00
03399          -13600.00
03400          -13600.00
03401          -13600.00
03402          -13600.00
03403          -13800.00
03404          -13800.00
03405          -13600.00
03406          -13800.00
03407          -13800.00
03408          -13800.00
03409          -13800.00
03410          -13800.00
03411          -13800.00
03412          -14000.00
03413          -13800.00
03414          -13800.00
03415          -13800.00
03416          -13800.00
03417          -13800.00
03418          -13800.00
03419          -13600.00
03420          -13600.00
03421          -13800.00
03422          -13600.00
03423          -13600.00
03424          -13200.00
03425          -13400.00
03426          -13600.00
03427          -13200.00
03428          -13200.00
03429          -13000.00
03430          -13000.00
03431          -12800.00
03432          -13000.00
03433          -12600.00
03434          -12800.00
03435          -12400.00
03436          -12400.00
03437          -12400.00
03438          -12200.00
03439          -12000.00
03440          -12000.00
03441          -12000.00
03442          -11600.00
03443          -11400.00
03444          -11200.00
03445          -11000.00
03446          -11000.00
03447          -10800.00
03448          -10800.00
03449          -10400.00
03450          -10400.00
03451          -10000.00
03452          -10000.00
03453           -9800.00
03454           -9600.00
03455           -9400.00
03456           -9200.00
03457           -9000.00
03458           -8800.00
03459           -8600.00
03460           -8400.00
03461           -8400.00
03462           -8000.00
03463           -7800.00
03464           -7600.00
03465           -7400.00
03466           -7200.00
03467           -6800.00
03468           -6600.00
03469           -6400.00
03470           -6200.00
03471           -6000.00
03472           -5800.00
03473           -5600.00
03474           -5200.00
03475           -4800.00
03476           -4600.00
03477           -4400.00
03478           -4200.00
03479           -4000.00
03480           -3800.00
03481           -3600.00
03482           -3200.00
03483           -3200.00
03484           -2600.00
03485           -2600.00
03486           -2200.00
03487           -2000.00
03488           -1800.00
03489           -1400.00
03490           -1200.00
03491            -800.00
03492            -800.00
03493            -200.00
03494            -200.00
03495               0.00
03496             400.00
03497             600.00
03498             800.00
03499            1200.00
03500            1400.00
03501            1800.00
03502            1800.00
03503            2200.00
03504            2200.00
03505            2600.00
03506            3000.00
03507            3200.00
03508            3600.00
03509            3600.00
03510            3800.00
03511            4000.00
03512            4400.00
03513            4600.00
03514            5000.00
03515            5200.00
03516            5400.00
03517            5600.00
03518            6000.00
03519            6000.00
03520            6400.00
03521            6600.00
03522            6800.00
03523            7200.00
03524            7200.00
03525            7400.00
03526            7600.00
03527            7800.00
03528            8200.00
03529            8400.00
03530            8400.00
03531            8800.00
03532            9000.00
03533            9200.00
03534            9400.00
03535            9600.00
03536           10000.00
03537           10000.00
03538           10200.00
03539           10400.00
03540           10400.00
03541           10800.00
03542           10800.00
03543           11000.00
03544           11200.00
03545           11200.00
03546           11600.00
03547           11600.00
03548           12000.00
03549           12000.00
03550           12000.00
03551           12400.00
03552           12400.00
03553           12600.00
03554           12600.00
03555           12800.00
03556           12800.00
03557           12800.00
03558           13000.00
03559           13200.00
03560           13200.00
03561           13400.00
03562           13400.00
03563           13400.00
03564           13400.00
03565           13600.00
03566           13600.00
03567           13600.00
03568           14000.00
03569           13800.00
03570           13800.00
03571           14000.00
03572           14000.00
03573           14000.00
03574           14000.00
03575           14200.00
03576           14000.00
03577           14000.00
03578           14000.00
03579           14000.00
03580           14000.00
03581           14000.00
03582           14000.00
03583           14000.00
03584           14000.00
03585           14000.00
03586           14000.00
03587           14000.00
03588           13600.00
03589           13800.00
03590           13600.00
03591           13600.00
03592           13600.00
03593           13400.00
03594           13400.00
03595           13200.00
03596           13200.00
03597           13200.00
03598           13200.00
03599           12800.00
03600           12800.00
03601           12800.00
03602           12600.00
03603           12600.00
03604           12400.00
03605           12400.00
03606           12000.00
03607           12000.00
03608           11800.00
03609           11600.00
03610           11400.00
03611           11400.00
03612           11200.00
03613           11000.00
03614           10800.00
03615           10800.00
03616           10400.00
03617           10400.00
03618           10200.00
03619            9800.00
03620            9600.00
03621            9600.00
03622            9400.00
03623            9200.00
03624            9000.00
03625            8800.00
03626            8600.00
03627            8400.00
03628            8200.00
03629            8000.00
03630            7800.00
03631            7600.00
03632            7200.00
03633            7200.00
03634            7000.00
03635            6800.00
03636            6400.00
03637            6200.00
03638            6000.00
03639            5800.00
03640            5600.00
03641            5200.00
03642            4800.00
03643            4600.00
03644            4200.00
03645            4000.00
03646            4000.00
03647            3600.00
03648            3400.00
03649            3200.00
03650            3000.00
03651            2800.00
03652            2200.00
03653            2200.00
03654            1800.00
03655            1600.00
03656            1400.00
03657            1000.00
03658             800.00
03659             400.00
03660             200.00
03661               0.00
03662            -200.00
03663            -400.00
03664            -800.00
03665           -1000.00
03666           -1200.00
03667           -1600.00
03668           -1800.00
03669           -1800.00
03670           -2000.00
03671           -2400.00
03672           -2800.00
03673           -3400.00
03674           -3400.00
03675           -3400.00
03676           -3400.00
03677           -4000.00
03678           -4400.00
03679           -4200.00
03680           -4800.00
03681           -5000.00
03682           -5200.00
03683           -5600.00
03684           -5600.00
03685           -6000.00
03686           -6200.00
03687           -6600.00
03688           -6400.00
03689           -7000.00
03690           -7000.00
03691           -7200.00
03692           -8000.00
03693           -7800.00
03694           -8000.00
03695           -8400.00
03696           -8400.00
03697           -8800.00
03698           -9000.00
03699           -9000.00
03700           -9200.00
03701           -9400.00
03702           -9600.00
03703          -10000.00
03704          -10000.00
03705          -10000.00
03706          -10400.00
03707          -10600.00
03708          -10800.00
03709          -10800.00
03710          -11200.00
03711          -11200.00
03712          -11400.00
03713          -11600.00
03714          -11600.00
03715          -11800.00
03716          -12000.00
03717          -12200.00
03718          -12200.00
03719          -12400.00
03720          -12400.00
03721          -12600.00
03722          -12800.00
03723          -12800.00
03724          -12800.00
03725          -13000.00
03726          -13000.00
03727          -13200.00
03728          -13200.00
03729          -13200.00
03730          -13200.00
03731          -13600.00
03732          -13600.00
03733          -13800.00
03734          -13800.00
03735          -13600.00
03736          -13800.00
03737          -13800.00
03738          -13800.00
03739          -13800.00
03740          -13800.00
03741          -14000.00
03742          -13800.00
03743          -13800.00
03744          -13800.00
03745          -13800.00
03746          -13800.00
03747          -13800.00
03748          -13800.00
03749          -13800.00
03750          -13800.00
03751          -13800.00
03752          -13600.00
03753          -13600.00
03754          -13600.00
03755          -13600.00
03756          -13600.00
03757          -13400.00
03758          -13200.00
03759          -13200.00
03760          -13200.00
03761          -13200.00
03762          -13000.00
03763          -13000.00
03764          -12800.00
03765          -12800.00
03766          -12800.00
03767          -12400.00
03768          -12400.00
03769          -12400.00
03770          -12200.00
03771          -12200.00
03772          -12000.00
03773          -11800.00
03774          -11800.00
03775          -11400.00
03776          -11400.00
03777          -11200.00
03778          -10800.00
03779          -10800.00
03780          -10600.00
03781          -10400.00
03782          -10400.00
03783          -10000.00
03784          -10000.00
03785           -9800.00
03786           -9600.00
03787           -9400.00
03788           -9200.00
03789           -9000.00
03790           -8800.00
03791           -8600.00
03792           -8400.00
03793           -8200.00
03794           -8000.00
03795           -7800.00
03796           -7600.00
03797           -7400.00
03798           -7200.00
03799           -6800.00
03800           -6800.00
03801           -6400.00
03802           -6400.00
03803           -6000.00
03804           -5800.00
03805           -5600.00
03806           -5200.00
03807           -5000.00
03808           -4600.00
03809           -4400.00
03810           -4200.00
03811           -4200.00
03812           -3800.00
03813           -3400.00
03814           -3200.00
03815           -3000.00
03816           -2800.00
03817           -2400.00
03818           -2200.00
03819           -2000.00
03820           -1800.00
03821           -1400.00
03822           -1000.00
03823            -800.00
03824            -600.00
03825            -400.00
03826            -200.00
03827               0.00
03828             400.00
03829             600.00
03830             800.00
03831            1200.00
03832            1400.00
03833            1800.00
03834            2000.00
03835            2000.00
03836            2400.00
03837            2600.00
03838            3000.00
03839            3200.00
03840            3600.00
03841            3600.00
03842            3800.00
03843            4000.00
03844            4400.00
03845            4600.00
03846            4800.00
03847            5200.00
03848            5400.00
03849            5800.00
03850            5800.00
03851            6000.00
03852            6400.00
03853            6400.00
03854            6800.00
03855            7000.00
03856            7200.00
03857            7600.00
03858            7600.00
03859            7800.00
03860            8200.00
03861            8400.00
03862            8600.00
03863            8800.00
03864            9000.00
03865            9200.00
03866            9400.00
03867            9600.00
03868            9800.00
03869           10000.00
03870           10000.00
03871           10400.00
03872           10400.00
03873           10800.00
03874           10800.00
03875           11200.00
03876           11200.00
03877           11400.00
03878           11600.00
03879           11800.00
03880           11800.00
03881           12000.00
03882           12200.00
03883           12400.00
03884           12200.00
03885           12400.00
03886           12600.00
03887           12800.00
03888           12800.00
03889           12800.00
03890           12800.00
03891           13200.00
03892           13200.00
03893           13200.00
03894           13400.00
03895           13400.00
03896           13600.00
03897           13600.00
03898           13600.00
03899           13600.00
03900           13800.00
03901           14000.00
03902           14000.00
03903           14000.00
03904           14000.00
03905           14000.00
03906           14000.00
03907           14000.00
03908           14000.00
03909           14000.00
03910           14000.00
03911           14000.00
03912           14000.00
03913           14000.00
03914           14000.00
03915           14000.00
03916           14000.00
03917           13800.00
03918           14000.00
03919           13800.00
03920           13600.00
03921           13800.00
03922           13600.00
03923           13600.00
03924           13400.00
03925           13400.00
03926           13400.00
03927           13200.00
03928           13200.00
03929           13000.00
03930           12800.00
03931           12800.00
03932           12800.00
03933           12600.00
03934           12600.00
03935           12400.00
03936           12400.00
03937           12200.00
03938           12000.00
03939           11800.00
03940           12000.00
03941           11600.00
03942           11400.00
03943           11200.00
03944           11200.00
03945           11000.00
03946           10800.00
03947           10800.00
03948           10400.00
03949           10400.00
03950           10200.00
03951           10000.00
03952            9800.00
03953            9600.00
03954            9400.00
03955            9200.00
03956            9000.00
03957            8800.00
03958            8600.00
03959            8400.00
03960            8400.00
03961            8000.00
03962            7800.00
03963            7600.00
03964            7200.00
03965            7200.00
03966            7000.00
03967            6600.00
03968            6400.00
03969            6000.00
03970            6000.00
03971            5600.00
03972            5600.00
03973            5200.00
03974            4800.00
03975            4600.00
03976            4400.00
03977            4400.00
03978            3800.00
03979            3600.00
03980            3400.00
03981            3000.00
03982            2800.00
03983            2600.00
03984            2400.00
03985            2200.00
03986            1800.00
03987            1600.00
03988            1400.00
03989            1200.00
03990             800.00
03991             600.00
03992             400.00
03993               0.00
03994            -200.00
03995            -400.00
03996            -600.00
03997            -800.00
03998           -1200.00
03999           -1600.00
04000           -1800.00
04001           -2000.00
04002           -2000.00
04003           -2400.00
04004           -2800.00
04005           -3400.00
04006           -3400.00
04007           -3400.00
04008           -3600.00
04009           -4000.00
04010           -4200.00
04011           -4200.00
04012           -4800.00
04013           -5000.00
04014           -5000.00
04015           -5600.00
04016           -5800.00
04017           -5800.00
04018           -6200.00
04019           -6400.00
04020           -6400.00
04021           -7000.00
04022           -7200.00
04023           -7200.00
04024           -7800.00
04025           -7800.00
04026           -8000.00
04027           -8400.00
04028           -8400.00
04029           -8800.00
04030           -9000.00
04031           -9000.00
04032           -9200.00
04033           -9400.00
04034           -9600.00
04035          -10000.00
04036           -9800.00
04037          -10200.00
04038          -10400.00
04039          -10600.00
04040          -10800.00
04041          -10800.00
04042          -11000.00
04043          -11200.00
04044          -11400.00
04045          -11600.00
04046          -11600.00
04047          -12000.00
04048          -12200.00
04049          -12000.00
04050          -12200.00
04051          -12200.00
04052          -12400.00
04053          -12800.00
04054          -12800.00
04055          -12800.00
04056          -12800.00
04057          -13000.00
04058          -13000.00
04059          -13200.00
04060          -13200.00
04061          -13400.00
04062          -13400.00
04063          -13600.00
04064          -13600.00
04065          -13400.00
04066          -13600.00
04067          -13600.00
04068          -13600.00
04069          -13800.00
04070          -13600.00
04071          -13800.00
04072          -13800.00
04073          -13800.00
04074          -13800.00
04075          -14000.00
04076          -13800.00
04077          -13800.00
04078          -13800.00
04079          -13800.00
04080          -13800.00
04081          -13800.00
04082          -13800.00
04083          -13800.00
04084          -13800.00
04085          -13600.00
04086          -13800.00
04087          -13600.00
04088          -13600.00
04089          -13400.00
04090          -13400.00
04091          -13200.00
04092          -13200.00
04093          -13000.00
04094          -13200.00
04095          -13000.00
04096          -12800.00
04097          -12800.00
04098          -12600.00
04099          -12600.00
04100          -12400.00
04101          -12400.00
04102          -12200.00
04103          -12000.00
04104          -12000.00
04105          -11800.00
04106          -11600.00
04107          -11400.00
04108          -11200.00
04109          -11000.00
04110          -11000.00
04111          -10800.00
04112          -10600.00
04113          -10600.00
04114          -10400.00
04115          -10000.00
04116          -10000.00
04117           -9800.00
04118           -9600.00
04119           -9400.00
04120           -9200.00
04121           -9200.00
04122           -8800.00
04123           -8800.00
04124           -8400.00
04125           -8200.00
04126           -8200.00
04127           -8000.00
04128           -7600.00
04129           -7400.00
04130           -7000.00
04131           -7200.00
04132           -6800.00
04133           -6400.00
04134           -6400.00
04135           -6000.00
04136           -5800.00
04137           -5600.00
04138           -5200.00
04139           -5000.00
04140           -4600.00
04141           -4400.00
04142           -4200.00
04143           -4000.00
04144           -3600.00
04145           -3600.00
04146           -3400.00
04147           -3200.00
04148           -2800.00
04149           -2400.00
04150           -2400.00
04151           -2000.00
04152           -1800.00
04153           -1600.00
04154           -1200.00
04155           -1000.00
04156            -800.00
04157            -400.00
04158            -200.00
04159               0.00
04160             200.00
04161             600.00
04162             800.00
04163            1200.00
04164            1400.00
04165            1400.00
04166            1800.00
04167            2000.00
04168            2200.00
04169            2800.00
04170            3000.00
04171            3200.00
04172            3600.00
04173            3600.00
04174            3800.00
04175            4000.00
04176            4400.00
04177            4400.00
04178            4800.00
04179            5000.00
04180            5200.00
04181            5800.00
04182            5800.00
04183            6000.00
04184            6400.00
04185            6400.00
04186            6800.00
04187            7200.00
04188            7200.00
04189            7400.00
04190            7600.00
04191            7800.00
04192            8200.00
04193            8400.00
04194            8600.00
04195            8800.00
04196            9000.00
04197            9200.00
04198            9400.00
04199            9600.00
04200            9600.00
04201           10000.00
04202           10200.00
04203           10400.00
04204           10400.00
04205           10800.00
04206           10800.00
04207           11200.00
04208           11200.00
04209           11400.00
04210           11400.00
04211           11600.00
04212           11800.00
04213           12000.00
04214           12200.00
04215           12200.00
04216           12400.00
04217           12400.00
04218           12600.00
04219           12800.00
04220           12800.00
04221           12800.00
04222           13000.00
04223           13200.00
04224           13200.00
04225           13400.00
04226           13200.00
04227           13400.00
04228           13600.00
04229           13600.00
04230           13600.00
04231           13600.00
04232           14000.00
04233           13800.00
04234           14000.00
04235           14000.00
04236           13800.00
04237           14200.00
04238           14000.00
04239           14000.00
04240           14000.00
04241           14000.00
04242           14000.00
04243           14000.00
04244           14000.00
04245           14000.00
04246           14000.00
04247           14000.00
04248           14000.00
04249           14000.00
04250           13800.00
04251           14000.00
04252           13600.00
04253           13600.00
04254           13400.00
04255           13600.00
04256           13600.00
04257           13400.00
04258           13400.00
04259           13400.00
04260           13200.00
04261           13200.00
04262           13200.00
04263           12800.00
04264           12800.00
04265           12600.00
04266           12800.00
04267           12600.00
04268           12400.00
04269           12200.00
04270           12000.00
04271           12000.00
04272           11800.00
04273           11800.00
04274           11600.00
04275           11200.00
04276           11200.00
04277           11000.00
04278           10800.00
04279           10800.00
04280           10400.00
04281           10400.00
04282           10200.00
04283           10000.00
04284            9600.00
04285            9600.00
04286            9400.00
04287            9200.00
04288            9000.00
04289            8800.00
04290            8600.00
04291            8400.00
04292            8000.00
04293            7800.00
04294            7800.00
04295            7600.00
04296            7200.00
04297            7000.00
04298            6800.00
04299            6600.00
04300            6400.00
04301            6200.00
04302            6000.00
04303            5600.00
04304            5400.00
04305            5000.00
04306            4800.00
04307            4600.00
04308            4400.00
04309            4200.00
04310            4000.00
04311            3600.00
04312            3400.00
04313            3000.00
04314            3000.00
04315            2800.00
04316            2400.00
04317            2200.00
04318            1800.00
04319            1600.00
04320            1400.00
04321            1200.00
04322             800.00
04323             600.00
04324             200.00
04325               0.00
04326            -200.00
04327            -400.00
04328            -800.00
04329            -800.00
04330           -1000.00
04331           -1400.00
04332           -1600.00
04333           -1800.00
04334           -2000.00
04335           -2400.00
04336           -2800.00
04337           -3200.00
04338           -3400.00
04339           -3400.00
04340           -3600.00
04341           -4000.00
04342           -4200.00
04343           -4200.00
04344           -4800.00
04345           -5000.00
04346           -5000.00
04347           -5600.00
04348           -5600.00
04349           -5800.00
04350           -6200.00
04351           -6400.00
04352           -6600.00
04353           -7000.00
04354           -7000.00
04355           -7200.00
04356           -7800.00
04357           -7600.00
04358           -8000.00
04359           -8400.00
04360           -8400.00
04361           -8800.00
04362           -8800.00
04363           -9000.00
04364           -9200.00
04365           -9400.00
04366           -9600.00
04367           -9800.00
04368          -10000.00
04369          -10200.00
04370          -10400.00
04371          -10600.00
04372          -10800.00
04373          -10800.00
04374          -11000.00
04375          -11200.00
04376          -11400.00
04377          -11400.00
04378          -11600.00
04379          -12000.00
04380          -12000.00
04381          -12000.00
04382          -12200.00
04383          -12400.00
04384          -12400.00
04385          -12400.00
04386          -12800.00
04387          -12800.00
04388          -13000.00
04389          -13000.00
04390          -13200.00
04391          -13200.00
04392          -13200.00
04393          -13200.00
04394          -13400.00
04395          -13400.00
04396          -13600.00
04397          -13600.00
04398          -13600.00
04399          -13600.00
04400          -13800.00
04401          -13800.00
04402          -13800.00
04403          -13800.00
04404          -13800.00
04405          -13800.00
04406          -13800.00
04407          -13800.00
04408          -13800.00
04409          -14000.00
04410          -13800.00
04411          -13800.00
04412          -13800.00
04413          -13800.00
04414          -13800.00
04415          -13800.00
04416          -13600.00
04417          -13600.00
04418          -13800.00
04419          -13600.00
04420          -13400.00
04421          -13600.00
04422          -13400.00
04423          -13200.00
04424          -13200.00
04425          -13200.00
04426          -13000.00
04427          -13000.00
04428          -12800.00
04429          -12800.00
04430          -12800.00
04431          -12600.00
04432          -12600.00
04433          -12400.00
04434          -12200.00
04435          -12200.00
04436          -12000.00
04437          -11600.00
04438          -11600.00
04439          -11400.00
04440          -11400.00
04441          -11200.00
04442          -11000.00
04443          -10800.00
04444          -10600.00
04445          -10600.00
04446          -10400.00
04447          -10000.00
04448          -10000.00
04449           -9800.00
04450           -9600.00
04451           -9400.00
04452           -9200.00
04453           -9200.00
04454           -9000.00
04455           -8800.00
04456           -8400.00
04457           -8200.00
04458           -8200.00
04459           -8000.00
04460           -7600.00
04461           -7400.00
04462           -7200.00
04463           -6800.00
04464           -6600.00
04465           -6600.00
04466           -6200.00
04467           -6000.00
04468           -5600.00
04469           -5600.00
04470           -5200.00
04471           -5000.00
04472           -4600.00
04473           -4400.00
04474           -4200.00
04475           -4000.00
04476           -3800.00
04477           -3600.00
04478           -3400.00
04479           -3000.00
04480           -2800.00
04481           -2600.00
04482           -2200.00
04483           -2000.00
04484           -1800.00
04485           -1600.00
04486           -1200.00
04487           -1000.00
04488            -800.00
04489            -400.00
04490               0.00
04491             200.00
04492             200.00
04493             600.00
04494             800.00
04495            1000.00
04496            1200.00
04497            1600.00
04498            2000.00
04499            2000.00
04500            2400.00
04501            2600.00
04502            3000.00
04503            3200.00
04504            3600.00
04505            3600.00
04506            3800.00
04507            4200.00
04508            4400.00
04509            4400.00
04510            4800.00
04511            4800.00
04512            5400.00
04513            6000.00
04514            5600.00
04515            6000.00
04516            6400.00
04517            6400.00
04518            6800.00
04519            7000.00
04520            7200.00
04521            7600.00
04522            7600.00
04523            7800.00
04524            8200.00
04525            8400.00
04526            8600.00
04527            8800.00
04528            8800.00
04529            9200.00
04530            9400.00
04531            9600.00
04532            9800.00
04533           10000.00
04534           10200.00
04535           10400.00
04536           10400.00
04537           10800.00
04538           10800.00
04539           11000.00
04540           11200.00
04541           11200.00
04542           11400.00
04543           11800.00
04544           11800.00
04545           12000.00
04546           12200.00
04547           12200.00
04548           12400.00
04549           12600.00
04550           12600.00
04551           12800.00
04552           12800.00
04553           12800.00
04554           13200.00
04555           13000.00
04556           13200.00
04557           13200.00
04558           13400.00
04559           13600.00
04560           13600.00
04561           13600.00
04562           13600.00
04563           13600.00
04564           14000.00
04565           13800.00
04566           13800.00
04567           14000.00
04568           14000.00
04569           13800.00
04570           14200.00
04571           14000.00
04572           14200.00
04573           14200.00
04574           14000.00
04575           14000.00
04576           14000.00
04577           14000.00
04578           14200.00
04579           14000.00
04580           14000.00
04581           13800.00
04582           13800.00
04583           14000.00
04584           13600.00
04585           13600.00
04586           13600.00
04587           13600.00
04588           13600.00
04589           13400.00
04590           13200.00
04591           13400.00
04592           13200.00
04593           13200.00
04594           13200.00
04595           12800.00
04596           12800.00
04597           12600.00
04598           12600.00
04599           12400.00
04600           12400.00
04601           12200.00
04602           12000.00
04603           12000.00
04604           11800.00
04605           11600.00
04606           11600.00
04607           11200.00
04608           11200.00
04609           11000.00
04610           11000.00
04611           10800.00
04612           10600.00
04613           10400.00
04614           10200.00
04615           10000.00
04616            9800.00
04617            9600.00
04618            9400.00
04619            9200.00
04620            9200.00
04621            8800.00
04622            8600.00
04623            8400.00
04624            8200.00
04625            8000.00
04626            7800.00
04627            7400.00
04628            7200.00
04629            7000.00
04630            6800.00
04631            6800.00
04632            6400.00
04633            6000.00
04634            6000.00
04635            5800.00
04636            5400.00
04637            5200.00
04638            5000.00
04639            4600.00
04640            4400.00
04641            4200.00
04642            3800.00
04643            3800.00
04644            3400.00
04645            3200.00
04646            2800.00
04647            2800.00
04648            2400.00
04649            2000.00
04650            2000.00
04651            1600.00
04652            1400.00
04653            1000.00
04654             800.00
04655             600.00
04656             200.00
04657             200.00
04658            -200.00
04659            -400.00
04660            -600.00
04661            -800.00
04662           -1200.00
04663           -1600.00
04664           -1600.00
04665           -2000.00
04666           -2000.00
04667           -2400.00
04668           -2800.00
04669           -3400.00
04670           -3200.00
04671           -3200.00
04672           -3400.00
04673           -4000.00
04674           -4200.00
04675           -4400.00
04676           -4800.00
04677           -5000.00
04678           -5000.00
04679           -5400.00
04680           -5600.00
04681           -5800.00
04682           -6200.00
04683           -6400.00
04684           -6600.00
04685           -7000.00
04686           -7200.00
04687           -7200.00
04688           -7800.00
04689           -7800.00
04690           -8000.00
04691           -8200.00
04692           -8400.00
04693           -8600.00
04694           -9000.00
04695           -9000.00
04696           -9200.00
04697           -9600.00
04698           -9600.00
04699          -10000.00
04700           -9800.00
04701          -10000.00
04702          -10400.00
04703          -10400.00
04704          -10600.00
04705          -10800.00
04706          -11000.00
04707          -11200.00
04708          -11400.00
04709          -11400.00
04710          -11800.00
04711          -12000.00
04712          -12000.00
04713          -12000.00
04714          -12200.00
04715          -12400.00
04716          -12400.00
04717          -12400.00
04718          -12800.00
04719          -12800.00
04720          -12800.00
04721          -13000.00
04722          -13000.00
04723          -13200.00
04724          -13200.00
04725          -13200.00
04726          -13200.00
04727          -13400.00
04728          -13600.00
04729          -13600.00
04730          -13600.00
04731          -13600.00
04732          -13600.00
04733          -13800.00
04734          -13600.00
04735          -13800.00
04736          -13800.00
04737          -13800.00
04738          -13800.00
04739          -13800.00
04740          -14000.00
04741          -13800.00
04742          -13800.00
04743          -13800.00
04744          -13800.00
04745          -13800.00
04746          -13600.00
04747          -13600.00
04748          -13600.00
04749          -13600.00
04750          -13600.00
04751          -13600.00
04752          -13600.00
04753          -13400.00
04754          -13600.00
04755          -13200.00
04756          -13200.00
04757          -13200.00
04758          -13000.00
04759          -12800.00
04760          -13000.00
04761          -12800.00
04762          -12800.00
04763          -12600.00
04764          -12400.00
04765          -12400.00
04766          -12200.00
04767          -12000.00
04768          -12000.00
04769          -11800.00
04770          -11600.00
04771          -11400.00
04772          -11400.00
04773          -11000.00
04774          -11000.00
04775          -10800.00
04776          -10800.00
04777          -10600.00
04778          -10400.00
04779          -10000.00
04780          -10000.00
04781          -10000.00
04782           -9600.00
04783           -9400.00
04784           -9200.00
04785           -9200.00
04786           -9000.00
04787           -8600.00
04788           -8400.00
04789           -8200.00
04790           -8200.00
04791           -7800.00
04792           -7600.00
04793           -7400.00
04794           -7200.00
04795           -7000.00
04796           -6600.00
04797           -6400.00
04798           -6200.00
04799           -6000.00
04800           -5600.00
04801           -5600.00
04802           -5200.00
04803           -5000.00
04804           -4800.00
04805           -4600.00
04806           -4200.00
04807           -4000.00
04808           -3600.00
04809           -3400.00
04810           -3400.00
04811           -3000.00
04812           -2600.00
04813           -2600.00
04814           -2200.00
04815           -2000.00
04816           -1800.00
04817           -1600.00
04818           -1200.00
04819            -800.00
04820            -600.00
04821            -400.00
04822            -200.00
04823               0.00
04824             400.00
04825             600.00
04826             800.00
04827            1000.00
04828            1400.00
04829            1800.00
04830            2000.00
04831            2000.00
04832            2200.00
04833            2600.00
04834            2800.00
04835            3200.00
04836            3200.00
04837            3600.00
04838            3800.00
04839            4000.00
04840            4200.00
04841            4400.00
04842            5000.00
04843            5200.00
04844            5200.00
04845            5600.00
04846            5800.00
04847            6000.00
04848            6400.00
04849            6400.00
04850            6800.00
04851            7000.00
04852            7200.00
04853            7600.00
04854            7600.00
04855            8000.00
04856            8200.00
04857            8400.00
04858            8600.00
04859            8800.00
04860            9000.00
04861            9200.00
04862            9400.00
04863            9600.00
04864            9800.00
04865           10000.00
04866           10000.00
04867           10400.00
04868           10600.00
04869           10800.00
04870           11000.00
04871           11000.00
04872           11200.00
04873           11400.00
04874           11600.00
04875           11800.00
04876           11800.00
04877           12000.00
04878           12200.00
04879           12000.00
04880           12400.00
04881           12400.00
04882           12600.00
04883           12800.00
04884           12800.00
04885           12800.00
04886           13000.00
04887           13200.00
04888           13200.00
04889           13200.00
04890           13400.00
04891           13400.00
04892           13600.00
04893           13600.00
04894           13600.00
04895           13600.00
04896           13800.00
04897           13800.00
04898           14000.00
04899           13800.00
04900           14000.00
04901           14000.00
04902           14200.00
04903           14000.00
04904           14000.00
04905           14200.00
04906           14200.00
04907           14000.00
04908           14200.00
04909           14000.00
04910           14000.00
04911           14000.00
04912           14000.00
04913           14000.00
04914           13800.00
04915           14000.00
04916           13600.00
04917           13600.00
04918           13600.00
04919           13600.00
04920           13400.00
04921           13600.00
04922           13400.00
04923           13200.00
04924           13200.00
04925           13000.00
04926           13200.00
04927           12800.00
04928           12800.00
04929           12600.00
04930           12600.00
04931           12400.00
04932           12400.00
04933           12400.00
04934           12200.00
04935           12000.00
04936           11800.00
04937           11600.00
04938           11600.00
04939           11200.00
04940           11200.00
04941           11000.00
04942           10800.00
04943           10800.00
04944           10400.00
04945           10400.00
04946           10200.00
04947           10000.00
04948            9800.00
04949            9600.00
04950            9400.00
04951            9200.00
04952            9000.00
04953            8800.00
04954            8600.00
04955            8400.00
04956            8200.00
04957            8000.00
04958            8000.00
04959            7800.00
04960            7200.00
04961            7000.00
04962            7000.00
04963            6800.00
04964            6400.00
04965            6200.00
04966            6000.00
04967            5600.00
04968            5600.00
04969            5200.00
04970            5000.00
04971            4600.00
04972            4400.00
04973            4200.00
04974            3800.00
04975            3800.00
04976            3600.00
04977            3200.00
04978            2800.00
04979            2600.00
04980            2400.00
04981            2200.00
04982            2000.00
04983            1800.00
04984            1600.00
04985            1200.00
04986             800.00
04987             600.00
04988             400.00
04989               0.00
04990            -200.00
04991            -400.00
04992            -600.00
04993           -1000.00
04994           -1000.00
04995           -1400.00
04996           -1600.00
04997           -2000.00
04998           -2200.00
04999           -2400.00
05000           -2800.00
