Unit:(mV)
                     CH2
Frequency    302.526 kHz
00001            1600.00
00002            1600.00
00003            1600.00
00004            1400.00
00005            1400.00
00006            1400.00
00007            1200.00
00008            1200.00
00009            1000.00
00010            1000.00
00011             800.00
00012             800.00
00013             800.00
00014             600.00
00015             600.00
00016             400.00
00017             200.00
00018             200.00
00019               0.00
00020               0.00
00021               0.00
00022            -200.00
00023            -200.00
00024            -200.00
00025            -400.00
00026            -400.00
00027            -400.00
00028            -800.00
00029            -800.00
00030            -600.00
00031            -800.00
00032           -1000.00
00033           -1000.00
00034           -1000.00
00035           -1000.00
00036           -1200.00
00037           -1200.00
00038           -1200.00
00039           -1600.00
00040           -1600.00
00041           -1600.00
00042           -1800.00
00043           -1800.00
00044           -2000.00
00045           -2000.00
00046           -2200.00
00047           -2200.00
00048           -2400.00
00049           -2200.00
00050           -2400.00
00051           -2400.00
00052           -2400.00
00053           -2600.00
00054           -2600.00
00055           -2800.00
00056           -2800.00
00057           -2800.00
00058           -2800.00
00059           -3000.00
00060           -3000.00
00061           -3200.00
00062           -3200.00
00063           -3400.00
00064           -3200.00
00065           -3400.00
00066           -3200.00
00067           -3400.00
00068           -3400.00
00069           -3400.00
00070           -3600.00
00071           -3600.00
00072           -3600.00
00073           -3600.00
00074           -3800.00
00075           -3600.00
00076           -3800.00
00077           -3800.00
00078           -4000.00
00079           -4000.00
00080           -4000.00
00081           -4000.00
00082           -4200.00
00083           -4000.00
00084           -4200.00
00085           -4200.00
00086           -4200.00
00087           -4200.00
00088           -4200.00
00089           -4400.00
00090           -4200.00
00091           -4400.00
00092           -4400.00
00093           -4400.00
00094           -4200.00
00095           -4400.00
00096           -4400.00
00097           -4400.00
00098           -4400.00
00099           -4400.00
00100           -4400.00
00101           -4200.00
00102           -4400.00
00103           -4400.00
00104           -4400.00
00105           -4400.00
00106           -4400.00
00107           -4400.00
00108           -4400.00
00109           -4400.00
00110           -4400.00
00111           -4400.00
00112           -4200.00
00113           -4400.00
00114           -4200.00
00115           -4400.00
00116           -4200.00
00117           -4200.00
00118           -4000.00
00119           -4200.00
00120           -4200.00
00121           -4000.00
00122           -4200.00
00123           -4000.00
00124           -4000.00
00125           -4000.00
00126           -4000.00
00127           -4000.00
00128           -3800.00
00129           -4000.00
00130           -4000.00
00131           -4000.00
00132           -3800.00
00133           -3600.00
00134           -3600.00
00135           -3600.00
00136           -3600.00
00137           -3400.00
00138           -3400.00
00139           -3400.00
00140           -3200.00
00141           -3200.00
00142           -3200.00
00143           -3200.00
00144           -3200.00
00145           -2800.00
00146           -3200.00
00147           -2800.00
00148           -2800.00
00149           -2800.00
00150           -2800.00
00151           -2600.00
00152           -2600.00
00153           -2400.00
00154           -2400.00
00155           -2400.00
00156           -2200.00
00157           -2200.00
00158           -2000.00
00159           -2000.00
00160           -2000.00
00161           -2000.00
00162           -1800.00
00163           -1600.00
00164           -1800.00
00165           -1600.00
00166           -1600.00
00167           -1600.00
00168           -1400.00
00169           -1600.00
00170           -1000.00
00171           -1200.00
00172           -1000.00
00173           -1000.00
00174            -800.00
00175            -800.00
00176            -800.00
00177            -800.00
00178            -600.00
00179            -400.00
00180            -400.00
00181            -200.00
00182            -200.00
00183               0.00
00184            -200.00
00185               0.00
00186               0.00
00187             200.00
00188             200.00
00189             400.00
00190             400.00
00191             600.00
00192             600.00
00193             600.00
00194             800.00
00195             800.00
00196             800.00
00197            1000.00
00198            1200.00
00199            1000.00
00200            1200.00
00201            1400.00
00202            1400.00
00203            1400.00
00204            1600.00
00205            1800.00
00206            1800.00
00207            2000.00
00208            2000.00
00209            2000.00
00210            2000.00
00211            2200.00
00212            2200.00
00213            2400.00
00214            2400.00
00215            2400.00
00216            2400.00
00217            2600.00
00218            2600.00
00219            2800.00
00220            2800.00
00221            2800.00
00222            3000.00
00223            3000.00
00224            3000.00
00225            3000.00
00226            3200.00
00227            3200.00
00228            3200.00
00229            3200.00
00230            3400.00
00231            3600.00
00232            3600.00
00233            3600.00
00234            3600.00
00235            3600.00
00236            3800.00
00237            3800.00
00238            4000.00
00239            3800.00
00240            4000.00
00241            4000.00
00242            4000.00
00243            4000.00
00244            4000.00
00245            4200.00
00246            4000.00
00247            4400.00
00248            4000.00
00249            4200.00
00250            4400.00
00251            4200.00
00252            4400.00
00253            4400.00
00254            4400.00
00255            4400.00
00256            4600.00
00257            4400.00
00258            4600.00
00259            4600.00
00260            4600.00
00261            4600.00
00262            4400.00
00263            4400.00
00264            4600.00
00265            4400.00
00266            4600.00
00267            4600.00
00268            4400.00
00269            4600.00
00270            4600.00
00271            4600.00
00272            4400.00
00273            4600.00
00274            4600.00
00275            4600.00
00276            4400.00
00277            4400.00
00278            4600.00
00279            4400.00
00280            4400.00
00281            4400.00
00282            4400.00
00283            4400.00
00284            4400.00
00285            4400.00
00286            4200.00
00287            4400.00
00288            4200.00
00289            4000.00
00290            4200.00
00291            4000.00
00292            4000.00
00293            4000.00
00294            4000.00
00295            3800.00
00296            4000.00
00297            3800.00
00298            3800.00
00299            3600.00
00300            3800.00
00301            3800.00
00302            3600.00
00303            3800.00
00304            3600.00
00305            3600.00
00306            3200.00
00307            3400.00
00308            3400.00
00309            3200.00
00310            3200.00
00311            3200.00
00312            3000.00
00313            3000.00
00314            3000.00
00315            2800.00
00316            2800.00
00317            2800.00
00318            2800.00
00319            2600.00
00320            2600.00
00321            2400.00
00322            2400.00
00323            2400.00
00324            2200.00
00325            2200.00
00326            2000.00
00327            2000.00
00328            2000.00
00329            2000.00
00330            1600.00
00331            1800.00
00332            1600.00
00333            1400.00
00334            1400.00
00335            1400.00
00336            1200.00
00337            1200.00
00338            1200.00
00339            1000.00
00340             800.00
00341             800.00
00342             600.00
00343             800.00
00344             600.00
00345             600.00
00346             400.00
00347             400.00
00348             200.00
00349             200.00
00350             200.00
00351               0.00
00352            -200.00
00353            -200.00
00354            -200.00
00355            -200.00
00356            -400.00
00357            -400.00
00358            -600.00
00359            -800.00
00360            -800.00
00361            -800.00
00362            -800.00
00363           -1000.00
00364           -1000.00
00365           -1000.00
00366           -1200.00
00367           -1200.00
00368           -1200.00
00369           -1400.00
00370           -1600.00
00371           -1600.00
00372           -1800.00
00373           -1800.00
00374           -1800.00
00375           -1800.00
00376           -2000.00
00377           -2000.00
00378           -2000.00
00379           -2200.00
00380           -2400.00
00381           -2400.00
00382           -2600.00
00383           -2400.00
00384           -2600.00
00385           -2600.00
00386           -2800.00
00387           -2800.00
00388           -2800.00
00389           -3000.00
00390           -2800.00
00391           -3200.00
00392           -3000.00
00393           -3200.00
00394           -3400.00
00395           -3400.00
00396           -3400.00
00397           -3400.00
00398           -3600.00
00399           -3400.00
00400           -3400.00
00401           -3600.00
00402           -3600.00
00403           -3600.00
00404           -3600.00
00405           -3800.00
00406           -3800.00
00407           -4000.00
00408           -3800.00
00409           -4000.00
00410           -4000.00
00411           -4000.00
00412           -4000.00
00413           -4000.00
00414           -4200.00
00415           -4000.00
00416           -4200.00
00417           -4200.00
00418           -4200.00
00419           -4200.00
00420           -4200.00
00421           -4200.00
00422           -4200.00
00423           -4200.00
00424           -4200.00
00425           -4400.00
00426           -4400.00
00427           -4400.00
00428           -4400.00
00429           -4400.00
00430           -4400.00
00431           -4400.00
00432           -4400.00
00433           -4400.00
00434           -4400.00
00435           -4400.00
00436           -4400.00
00437           -4400.00
00438           -4400.00
00439           -4400.00
00440           -4400.00
00441           -4400.00
00442           -4400.00
00443           -4400.00
00444           -4200.00
00445           -4400.00
00446           -4400.00
00447           -4400.00
00448           -4200.00
00449           -4200.00
00450           -4200.00
00451           -4200.00
00452           -4200.00
00453           -4200.00
00454           -4000.00
00455           -4000.00
00456           -4000.00
00457           -4000.00
00458           -4000.00
00459           -4000.00
00460           -4000.00
00461           -4000.00
00462           -3800.00
00463           -3600.00
00464           -3600.00
00465           -3600.00
00466           -3600.00
00467           -3600.00
00468           -3400.00
00469           -3400.00
00470           -3400.00
00471           -3400.00
00472           -3400.00
00473           -3000.00
00474           -3200.00
00475           -3000.00
00476           -3000.00
00477           -3000.00
00478           -2800.00
00479           -2800.00
00480           -2800.00
00481           -2600.00
00482           -2800.00
00483           -2600.00
00484           -2400.00
00485           -2400.00
00486           -2400.00
00487           -2400.00
00488           -2200.00
00489           -2000.00
00490           -2000.00
00491           -2000.00
00492           -2000.00
00493           -1800.00
00494           -1800.00
00495           -1600.00
00496           -1600.00
00497           -1600.00
00498           -1600.00
00499           -1400.00
00500           -1200.00
00501           -1200.00
00502           -1200.00
00503           -1000.00
00504           -1000.00
00505            -800.00
00506            -800.00
00507            -600.00
00508            -600.00
00509            -600.00
00510            -400.00
00511            -400.00
00512            -400.00
00513            -200.00
00514            -200.00
00515               0.00
00516               0.00
00517               0.00
00518             200.00
00519             400.00
00520             400.00
00521             400.00
00522             600.00
00523             600.00
00524             800.00
00525             800.00
00526             800.00
00527            1000.00
00528            1200.00
00529            1200.00
00530            1400.00
00531            1400.00
00532            1400.00
00533            1400.00
00534            1600.00
00535            1800.00
00536            1600.00
00537            1800.00
00538            2000.00
00539            2000.00
00540            2200.00
00541            2000.00
00542            2200.00
00543            2400.00
00544            2400.00
00545            2400.00
00546            2400.00
00547            2600.00
00548            2600.00
00549            2800.00
00550            2800.00
00551            2800.00
00552            2800.00
00553            3000.00
00554            3000.00
00555            3000.00
00556            3200.00
00557            3200.00
00558            3400.00
00559            3200.00
00560            3400.00
00561            3600.00
00562            3600.00
00563            3400.00
00564            3600.00
00565            3600.00
00566            3800.00
00567            3800.00
00568            3800.00
00569            3800.00
00570            3800.00
00571            4000.00
00572            4000.00
00573            4000.00
00574            4000.00
00575            4000.00
00576            4200.00
00577            4200.00
00578            4200.00
00579            4000.00
00580            4400.00
00581            4000.00
00582            4400.00
00583            4400.00
00584            4400.00
00585            4400.00
00586            4400.00
00587            4400.00
00588            4400.00
00589            4600.00
00590            4600.00
00591            4600.00
00592            4400.00
00593            4600.00
00594            4400.00
00595            4400.00
00596            4600.00
00597            4600.00
00598            4600.00
00599            4600.00
00600            4600.00
00601            4400.00
00602            4600.00
00603            4600.00
00604            4600.00
00605            4600.00
00606            4400.00
00607            4400.00
00608            4400.00
00609            4400.00
00610            4400.00
00611            4400.00
00612            4400.00
00613            4400.00
00614            4400.00
00615            4200.00
00616            4200.00
00617            4400.00
00618            4400.00
00619            4200.00
00620            4200.00
00621            4000.00
00622            4000.00
00623            4000.00
00624            4000.00
00625            4000.00
00626            4000.00
00627            3800.00
00628            4000.00
00629            3800.00
00630            3600.00
00631            3800.00
00632            3600.00
00633            3800.00
00634            3600.00
00635            3600.00
00636            3400.00
00637            3400.00
00638            3400.00
00639            3200.00
00640            3200.00
00641            3200.00
00642            3000.00
00643            3000.00
00644            3000.00
00645            3000.00
00646            2800.00
00647            2800.00
00648            2800.00
00649            2600.00
00650            2600.00
00651            2400.00
00652            2600.00
00653            2200.00
00654            2400.00
00655            2200.00
00656            2000.00
00657            2000.00
00658            2000.00
00659            2000.00
00660            1800.00
00661            1600.00
00662            1800.00
00663            1800.00
00664            1400.00
00665            1600.00
00666            1200.00
00667            1400.00
00668            1200.00
00669            1200.00
00670            1000.00
00671            1000.00
00672             800.00
00673             600.00
00674             600.00
00675             600.00
00676             400.00
00677             400.00
00678             400.00
00679             200.00
00680               0.00
00681               0.00
00682               0.00
00683               0.00
00684            -200.00
00685            -200.00
00686            -200.00
00687            -400.00
00688            -400.00
00689            -400.00
00690            -600.00
00691            -800.00
00692            -800.00
00693           -1000.00
00694           -1000.00
00695            -800.00
00696           -1000.00
00697           -1400.00
00698           -1200.00
00699           -1400.00
00700           -1600.00
00701           -1600.00
00702           -1800.00
00703           -1800.00
00704           -1800.00
00705           -2000.00
00706           -2000.00
00707           -2000.00
00708           -2000.00
00709           -2200.00
00710           -2000.00
00711           -2400.00
00712           -2600.00
00713           -2400.00
00714           -2600.00
00715           -2600.00
00716           -2800.00
00717           -2800.00
00718           -2800.00
00719           -2800.00
00720           -2800.00
00721           -3000.00
00722           -3000.00
00723           -3200.00
00724           -3200.00
00725           -3200.00
00726           -3400.00
00727           -3400.00
00728           -3600.00
00729           -3400.00
00730           -3600.00
00731           -3600.00
00732           -3600.00
00733           -3600.00
00734           -3600.00
00735           -3600.00
00736           -4000.00
00737           -3800.00
00738           -4000.00
00739           -4000.00
00740           -4000.00
00741           -4000.00
00742           -4000.00
00743           -4000.00
00744           -4000.00
00745           -4000.00
00746           -4200.00
00747           -4200.00
00748           -4200.00
00749           -4200.00
00750           -4200.00
00751           -4400.00
00752           -4200.00
00753           -4200.00
00754           -4200.00
00755           -4400.00
00756           -4200.00
00757           -4400.00
00758           -4400.00
00759           -4400.00
00760           -4400.00
00761           -4400.00
00762           -4400.00
00763           -4400.00
00764           -4400.00
00765           -4400.00
00766           -4400.00
00767           -4400.00
00768           -4400.00
00769           -4400.00
00770           -4400.00
00771           -4400.00
00772           -4400.00
00773           -4400.00
00774           -4400.00
00775           -4200.00
00776           -4200.00
00777           -4200.00
00778           -4400.00
00779           -4200.00
00780           -4200.00
00781           -4200.00
00782           -4200.00
00783           -4000.00
00784           -4200.00
00785           -4000.00
00786           -4000.00
00787           -4000.00
00788           -4000.00
00789           -4000.00
00790           -4000.00
00791           -4000.00
00792           -3800.00
00793           -3600.00
00794           -3800.00
00795           -3600.00
00796           -3600.00
00797           -3600.00
00798           -3400.00
00799           -3400.00
00800           -3400.00
00801           -3400.00
00802           -3400.00
00803           -3200.00
00804           -3200.00
00805           -3200.00
00806           -3200.00
00807           -3000.00
00808           -2800.00
00809           -2800.00
00810           -2800.00
00811           -2800.00
00812           -2800.00
00813           -2600.00
00814           -2400.00
00815           -2600.00
00816           -2400.00
00817           -2400.00
00818           -2200.00
00819           -2400.00
00820           -2000.00
00821           -2000.00
00822           -2000.00
00823           -1800.00
00824           -1800.00
00825           -1600.00
00826           -1600.00
00827           -1600.00
00828           -1600.00
00829           -1200.00
00830           -1200.00
00831           -1400.00
00832           -1000.00
00833           -1000.00
00834           -1000.00
00835            -800.00
00836           -1000.00
00837            -800.00
00838            -800.00
00839            -600.00
00840            -400.00
00841            -400.00
00842            -200.00
00843            -200.00
00844            -200.00
00845               0.00
00846               0.00
00847               0.00
00848             200.00
00849             200.00
00850             400.00
00851             400.00
00852             600.00
00853             600.00
00854             800.00
00855             800.00
00856             800.00
00857             800.00
00858            1000.00
00859            1200.00
00860            1200.00
00861            1000.00
00862            1400.00
00863            1400.00
00864            1600.00
00865            1800.00
00866            1800.00
00867            1800.00
00868            1800.00
00869            2000.00
00870            2000.00
00871            2000.00
00872            2200.00
00873            2200.00
00874            2400.00
00875            2400.00
00876            2400.00
00877            2400.00
00878            2600.00
00879            2600.00
00880            2800.00
00881            2800.00
00882            2800.00
00883            3000.00
00884            3000.00
00885            3200.00
00886            3200.00
00887            3200.00
00888            3200.00
00889            3400.00
00890            3200.00
00891            3400.00
00892            3400.00
00893            3600.00
00894            3600.00
00895            3800.00
00896            3600.00
00897            3600.00
00898            4000.00
00899            3800.00
00900            4000.00
00901            3800.00
00902            4000.00
00903            4000.00
00904            4000.00
00905            4000.00
00906            4000.00
00907            4000.00
00908            4200.00
00909            4400.00
00910            4400.00
00911            4400.00
00912            4400.00
00913            4400.00
00914            4400.00
00915            4400.00
00916            4400.00
00917            4400.00
00918            4600.00
00919            4400.00
00920            4400.00
00921            4400.00
00922            4400.00
00923            4600.00
00924            4600.00
00925            4600.00
00926            4400.00
00927            4600.00
00928            4400.00
00929            4400.00
00930            4600.00
00931            4600.00
00932            4600.00
00933            4400.00
00934            4400.00
00935            4600.00
00936            4400.00
00937            4600.00
00938            4600.00
00939            4400.00
00940            4400.00
00941            4400.00
00942            4400.00
00943            4400.00
00944            4400.00
00945            4400.00
00946            4400.00
00947            4200.00
00948            4400.00
00949            4200.00
00950            4200.00
00951            4000.00
00952            4000.00
00953            4000.00
00954            4000.00
00955            4000.00
00956            4000.00
00957            4000.00
00958            3800.00
00959            4000.00
00960            3800.00
00961            3800.00
00962            3800.00
00963            3600.00
00964            3600.00
00965            3600.00
00966            3400.00
00967            3400.00
00968            3400.00
00969            3200.00
00970            3200.00
00971            3200.00
00972            3000.00
00973            3200.00
00974            3000.00
00975            3000.00
00976            2800.00
00977            2800.00
00978            2800.00
00979            2800.00
00980            2600.00
00981            2400.00
00982            2600.00
00983            2400.00
00984            2400.00
00985            2200.00
00986            2200.00
00987            2200.00
00988            2200.00
00989            2000.00
00990            2000.00
00991            2000.00
00992            1600.00
00993            1800.00
00994            1600.00
00995            1600.00
00996            1400.00
00997            1400.00
00998            1200.00
00999            1200.00
01000            1200.00
01001             800.00
01002             800.00
01003             800.00
01004             800.00
01005             600.00
01006             600.00
01007             600.00
01008             400.00
01009             200.00
01010             200.00
01011               0.00
01012               0.00
01013               0.00
01014               0.00
01015            -200.00
01016            -200.00
01017            -400.00
01018            -400.00
01019            -400.00
01020            -600.00
01021            -800.00
01022            -800.00
01023            -800.00
01024           -1000.00
01025           -1000.00
01026           -1000.00
01027           -1000.00
01028           -1200.00
01029           -1400.00
01030           -1400.00
01031           -1600.00
01032           -1800.00
01033           -1600.00
01034           -1800.00
01035           -1800.00
01036           -2000.00
01037           -2000.00
01038           -2000.00
01039           -2000.00
01040           -2400.00
01041           -2400.00
01042           -2400.00
01043           -2600.00
01044           -2400.00
01045           -2600.00
01046           -2600.00
01047           -2800.00
01048           -2800.00
01049           -2800.00
01050           -2800.00
01051           -3200.00
01052           -3200.00
01053           -3200.00
01054           -3200.00
01055           -3200.00
01056           -3400.00
01057           -3600.00
01058           -3400.00
01059           -3400.00
01060           -3600.00
01061           -3600.00
01062           -3600.00
01063           -3600.00
01064           -3600.00
01065           -3800.00
01066           -4000.00
01067           -3800.00
01068           -3800.00
01069           -4000.00
01070           -4000.00
01071           -4200.00
01072           -4000.00
01073           -4200.00
01074           -4000.00
01075           -4000.00
01076           -4200.00
01077           -4200.00
01078           -4200.00
01079           -4200.00
01080           -4200.00
01081           -4400.00
01082           -4200.00
01083           -4400.00
01084           -4400.00
01085           -4400.00
01086           -4400.00
01087           -4400.00
01088           -4400.00
01089           -4200.00
01090           -4200.00
01091           -4400.00
01092           -4400.00
01093           -4400.00
01094           -4400.00
01095           -4400.00
01096           -4400.00
01097           -4400.00
01098           -4400.00
01099           -4400.00
01100           -4200.00
01101           -4400.00
01102           -4400.00
01103           -4400.00
01104           -4200.00
01105           -4200.00
01106           -4400.00
01107           -4200.00
01108           -4200.00
01109           -4400.00
01110           -4200.00
01111           -4200.00
01112           -4200.00
01113           -4200.00
01114           -4200.00
01115           -4000.00
01116           -4000.00
01117           -4000.00
01118           -4000.00
01119           -4000.00
01120           -3800.00
01121           -4000.00
01122           -3800.00
01123           -3600.00
01124           -3600.00
01125           -3600.00
01126           -3600.00
01127           -3600.00
01128           -3400.00
01129           -3400.00
01130           -3400.00
01131           -3400.00
01132           -3400.00
01133           -3200.00
01134           -3400.00
01135           -3200.00
01136           -3200.00
01137           -3000.00
01138           -3000.00
01139           -2800.00
01140           -2800.00
01141           -2800.00
01142           -2600.00
01143           -2800.00
01144           -2600.00
01145           -2600.00
01146           -2400.00
01147           -2400.00
01148           -2400.00
01149           -2200.00
01150           -2200.00
01151           -2000.00
01152           -2000.00
01153           -2000.00
01154           -1800.00
01155           -1800.00
01156           -1800.00
01157           -1600.00
01158           -1600.00
01159           -1600.00
01160           -1200.00
01161           -1200.00
01162           -1200.00
01163           -1000.00
01164           -1000.00
01165            -800.00
01166            -800.00
01167            -800.00
01168            -800.00
01169            -600.00
01170            -600.00
01171            -400.00
01172            -400.00
01173            -200.00
01174            -200.00
01175            -200.00
01176               0.00
01177               0.00
01178               0.00
01179             200.00
01180             400.00
01181             400.00
01182             400.00
01183             600.00
01184             800.00
01185             800.00
01186             800.00
01187             800.00
01188             800.00
01189            1000.00
01190            1200.00
01191            1200.00
01192            1400.00
01193            1400.00
01194            1400.00
01195            1800.00
01196            1800.00
01197            1800.00
01198            1800.00
01199            2000.00
01200            2200.00
01201            2000.00
01202            2000.00
01203            2200.00
01204            2400.00
01205            2200.00
01206            2400.00
01207            2400.00
01208            2600.00
01209            2600.00
01210            2800.00
01211            2800.00
01212            2800.00
01213            3000.00
01214            3000.00
01215            3000.00
01216            3200.00
01217            3000.00
01218            3200.00
01219            3200.00
01220            3200.00
01221            3400.00
01222            3600.00
01223            3400.00
01224            3600.00
01225            3600.00
01226            3800.00
01227            3800.00
01228            3800.00
01229            3800.00
01230            3800.00
01231            3800.00
01232            4000.00
01233            4000.00
01234            4000.00
01235            3800.00
01236            4000.00
01237            4200.00
01238            4000.00
01239            4200.00
01240            4200.00
01241            4400.00
01242            4400.00
01243            4400.00
01244            4200.00
01245            4400.00
01246            4400.00
01247            4400.00
01248            4400.00
01249            4400.00
01250            4400.00
01251            4600.00
01252            4600.00
01253            4600.00
01254            4600.00
01255            4600.00
01256            4600.00
01257            4600.00
01258            4600.00
01259            4600.00
01260            4600.00
01261            4600.00
01262            4600.00
01263            4600.00
01264            4600.00
01265            4400.00
01266            4600.00
01267            4600.00
01268            4600.00
01269            4600.00
01270            4400.00
01271            4400.00
01272            4600.00
01273            4400.00
01274            4400.00
01275            4400.00
01276            4400.00
01277            4400.00
01278            4400.00
01279            4200.00
01280            4400.00
01281            4200.00
01282            4000.00
01283            4000.00
01284            4000.00
01285            4000.00
01286            4000.00
01287            4000.00
01288            4000.00
01289            3800.00
01290            3800.00
01291            3800.00
01292            3800.00
01293            3800.00
01294            3600.00
01295            3600.00
01296            3600.00
01297            3600.00
01298            3600.00
01299            3600.00
01300            3200.00
01301            3200.00
01302            3200.00
01303            3200.00
01304            3000.00
01305            2800.00
01306            3000.00
01307            2800.00
01308            2800.00
01309            2800.00
01310            2600.00
01311            2600.00
01312            2400.00
01313            2400.00
01314            2400.00
01315            2200.00
01316            2200.00
01317            2000.00
01318            2000.00
01319            2000.00
01320            2000.00
01321            2000.00
01322            1600.00
01323            1800.00
01324            1800.00
01325            1600.00
01326            1400.00
01327            1400.00
01328            1200.00
01329            1200.00
01330            1000.00
01331            1000.00
01332            1000.00
01333             800.00
01334             600.00
01335             800.00
01336             600.00
01337             600.00
01338             600.00
01339             400.00
01340             400.00
01341             400.00
01342               0.00
01343               0.00
01344               0.00
01345            -200.00
01346            -200.00
01347            -200.00
01348            -400.00
01349            -600.00
01350            -400.00
01351            -800.00
01352            -800.00
01353            -800.00
01354           -1000.00
01355           -1000.00
01356           -1000.00
01357           -1200.00
01358           -1200.00
01359           -1200.00
01360           -1400.00
01361           -1400.00
01362           -1600.00
01363           -1600.00
01364           -1600.00
01365           -1800.00
01366           -1800.00
01367           -2000.00
01368           -2000.00
01369           -2000.00
01370           -2200.00
01371           -2200.00
01372           -2400.00
01373           -2400.00
01374           -2600.00
01375           -2400.00
01376           -2600.00
01377           -2800.00
01378           -2800.00
01379           -2800.00
01380           -2800.00
01381           -3000.00
01382           -3000.00
01383           -3200.00
01384           -3000.00
01385           -3400.00
01386           -3200.00
01387           -3400.00
01388           -3400.00
01389           -3400.00
01390           -3600.00
01391           -3600.00
01392           -3600.00
01393           -3600.00
01394           -3600.00
01395           -3800.00
01396           -3800.00
01397           -3800.00
01398           -3800.00
01399           -4000.00
01400           -4000.00
01401           -4000.00
01402           -4000.00
01403           -4000.00
01404           -4000.00
01405           -4200.00
01406           -4200.00
01407           -4200.00
01408           -4200.00
01409           -4200.00
01410           -4200.00
01411           -4200.00
01412           -4400.00
01413           -4400.00
01414           -4200.00
01415           -4200.00
01416           -4400.00
01417           -4200.00
01418           -4400.00
01419           -4400.00
01420           -4400.00
01421           -4400.00
01422           -4400.00
01423           -4400.00
01424           -4400.00
01425           -4400.00
01426           -4400.00
01427           -4400.00
01428           -4400.00
01429           -4200.00
01430           -4400.00
01431           -4400.00
01432           -4400.00
01433           -4200.00
01434           -4400.00
01435           -4200.00
01436           -4400.00
01437           -4400.00
01438           -4200.00
01439           -4200.00
01440           -4200.00
01441           -4200.00
01442           -4000.00
01443           -4200.00
01444           -4000.00
01445           -4000.00
01446           -4200.00
01447           -4000.00
01448           -4000.00
01449           -3800.00
01450           -3800.00
01451           -3800.00
01452           -3800.00
01453           -4000.00
01454           -3800.00
01455           -3800.00
01456           -3600.00
01457           -3600.00
01458           -3600.00
01459           -3600.00
01460           -3400.00
01461           -3400.00
01462           -3200.00
01463           -3400.00
01464           -3200.00
01465           -3200.00
01466           -3200.00
01467           -3200.00
01468           -3000.00
01469           -3000.00
01470           -3000.00
01471           -2800.00
01472           -2800.00
01473           -2600.00
01474           -2600.00
01475           -2400.00
01476           -2400.00
01477           -2400.00
01478           -2400.00
01479           -2400.00
01480           -2000.00
01481           -2000.00
01482           -2000.00
01483           -2000.00
01484           -1800.00
01485           -1800.00
01486           -1800.00
01487           -1600.00
01488           -1600.00
01489           -1600.00
01490           -1400.00
01491           -1600.00
01492           -1200.00
01493           -1000.00
01494           -1000.00
01495           -1000.00
01496            -800.00
01497            -800.00
01498            -800.00
01499            -600.00
01500            -600.00
01501            -400.00
01502            -400.00
01503            -400.00
01504            -200.00
01505               0.00
01506               0.00
01507               0.00
01508               0.00
01509             200.00
01510             200.00
01511             400.00
01512             400.00
01513             400.00
01514             600.00
01515             800.00
01516             800.00
01517             800.00
01518             800.00
01519            1000.00
01520            1200.00
01521            1200.00
01522            1200.00
01523            1400.00
01524            1400.00
01525            1400.00
01526            1800.00
01527            1800.00
01528            1800.00
01529            1800.00
01530            2000.00
01531            2000.00
01532            2000.00
01533            2200.00
01534            2200.00
01535            2400.00
01536            2400.00
01537            2400.00
01538            2400.00
01539            2600.00
01540            2800.00
01541            2800.00
01542            2800.00
01543            2800.00
01544            3000.00
01545            3000.00
01546            3000.00
01547            3200.00
01548            3200.00
01549            3200.00
01550            3200.00
01551            3200.00
01552            3400.00
01553            3600.00
01554            3600.00
01555            3600.00
01556            3800.00
01557            3800.00
01558            3800.00
01559            3800.00
01560            3800.00
01561            4000.00
01562            4000.00
01563            3800.00
01564            4000.00
01565            4000.00
01566            4000.00
01567            4000.00
01568            4000.00
01569            4200.00
01570            4200.00
01571            4200.00
01572            4200.00
01573            4400.00
01574            4400.00
01575            4400.00
01576            4400.00
01577            4400.00
01578            4400.00
01579            4400.00
01580            4400.00
01581            4600.00
01582            4600.00
01583            4600.00
01584            4600.00
01585            4600.00
01586            4400.00
01587            4600.00
01588            4600.00
01589            4600.00
01590            4600.00
01591            4600.00
01592            4600.00
01593            4600.00
01594            4600.00
01595            4400.00
01596            4600.00
01597            4600.00
01598            4400.00
01599            4400.00
01600            4600.00
01601            4400.00
01602            4600.00
01603            4400.00
01604            4400.00
01605            4600.00
01606            4200.00
01607            4400.00
01608            4400.00
01609            4200.00
01610            4400.00
01611            4200.00
01612            4200.00
01613            4000.00
01614            4000.00
01615            4000.00
01616            4000.00
01617            4000.00
01618            4000.00
01619            4000.00
01620            3800.00
01621            3800.00
01622            3800.00
01623            3800.00
01624            3600.00
01625            3600.00
01626            3600.00
01627            3400.00
01628            3600.00
01629            3400.00
01630            3400.00
01631            3200.00
01632            3200.00
01633            3200.00
01634            3000.00
01635            3200.00
01636            3000.00
01637            2800.00
01638            2800.00
01639            2800.00
01640            2800.00
01641            2800.00
01642            2800.00
01643            2600.00
01644            2400.00
01645            2200.00
01646            2400.00
01647            2200.00
01648            2000.00
01649            2000.00
01650            2000.00
01651            2000.00
01652            1800.00
01653            1600.00
01654            1600.00
01655            1800.00
01656            1400.00
01657            1400.00
01658            1400.00
01659            1200.00
01660            1200.00
01661            1000.00
01662            1000.00
01663            1000.00
01664             800.00
01665             800.00
01666             800.00
01667             600.00
01668             400.00
01669             400.00
01670             200.00
01671             400.00
01672             200.00
01673               0.00
01674               0.00
01675            -200.00
01676            -200.00
01677            -200.00
01678            -400.00
01679            -400.00
01680            -600.00
01681            -600.00
01682            -800.00
01683            -800.00
01684            -800.00
01685           -1000.00
01686           -1000.00
01687           -1000.00
01688           -1200.00
01689           -1400.00
01690           -1400.00
01691           -1400.00
01692           -1600.00
01693           -1600.00
01694           -1800.00
01695           -1600.00
01696           -1800.00
01697           -1800.00
01698           -2000.00
01699           -2000.00
01700           -2200.00
01701           -2400.00
01702           -2400.00
01703           -2200.00
01704           -2400.00
01705           -2400.00
01706           -2600.00
01707           -2600.00
01708           -2800.00
01709           -2600.00
01710           -2800.00
01711           -2800.00
01712           -3000.00
01713           -3000.00
01714           -3200.00
01715           -3200.00
01716           -3200.00
01717           -3200.00
01718           -3600.00
01719           -3400.00
01720           -3400.00
01721           -3400.00
01722           -3400.00
01723           -3600.00
01724           -3600.00
01725           -3600.00
01726           -3800.00
01727           -3800.00
01728           -4000.00
01729           -3800.00
01730           -3800.00
01731           -4000.00
01732           -4000.00
01733           -4000.00
01734           -4000.00
01735           -4000.00
01736           -4200.00
01737           -4200.00
01738           -4200.00
01739           -4200.00
01740           -4200.00
01741           -4400.00
01742           -4200.00
01743           -4400.00
01744           -4200.00
01745           -4400.00
01746           -4400.00
01747           -4200.00
01748           -4400.00
01749           -4400.00
01750           -4400.00
01751           -4400.00
01752           -4400.00
01753           -4400.00
01754           -4200.00
01755           -4400.00
01756           -4400.00
01757           -4400.00
01758           -4200.00
01759           -4400.00
01760           -4400.00
01761           -4400.00
01762           -4400.00
01763           -4400.00
01764           -4200.00
01765           -4200.00
01766           -4400.00
01767           -4400.00
01768           -4200.00
01769           -4200.00
01770           -4200.00
01771           -4200.00
01772           -4200.00
01773           -4200.00
01774           -4200.00
01775           -4200.00
01776           -4000.00
01777           -4000.00
01778           -4000.00
01779           -4000.00
01780           -4000.00
01781           -4000.00
01782           -3800.00
01783           -3800.00
01784           -4000.00
01785           -3800.00
01786           -3800.00
01787           -3600.00
01788           -3600.00
01789           -3600.00
01790           -3400.00
01791           -3400.00
01792           -3400.00
01793           -3200.00
01794           -3400.00
01795           -3200.00
01796           -3200.00
01797           -3200.00
01798           -3200.00
01799           -2800.00
01800           -2800.00
01801           -2800.00
01802           -2800.00
01803           -2600.00
01804           -2600.00
01805           -2600.00
01806           -2400.00
01807           -2400.00
01808           -2400.00
01809           -2200.00
01810           -2200.00
01811           -2200.00
01812           -2000.00
01813           -2000.00
01814           -2000.00
01815           -1800.00
01816           -1800.00
01817           -1800.00
01818           -1800.00
01819           -1600.00
01820           -1200.00
01821           -1200.00
01822           -1400.00
01823           -1200.00
01824           -1000.00
01825           -1000.00
01826           -1000.00
01827            -800.00
01828            -800.00
01829            -600.00
01830            -600.00
01831            -600.00
01832            -400.00
01833            -400.00
01834            -400.00
01835            -200.00
01836               0.00
01837               0.00
01838               0.00
01839               0.00
01840             200.00
01841             200.00
01842             400.00
01843             400.00
01844             600.00
01845             600.00
01846             800.00
01847             800.00
01848             800.00
01849            1000.00
01850            1200.00
01851            1000.00
01852            1200.00
01853            1400.00
01854            1400.00
01855            1400.00
01856            1600.00
01857            1600.00
01858            1800.00
01859            1800.00
01860            2000.00
01861            2000.00
01862            2200.00
01863            2200.00
01864            2200.00
01865            2200.00
01866            2400.00
01867            2400.00
01868            2400.00
01869            2600.00
01870            2400.00
01871            2800.00
01872            2800.00
01873            2800.00
01874            2800.00
01875            3000.00
01876            3200.00
01877            3000.00
01878            3200.00
01879            3200.00
01880            3200.00
01881            3200.00
01882            3400.00
01883            3600.00
01884            3400.00
01885            3600.00
01886            3600.00
01887            3600.00
01888            3800.00
01889            3800.00
01890            3800.00
01891            3800.00
01892            3800.00
01893            4000.00
01894            4000.00
01895            4000.00
01896            4000.00
01897            4000.00
01898            4200.00
01899            4200.00
01900            4000.00
01901            4400.00
01902            4200.00
01903            4400.00
01904            4400.00
01905            4400.00
01906            4400.00
01907            4400.00
01908            4400.00
01909            4400.00
01910            4400.00
01911            4400.00
01912            4600.00
01913            4600.00
01914            4600.00
01915            4400.00
01916            4600.00
01917            4600.00
01918            4600.00
01919            4400.00
01920            4600.00
01921            4600.00
01922            4600.00
01923            4600.00
01924            4400.00
01925            4600.00
01926            4400.00
01927            4600.00
01928            4600.00
01929            4600.00
01930            4600.00
01931            4600.00
01932            4400.00
01933            4400.00
01934            4400.00
01935            4400.00
01936            4400.00
01937            4400.00
01938            4400.00
01939            4400.00
01940            4400.00
01941            4400.00
01942            4000.00
01943            4200.00
01944            4200.00
01945            4000.00
01946            4000.00
01947            4000.00
01948            4000.00
01949            4000.00
01950            3800.00
01951            3800.00
01952            3800.00
01953            3600.00
01954            3800.00
01955            3600.00
01956            3600.00
01957            3600.00
01958            3400.00
01959            3600.00
01960            3400.00
01961            3200.00
01962            3200.00
01963            3200.00
01964            3200.00
01965            3200.00
01966            3000.00
01967            3000.00
01968            2800.00
01969            2800.00
01970            2800.00
01971            2600.00
01972            2800.00
01973            2600.00
01974            2400.00
01975            2400.00
01976            2200.00
01977            2200.00
01978            2200.00
01979            2000.00
01980            2000.00
01981            2000.00
01982            2000.00
01983            1800.00
01984            1600.00
01985            1600.00
01986            1600.00
01987            1400.00
01988            1400.00
01989            1400.00
01990            1200.00
01991            1200.00
01992            1000.00
01993            1000.00
01994             800.00
01995             800.00
01996             800.00
01997             600.00
01998             400.00
01999             600.00
02000             400.00
02001             400.00
02002             400.00
02003             200.00
02004               0.00
02005               0.00
02006               0.00
02007            -200.00
02008            -400.00
02009            -400.00
02010            -400.00
02011            -600.00
02012            -800.00
02013            -800.00
02014            -800.00
02015           -1000.00
02016           -1000.00
02017           -1200.00
02018           -1000.00
02019           -1400.00
02020           -1400.00
02021           -1600.00
02022           -1600.00
02023           -1600.00
02024           -1600.00
02025           -1800.00
02026           -1800.00
02027           -2000.00
02028           -2000.00
02029           -2000.00
02030           -2200.00
02031           -2400.00
02032           -2000.00
02033           -2400.00
02034           -2400.00
02035           -2400.00
02036           -2400.00
02037           -2600.00
02038           -2800.00
02039           -2800.00
02040           -2800.00
02041           -2800.00
02042           -3000.00
02043           -3000.00
02044           -3200.00
02045           -3200.00
02046           -3200.00
02047           -3200.00
02048           -3400.00
02049           -3400.00
02050           -3400.00
02051           -3400.00
02052           -3600.00
02053           -3600.00
02054           -3600.00
02055           -3600.00
02056           -3800.00
02057           -3800.00
02058           -3600.00
02059           -4000.00
02060           -4000.00
02061           -3800.00
02062           -4000.00
02063           -4000.00
02064           -4000.00
02065           -4200.00
02066           -4200.00
02067           -4200.00
02068           -4200.00
02069           -4200.00
02070           -4200.00
02071           -4200.00
02072           -4200.00
02073           -4200.00
02074           -4400.00
02075           -4400.00
02076           -4400.00
02077           -4400.00
02078           -4400.00
02079           -4400.00
02080           -4400.00
02081           -4400.00
02082           -4400.00
02083           -4400.00
02084           -4400.00
02085           -4400.00
02086           -4400.00
02087           -4400.00
02088           -4400.00
02089           -4400.00
02090           -4400.00
02091           -4400.00
02092           -4400.00
02093           -4400.00
02094           -4600.00
02095           -4400.00
02096           -4400.00
02097           -4200.00
02098           -4400.00
02099           -4200.00
02100           -4400.00
02101           -4200.00
02102           -4200.00
02103           -4200.00
02104           -4200.00
02105           -4200.00
02106           -4200.00
02107           -4000.00
02108           -4000.00
02109           -4000.00
02110           -4000.00
02111           -4000.00
02112           -4000.00
02113           -4000.00
02114           -3800.00
02115           -3800.00
02116           -3800.00
02117           -3600.00
02118           -3600.00
02119           -3600.00
02120           -3600.00
02121           -3400.00
02122           -3400.00
02123           -3400.00
02124           -3400.00
02125           -3400.00
02126           -3200.00
02127           -3200.00
02128           -3000.00
02129           -3200.00
02130           -2800.00
02131           -2800.00
02132           -2800.00
02133           -2800.00
02134           -2800.00
02135           -2600.00
02136           -2400.00
02137           -2400.00
02138           -2600.00
02139           -2400.00
02140           -2400.00
02141           -2200.00
02142           -2000.00
02143           -2000.00
02144           -2000.00
02145           -2000.00
02146           -1800.00
02147           -1600.00
02148           -1800.00
02149           -1600.00
02150           -1600.00
02151           -1400.00
02152           -1400.00
02153           -1200.00
02154           -1200.00
02155           -1200.00
02156           -1000.00
02157           -1000.00
02158            -800.00
02159            -800.00
02160            -600.00
02161            -600.00
02162            -400.00
02163            -400.00
02164            -200.00
02165            -400.00
02166            -200.00
02167            -200.00
02168               0.00
02169               0.00
02170             200.00
02171             200.00
02172             400.00
02173             400.00
02174             600.00
02175             600.00
02176             800.00
02177             800.00
02178             800.00
02179             800.00
02180            1000.00
02181            1200.00
02182            1200.00
02183            1200.00
02184            1400.00
02185            1400.00
02186            1600.00
02187            1600.00
02188            1800.00
02189            1600.00
02190            1800.00
02191            2000.00
02192            2000.00
02193            2000.00
02194            2000.00
02195            2200.00
02196            2200.00
02197            2400.00
02198            2400.00
02199            2600.00
02200            2800.00
02201            2400.00
02202            2800.00
02203            2800.00
02204            2800.00
02205            2800.00
02206            3000.00
02207            3000.00
02208            3200.00
02209            3200.00
02210            3400.00
02211            3200.00
02212            3400.00
02213            3400.00
02214            3600.00
02215            3400.00
02216            3600.00
02217            3600.00
02218            3800.00
02219            3600.00
02220            3800.00
02221            4000.00
02222            3800.00
02223            3800.00
02224            4000.00
02225            4000.00
02226            4000.00
02227            4000.00
02228            4000.00
02229            4400.00
02230            4000.00
02231            4400.00
02232            4200.00
02233            4400.00
02234            4400.00
02235            4400.00
02236            4400.00
02237            4400.00
02238            4400.00
02239            4600.00
02240            4400.00
02241            4600.00
02242            4400.00
02243            4400.00
02244            4400.00
02245            4400.00
02246            4600.00
02247            4600.00
02248            4600.00
02249            4600.00
02250            4600.00
02251            4600.00
02252            4600.00
02253            4600.00
02254            4600.00
02255            4600.00
02256            4400.00
02257            4600.00
02258            4600.00
02259            4600.00
02260            4600.00
02261            4400.00
02262            4600.00
02263            4400.00
02264            4400.00
02265            4400.00
02266            4400.00
02267            4400.00
02268            4400.00
02269            4400.00
02270            4200.00
02271            4200.00
02272            4200.00
02273            4200.00
02274            4000.00
02275            4000.00
02276            4000.00
02277            4000.00
02278            4000.00
02279            4000.00
02280            3800.00
02281            3800.00
02282            3800.00
02283            3800.00
02284            3600.00
02285            3600.00
02286            3600.00
02287            3600.00
02288            3600.00
02289            3400.00
02290            3400.00
02291            3400.00
02292            3200.00
02293            3200.00
02294            3200.00
02295            3200.00
02296            3000.00
02297            3000.00
02298            3000.00
02299            2800.00
02300            2800.00
02301            2800.00
02302            2600.00
02303            2400.00
02304            2600.00
02305            2400.00
02306            2200.00
02307            2200.00
02308            2200.00
02309            2200.00
02310            2000.00
02311            2000.00
02312            2000.00
02313            1800.00
02314            1800.00
02315            1800.00
02316            1800.00
02317            1400.00
02318            1600.00
02319            1400.00
02320            1200.00
02321            1200.00
02322            1000.00
02323            1000.00
02324             800.00
02325             800.00
02326             600.00
02327             600.00
02328             600.00
02329             400.00
02330             400.00
02331             400.00
02332             400.00
02333               0.00
02334               0.00
02335               0.00
02336            -200.00
02337            -200.00
02338            -200.00
02339            -200.00
02340            -400.00
02341            -600.00
02342            -800.00
02343            -600.00
02344            -800.00
02345            -800.00
02346           -1200.00
02347           -1000.00
02348           -1000.00
02349           -1200.00
02350           -1400.00
02351           -1400.00
02352           -1600.00
02353           -1600.00
02354           -1600.00
02355           -1600.00
02356           -1800.00
02357           -1800.00
02358           -2000.00
02359           -2000.00
02360           -2000.00
02361           -2200.00
02362           -2400.00
02363           -2400.00
02364           -2200.00
02365           -2400.00
02366           -2600.00
02367           -2600.00
02368           -2600.00
02369           -2600.00
02370           -2800.00
02371           -2800.00
02372           -3000.00
02373           -2800.00
02374           -3000.00
02375           -3200.00
02376           -3200.00
02377           -3200.00
02378           -3200.00
02379           -3200.00
02380           -3400.00
02381           -3600.00
02382           -3600.00
02383           -3600.00
02384           -3600.00
02385           -3600.00
02386           -3600.00
02387           -3800.00
02388           -3600.00
02389           -3800.00
02390           -3800.00
02391           -4000.00
02392           -4000.00
02393           -4000.00
02394           -4000.00
02395           -4000.00
02396           -4000.00
02397           -4000.00
02398           -4200.00
02399           -4200.00
02400           -4200.00
02401           -4200.00
02402           -4200.00
02403           -4200.00
02404           -4400.00
02405           -4200.00
02406           -4400.00
02407           -4400.00
02408           -4400.00
02409           -4400.00
02410           -4400.00
02411           -4200.00
02412           -4400.00
02413           -4400.00
02414           -4400.00
02415           -4400.00
02416           -4400.00
02417           -4400.00
02418           -4400.00
02419           -4400.00
02420           -4400.00
02421           -4400.00
02422           -4400.00
02423           -4200.00
02424           -4400.00
02425           -4400.00
02426           -4400.00
02427           -4400.00
02428           -4400.00
02429           -4200.00
02430           -4200.00
02431           -4200.00
02432           -4200.00
02433           -4200.00
02434           -4200.00
02435           -4200.00
02436           -4200.00
02437           -4200.00
02438           -4000.00
02439           -4200.00
02440           -4000.00
02441           -4000.00
02442           -4000.00
02443           -4000.00
02444           -3800.00
02445           -4000.00
02446           -3600.00
02447           -3600.00
02448           -3600.00
02449           -3600.00
02450           -3600.00
02451           -3400.00
02452           -3400.00
02453           -3400.00
02454           -3400.00
02455           -3200.00
02456           -3200.00
02457           -3200.00
02458           -3200.00
02459           -3200.00
02460           -3200.00
02461           -2800.00
02462           -2800.00
02463           -2800.00
02464           -2800.00
02465           -2600.00
02466           -2600.00
02467           -2400.00
02468           -2400.00
02469           -2400.00
02470           -2400.00
02471           -2200.00
02472           -2000.00
02473           -2200.00
02474           -2000.00
02475           -2000.00
02476           -2000.00
02477           -1800.00
02478           -1600.00
02479           -1600.00
02480           -1600.00
02481           -1600.00
02482           -1400.00
02483           -1200.00
02484           -1400.00
02485           -1000.00
02486           -1000.00
02487           -1000.00
02488            -800.00
02489            -800.00
02490            -800.00
02491            -600.00
02492            -600.00
02493            -400.00
02494            -400.00
02495            -400.00
02496            -200.00
02497            -200.00
02498               0.00
02499               0.00
02500               0.00
02501             200.00
02502             200.00
02503             400.00
02504             400.00
02505             600.00
02506             600.00
02507             600.00
02508             800.00
02509             800.00
02510             800.00
02511            1000.00
02512            1000.00
02513            1200.00
02514            1400.00
02515            1400.00
02516            1400.00
02517            1600.00
02518            1800.00
02519            1800.00
02520            1800.00
02521            2000.00
02522            2000.00
02523            2000.00
02524            2000.00
02525            2200.00
02526            2400.00
02527            2200.00
02528            2400.00
02529            2400.00
02530            2600.00
02531            2600.00
02532            2800.00
02533            2800.00
02534            2800.00
02535            2800.00
02536            3000.00
02537            3000.00
02538            3000.00
02539            3200.00
02540            3200.00
02541            3400.00
02542            3200.00
02543            3400.00
02544            3200.00
02545            3600.00
02546            3600.00
02547            3600.00
02548            3600.00
02549            3800.00
02550            3800.00
02551            3800.00
02552            3800.00
02553            3800.00
02554            4000.00
02555            4000.00
02556            4000.00
02557            4000.00
02558            4000.00
02559            4200.00
02560            4000.00
02561            4200.00
02562            4200.00
02563            4400.00
02564            4200.00
02565            4400.00
02566            4400.00
02567            4400.00
02568            4200.00
02569            4600.00
02570            4400.00
02571            4400.00
02572            4600.00
02573            4400.00
02574            4600.00
02575            4400.00
02576            4600.00
02577            4400.00
02578            4600.00
02579            4600.00
02580            4600.00
02581            4600.00
02582            4400.00
02583            4600.00
02584            4600.00
02585            4400.00
02586            4400.00
02587            4400.00
02588            4600.00
02589            4400.00
02590            4600.00
02591            4400.00
02592            4400.00
02593            4400.00
02594            4400.00
02595            4400.00
02596            4600.00
02597            4400.00
02598            4400.00
02599            4400.00
02600            4400.00
02601            4400.00
02602            4200.00
02603            4200.00
02604            4000.00
02605            4000.00
02606            4000.00
02607            4000.00
02608            4000.00
02609            3800.00
02610            3800.00
02611            4000.00
02612            3800.00
02613            3800.00
02614            3600.00
02615            3600.00
02616            3600.00
02617            3600.00
02618            3400.00
02619            3600.00
02620            3200.00
02621            3400.00
02622            3200.00
02623            3200.00
02624            3200.00
02625            3000.00
02626            3200.00
02627            3000.00
02628            3000.00
02629            2800.00
02630            2800.00
02631            2800.00
02632            2800.00
02633            2600.00
02634            2600.00
02635            2400.00
02636            2400.00
02637            2400.00
02638            2200.00
02639            2200.00
02640            2200.00
02641            2000.00
02642            1800.00
02643            2000.00
02644            1800.00
02645            1800.00
02646            1600.00
02647            1600.00
02648            1600.00
02649            1400.00
02650            1400.00
02651            1200.00
02652            1200.00
02653            1000.00
02654            1000.00
02655             800.00
02656             800.00
02657             800.00
02658             600.00
02659             600.00
02660             600.00
02661             400.00
02662             400.00
02663             200.00
02664             200.00
02665               0.00
02666            -200.00
02667               0.00
02668            -200.00
02669            -200.00
02670            -400.00
02671            -400.00
02672            -800.00
02673            -600.00
02674            -800.00
02675            -600.00
02676           -1000.00
02677           -1000.00
02678           -1000.00
02679           -1200.00
02680           -1200.00
02681           -1400.00
02682           -1200.00
02683           -1600.00
02684           -1600.00
02685           -1600.00
02686           -1600.00
02687           -1800.00
02688           -1800.00
02689           -2000.00
02690           -2000.00
02691           -2000.00
02692           -2200.00
02693           -2200.00
02694           -2400.00
02695           -2400.00
02696           -2600.00
02697           -2600.00
02698           -2600.00
02699           -2600.00
02700           -2800.00
02701           -2800.00
02702           -2800.00
02703           -2800.00
02704           -3000.00
02705           -3200.00
02706           -3200.00
02707           -3200.00
02708           -3200.00
02709           -3400.00
02710           -3400.00
02711           -3400.00
02712           -3600.00
02713           -3400.00
02714           -3600.00
02715           -3600.00
02716           -3600.00
02717           -3600.00
02718           -3600.00
02719           -3800.00
02720           -4000.00
02721           -4000.00
02722           -4000.00
02723           -4000.00
02724           -4000.00
02725           -4200.00
02726           -4000.00
02727           -4000.00
02728           -4200.00
02729           -4200.00
02730           -4200.00
02731           -4200.00
02732           -4200.00
02733           -4400.00
02734           -4200.00
02735           -4200.00
02736           -4400.00
02737           -4400.00
02738           -4400.00
02739           -4400.00
02740           -4200.00
02741           -4400.00
02742           -4400.00
02743           -4400.00
02744           -4400.00
02745           -4400.00
02746           -4400.00
02747           -4400.00
02748           -4400.00
02749           -4400.00
02750           -4400.00
02751           -4400.00
02752           -4400.00
02753           -4400.00
02754           -4400.00
02755           -4400.00
02756           -4400.00
02757           -4400.00
02758           -4200.00
02759           -4400.00
02760           -4400.00
02761           -4200.00
02762           -4400.00
02763           -4200.00
02764           -4200.00
02765           -4000.00
02766           -4200.00
02767           -4000.00
02768           -4000.00
02769           -4000.00
02770           -4000.00
02771           -4000.00
02772           -4000.00
02773           -4000.00
02774           -3800.00
02775           -4000.00
02776           -3600.00
02777           -3600.00
02778           -3600.00
02779           -3600.00
02780           -3600.00
02781           -3600.00
02782           -3600.00
02783           -3400.00
02784           -3600.00
02785           -3200.00
02786           -3200.00
02787           -3200.00
02788           -3200.00
02789           -3200.00
02790           -3000.00
02791           -3200.00
02792           -3000.00
02793           -2800.00
02794           -2800.00
02795           -2800.00
02796           -2800.00
02797           -2600.00
02798           -2400.00
02799           -2400.00
02800           -2400.00
02801           -2400.00
02802           -2200.00
02803           -2000.00
02804           -2000.00
02805           -2000.00
02806           -2000.00
02807           -1800.00
02808           -1800.00
02809           -1800.00
02810           -1600.00
02811           -1600.00
02812           -1200.00
02813           -1200.00
02814           -1200.00
02815           -1200.00
02816           -1000.00
02817           -1000.00
02818           -1000.00
02819            -800.00
02820            -600.00
02821            -800.00
02822            -600.00
02823            -600.00
02824            -600.00
02825            -400.00
02826            -200.00
02827            -200.00
02828            -200.00
02829               0.00
02830               0.00
02831               0.00
02832             200.00
02833             400.00
02834             400.00
02835             600.00
02836             600.00
02837             800.00
02838             800.00
02839             800.00
02840            1000.00
02841             800.00
02842            1200.00
02843            1000.00
02844            1200.00
02845            1400.00
02846            1400.00
02847            1400.00
02848            1600.00
02849            1800.00
02850            1800.00
02851            1800.00
02852            2000.00
02853            2000.00
02854            2000.00
02855            2200.00
02856            2200.00
02857            2400.00
02858            2400.00
02859            2400.00
02860            2400.00
02861            2600.00
02862            2800.00
02863            2800.00
02864            2800.00
02865            2800.00
02866            2800.00
02867            3000.00
02868            3000.00
02869            3000.00
02870            3200.00
02871            3200.00
02872            3200.00
02873            3200.00
02874            3200.00
02875            3600.00
02876            3600.00
02877            3600.00
02878            3600.00
02879            3600.00
02880            3600.00
02881            3800.00
02882            3800.00
02883            3800.00
02884            3800.00
02885            3800.00
02886            4000.00
02887            4000.00
02888            4000.00
02889            4000.00
02890            4000.00
02891            4000.00
02892            4200.00
02893            4400.00
02894            4400.00
02895            4400.00
02896            4400.00
02897            4400.00
02898            4400.00
02899            4400.00
02900            4400.00
02901            4400.00
02902            4400.00
02903            4600.00
02904            4400.00
02905            4400.00
02906            4600.00
02907            4600.00
02908            4600.00
02909            4600.00
02910            4600.00
02911            4600.00
02912            4600.00
02913            4600.00
02914            4600.00
02915            4600.00
02916            4600.00
02917            4600.00
02918            4600.00
02919            4400.00
02920            4600.00
02921            4600.00
02922            4600.00
02923            4400.00
02924            4400.00
02925            4400.00
02926            4400.00
02927            4400.00
02928            4400.00
02929            4400.00
02930            4200.00
02931            4400.00
02932            4400.00
02933            4400.00
02934            4200.00
02935            4000.00
02936            4000.00
02937            4000.00
02938            4000.00
02939            4000.00
02940            3800.00
02941            4000.00
02942            3800.00
02943            3800.00
02944            3800.00
02945            3800.00
02946            3600.00
02947            3600.00
02948            3600.00
02949            3600.00
02950            3600.00
02951            3400.00
02952            3200.00
02953            3200.00
02954            3200.00
02955            3000.00
02956            3200.00
02957            3000.00
02958            3000.00
02959            2800.00
02960            2800.00
02961            2800.00
02962            2800.00
02963            2600.00
02964            2400.00
02965            2400.00
02966            2400.00
02967            2200.00
02968            2200.00
02969            2200.00
02970            2200.00
02971            2000.00
02972            2000.00
02973            2000.00
02974            2000.00
02975            1600.00
02976            1800.00
02977            1400.00
02978            1400.00
02979            1400.00
02980            1400.00
02981            1400.00
02982            1200.00
02983            1200.00
02984            1000.00
02985             800.00
02986             800.00
02987             800.00
02988             600.00
02989             600.00
02990             400.00
02991             400.00
02992             400.00
02993             400.00
02994             200.00
02995             200.00
02996               0.00
02997               0.00
02998            -200.00
02999            -200.00
03000            -200.00
03001            -400.00
03002            -400.00
03003            -800.00
03004            -800.00
03005            -800.00
03006            -800.00
03007           -1000.00
03008           -1000.00
03009           -1000.00
03010           -1200.00
03011           -1200.00
03012           -1400.00
03013           -1400.00
03014           -1600.00
03015           -1800.00
03016           -1800.00
03017           -1800.00
03018           -1800.00
03019           -2000.00
03020           -2000.00
03021           -2000.00
03022           -2200.00
03023           -2000.00
03024           -2200.00
03025           -2400.00
03026           -2400.00
03027           -2600.00
03028           -2600.00
03029           -2600.00
03030           -2600.00
03031           -2800.00
03032           -2800.00
03033           -3000.00
03034           -3000.00
03035           -3000.00
03036           -3200.00
03037           -3200.00
03038           -3200.00
03039           -3200.00
03040           -3400.00
03041           -3400.00
03042           -3400.00
03043           -3400.00
03044           -3600.00
03045           -3600.00
03046           -3600.00
03047           -3600.00
03048           -3600.00
03049           -3600.00
03050           -3800.00
03051           -4000.00
03052           -4000.00
03053           -4000.00
03054           -4000.00
03055           -4000.00
03056           -4200.00
03057           -4000.00
03058           -4200.00
03059           -4200.00
03060           -4200.00
03061           -4200.00
03062           -4200.00
03063           -4200.00
03064           -4400.00
03065           -4200.00
03066           -4400.00
03067           -4200.00
03068           -4400.00
03069           -4400.00
03070           -4400.00
03071           -4400.00
03072           -4400.00
03073           -4400.00
03074           -4400.00
03075           -4400.00
03076           -4400.00
03077           -4400.00
03078           -4400.00
03079           -4400.00
03080           -4400.00
03081           -4400.00
03082           -4400.00
03083           -4200.00
03084           -4400.00
03085           -4400.00
03086           -4400.00
03087           -4400.00
03088           -4400.00
03089           -4400.00
03090           -4400.00
03091           -4200.00
03092           -4200.00
03093           -4200.00
03094           -4000.00
03095           -4200.00
03096           -4200.00
03097           -4000.00
03098           -4000.00
03099           -4000.00
03100           -4000.00
03101           -4000.00
03102           -4000.00
03103           -4000.00
03104           -4000.00
03105           -3800.00
03106           -4000.00
03107           -3600.00
03108           -3800.00
03109           -3600.00
03110           -3800.00
03111           -3600.00
03112           -3600.00
03113           -3400.00
03114           -3400.00
03115           -3400.00
03116           -3400.00
03117           -3200.00
03118           -3200.00
03119           -3200.00
03120           -3200.00
03121           -3000.00
03122           -3000.00
03123           -2800.00
03124           -2800.00
03125           -2800.00
03126           -2600.00
03127           -2600.00
03128           -2600.00
03129           -2600.00
03130           -2400.00
03131           -2400.00
03132           -2200.00
03133           -2200.00
03134           -2200.00
03135           -2000.00
03136           -2000.00
03137           -2000.00
03138           -1800.00
03139           -1800.00
03140           -1600.00
03141           -1600.00
03142           -1600.00
03143           -1600.00
03144           -1200.00
03145           -1200.00
03146           -1200.00
03147           -1200.00
03148           -1000.00
03149            -800.00
03150            -800.00
03151            -800.00
03152            -800.00
03153            -600.00
03154            -400.00
03155            -400.00
03156            -200.00
03157            -200.00
03158            -200.00
03159               0.00
03160               0.00
03161             200.00
03162             200.00
03163             200.00
03164             400.00
03165             400.00
03166             400.00
03167             600.00
03168             600.00
03169             800.00
03170             800.00
03171             800.00
03172            1200.00
03173            1200.00
03174            1200.00
03175            1400.00
03176            1400.00
03177            1400.00
03178            1600.00
03179            1800.00
03180            1800.00
03181            1800.00
03182            1800.00
03183            2000.00
03184            2000.00
03185            2200.00
03186            2200.00
03187            2200.00
03188            2200.00
03189            2400.00
03190            2400.00
03191            2600.00
03192            2600.00
03193            2800.00
03194            2800.00
03195            3000.00
03196            2800.00
03197            3000.00
03198            3000.00
03199            3000.00
03200            3000.00
03201            3200.00
03202            3200.00
03203            3200.00
03204            3400.00
03205            3400.00
03206            3600.00
03207            3600.00
03208            3600.00
03209            3600.00
03210            3600.00
03211            3800.00
03212            3800.00
03213            3800.00
03214            4000.00
03215            4000.00
03216            4000.00
03217            3800.00
03218            4000.00
03219            4200.00
03220            4000.00
03221            4200.00
03222            4200.00
03223            4000.00
03224            4200.00
03225            4400.00
03226            4400.00
03227            4400.00
03228            4400.00
03229            4400.00
03230            4400.00
03231            4400.00
03232            4400.00
03233            4400.00
03234            4400.00
03235            4400.00
03236            4400.00
03237            4600.00
03238            4600.00
03239            4600.00
03240            4600.00
03241            4600.00
03242            4600.00
03243            4400.00
03244            4600.00
03245            4600.00
03246            4600.00
03247            4600.00
03248            4600.00
03249            4400.00
03250            4600.00
03251            4600.00
03252            4400.00
03253            4400.00
03254            4600.00
03255            4400.00
03256            4400.00
03257            4400.00
03258            4400.00
03259            4400.00
03260            4400.00
03261            4400.00
03262            4400.00
03263            4200.00
03264            4200.00
03265            4000.00
03266            4000.00
03267            4000.00
03268            4000.00
03269            4000.00
03270            4000.00
03271            4000.00
03272            3800.00
03273            4000.00
03274            3800.00
03275            3800.00
03276            3600.00
03277            3600.00
03278            3600.00
03279            3600.00
03280            3400.00
03281            3400.00
03282            3400.00
03283            3200.00
03284            3200.00
03285            3200.00
03286            3000.00
03287            3200.00
03288            3000.00
03289            2800.00
03290            2800.00
03291            2800.00
03292            2800.00
03293            2800.00
03294            2800.00
03295            2400.00
03296            2400.00
03297            2400.00
03298            2200.00
03299            2200.00
03300            2200.00
03301            2200.00
03302            2000.00
03303            2000.00
03304            2000.00
03305            1800.00
03306            1800.00
03307            1600.00
03308            1600.00
03309            1400.00
03310            1400.00
03311            1200.00
03312            1200.00
03313            1200.00
03314            1200.00
03315             800.00
03316             800.00
03317             800.00
03318             800.00
03319             600.00
03320             600.00
03321             400.00
03322             400.00
03323             200.00
03324             200.00
03325               0.00
03326               0.00
03327               0.00
03328               0.00
03329            -200.00
03330            -200.00
03331            -400.00
03332            -400.00
03333            -600.00
03334            -800.00
03335            -600.00
03336            -800.00
03337           -1000.00
03338           -1000.00
03339           -1000.00
03340           -1200.00
03341           -1200.00
03342           -1400.00
03343           -1400.00
03344           -1400.00
03345           -1600.00
03346           -1600.00
03347           -1800.00
03348           -1800.00
03349           -1800.00
03350           -2000.00
03351           -2000.00
03352           -2000.00
03353           -2400.00
03354           -2400.00
03355           -2400.00
03356           -2400.00
03357           -2600.00
03358           -2400.00
03359           -2600.00
03360           -2600.00
03361           -2800.00
03362           -2800.00
03363           -2800.00
03364           -3000.00
03365           -3000.00
03366           -3200.00
03367           -3200.00
03368           -3200.00
03369           -3200.00
03370           -3400.00
03371           -3400.00
03372           -3400.00
03373           -3400.00
03374           -3600.00
03375           -3600.00
03376           -3600.00
03377           -3600.00
03378           -3600.00
03379           -3800.00
03380           -3800.00
03381           -4000.00
03382           -3600.00
03383           -4000.00
03384           -4000.00
03385           -4000.00
03386           -4000.00
03387           -4200.00
03388           -4200.00
03389           -4200.00
03390           -4200.00
03391           -4200.00
03392           -4400.00
03393           -4400.00
03394           -4400.00
03395           -4400.00
03396           -4400.00
03397           -4200.00
03398           -4200.00
03399           -4200.00
03400           -4200.00
03401           -4400.00
03402           -4400.00
03403           -4400.00
03404           -4400.00
03405           -4400.00
03406           -4400.00
03407           -4400.00
03408           -4400.00
03409           -4400.00
03410           -4400.00
03411           -4400.00
03412           -4400.00
03413           -4400.00
03414           -4400.00
03415           -4400.00
03416           -4400.00
03417           -4400.00
03418           -4400.00
03419           -4200.00
03420           -4200.00
03421           -4400.00
03422           -4400.00
03423           -4200.00
03424           -4200.00
03425           -4200.00
03426           -4000.00
03427           -4200.00
03428           -4200.00
03429           -4000.00
03430           -4000.00
03431           -4000.00
03432           -4000.00
03433           -4000.00
03434           -3800.00
03435           -4000.00
03436           -3800.00
03437           -3800.00
03438           -3600.00
03439           -4000.00
03440           -3600.00
03441           -3600.00
03442           -3400.00
03443           -3400.00
03444           -3400.00
03445           -3400.00
03446           -3400.00
03447           -3200.00
03448           -3200.00
03449           -3200.00
03450           -3200.00
03451           -3200.00
03452           -2800.00
03453           -2800.00
03454           -2800.00
03455           -2800.00
03456           -2600.00
03457           -2600.00
03458           -2600.00
03459           -2600.00
03460           -2400.00
03461           -2400.00
03462           -2400.00
03463           -2400.00
03464           -2000.00
03465           -2000.00
03466           -2000.00
03467           -1800.00
03468           -1800.00
03469           -1800.00
03470           -1800.00
03471           -1600.00
03472           -1600.00
03473           -1600.00
03474           -1400.00
03475           -1200.00
03476           -1000.00
03477           -1000.00
03478           -1000.00
03479            -800.00
03480            -800.00
03481            -800.00
03482            -800.00
03483            -600.00
03484            -400.00
03485            -400.00
03486            -400.00
03487            -400.00
03488            -200.00
03489               0.00
03490               0.00
03491               0.00
03492             200.00
03493               0.00
03494             400.00
03495             400.00
03496             400.00
03497             400.00
03498             600.00
03499             800.00
03500             800.00
03501             800.00
03502             800.00
03503            1200.00
03504            1200.00
03505            1200.00
03506            1400.00
03507            1400.00
03508            1400.00
03509            1600.00
03510            1800.00
03511            1600.00
03512            1800.00
03513            2000.00
03514            2000.00
03515            2000.00
03516            2200.00
03517            2200.00
03518            2200.00
03519            2200.00
03520            2400.00
03521            2600.00
03522            2600.00
03523            2600.00
03524            2800.00
03525            2800.00
03526            3000.00
03527            3000.00
03528            3000.00
03529            3000.00
03530            3000.00
03531            3200.00
03532            3200.00
03533            3200.00
03534            3200.00
03535            3600.00
03536            3600.00
03537            3600.00
03538            3600.00
03539            3600.00
03540            3600.00
03541            3800.00
03542            3800.00
03543            3800.00
03544            4000.00
03545            4000.00
03546            3800.00
03547            4000.00
03548            4000.00
03549            4000.00
03550            4000.00
03551            4000.00
03552            4200.00
03553            4200.00
03554            4400.00
03555            4400.00
03556            4400.00
03557            4400.00
03558            4400.00
03559            4400.00
03560            4400.00
03561            4400.00
03562            4400.00
03563            4400.00
03564            4600.00
03565            4400.00
03566            4600.00
03567            4600.00
03568            4400.00
03569            4600.00
03570            4600.00
03571            4400.00
03572            4600.00
03573            4400.00
03574            4600.00
03575            4600.00
03576            4400.00
03577            4600.00
03578            4400.00
03579            4600.00
03580            4400.00
03581            4600.00
03582            4400.00
03583            4400.00
03584            4600.00
03585            4400.00
03586            4400.00
03587            4600.00
03588            4400.00
03589            4400.00
03590            4400.00
03591            4200.00
03592            4400.00
03593            4200.00
03594            4200.00
03595            4200.00
03596            4000.00
03597            4000.00
03598            4000.00
03599            4000.00
03600            4000.00
03601            4000.00
03602            4000.00
03603            3800.00
03604            3800.00
03605            3800.00
03606            3800.00
03607            3600.00
03608            3600.00
03609            3600.00
03610            3400.00
03611            3400.00
03612            3600.00
03613            3200.00
03614            3200.00
03615            3200.00
03616            3200.00
03617            3000.00
03618            3000.00
03619            3000.00
03620            3000.00
03621            2800.00
03622            2800.00
03623            2800.00
03624            2600.00
03625            2600.00
03626            2400.00
03627            2400.00
03628            2400.00
03629            2200.00
03630            2200.00
03631            2200.00
03632            2000.00
03633            2000.00
03634            2000.00
03635            1800.00
03636            1600.00
03637            1800.00
03638            1600.00
03639            1600.00
03640            1400.00
03641            1400.00
03642            1400.00
03643            1200.00
03644            1200.00
03645            1200.00
03646             800.00
03647             800.00
03648             800.00
03649             600.00
03650             600.00
03651             600.00
03652             400.00
03653             400.00
03654             400.00
03655             200.00
03656             200.00
03657               0.00
03658            -200.00
03659            -200.00
03660            -200.00
03661            -200.00
03662            -400.00
03663            -400.00
03664            -800.00
03665            -600.00
03666            -800.00
03667            -800.00
03668           -1000.00
03669            -800.00
03670           -1000.00
03671           -1000.00
03672           -1200.00
03673           -1400.00
03674           -1200.00
03675           -1600.00
03676           -1600.00
03677           -1800.00
03678           -1600.00
03679           -1800.00
03680           -2000.00
03681           -2000.00
03682           -2000.00
03683           -2000.00
03684           -2400.00
03685           -2200.00
03686           -2400.00
03687           -2600.00
03688           -2600.00
03689           -2600.00
03690           -2600.00
03691           -2600.00
03692           -2800.00
03693           -2800.00
03694           -2800.00
03695           -2800.00
03696           -3000.00
03697           -3200.00
03698           -3200.00
03699           -3200.00
03700           -3400.00
03701           -3200.00
03702           -3400.00
03703           -3400.00
03704           -3400.00
03705           -3400.00
03706           -3600.00
03707           -3600.00
03708           -3600.00
03709           -3600.00
03710           -3800.00
03711           -4000.00
03712           -3800.00
03713           -4000.00
03714           -4000.00
03715           -4000.00
03716           -4000.00
03717           -4200.00
03718           -4000.00
03719           -4200.00
03720           -4200.00
03721           -4200.00
03722           -4400.00
03723           -4200.00
03724           -4200.00
03725           -4200.00
03726           -4200.00
03727           -4200.00
03728           -4200.00
03729           -4400.00
03730           -4400.00
03731           -4400.00
03732           -4400.00
03733           -4400.00
03734           -4400.00
03735           -4400.00
03736           -4400.00
03737           -4400.00
03738           -4400.00
03739           -4400.00
03740           -4400.00
03741           -4400.00
03742           -4400.00
03743           -4400.00
03744           -4400.00
03745           -4400.00
03746           -4400.00
03747           -4400.00
03748           -4400.00
03749           -4400.00
03750           -4200.00
03751           -4200.00
03752           -4400.00
03753           -4200.00
03754           -4200.00
03755           -4000.00
03756           -4200.00
03757           -4200.00
03758           -4200.00
03759           -4000.00
03760           -4200.00
03761           -4000.00
03762           -4000.00
03763           -4000.00
03764           -4000.00
03765           -3800.00
03766           -4000.00
03767           -3800.00
03768           -3600.00
03769           -3800.00
03770           -3800.00
03771           -3600.00
03772           -3600.00
03773           -3600.00
03774           -3400.00
03775           -3400.00
03776           -3200.00
03777           -3400.00
03778           -3200.00
03779           -3200.00
03780           -3200.00
03781           -3000.00
03782           -3000.00
03783           -3000.00
03784           -2800.00
03785           -2800.00
03786           -2800.00
03787           -2600.00
03788           -2800.00
03789           -2600.00
03790           -2400.00
03791           -2400.00
03792           -2400.00
03793           -2200.00
03794           -2200.00
03795           -2000.00
03796           -2000.00
03797           -2000.00
03798           -1800.00
03799           -2000.00
03800           -1800.00
03801           -1800.00
03802           -1600.00
03803           -1400.00
03804           -1400.00
03805           -1200.00
03806           -1200.00
03807           -1200.00
03808           -1200.00
03809           -1000.00
03810            -800.00
03811            -800.00
03812            -800.00
03813            -800.00
03814            -600.00
03815            -400.00
03816            -400.00
03817            -200.00
03818            -200.00
03819            -200.00
03820               0.00
03821               0.00
03822               0.00
03823             200.00
03824             200.00
03825             400.00
03826             400.00
03827             600.00
03828             600.00
03829             600.00
03830             800.00
03831             800.00
03832             800.00
03833             800.00
03834            1200.00
03835            1200.00
03836            1200.00
03837            1400.00
03838            1400.00
03839            1400.00
03840            1600.00
03841            1800.00
03842            1800.00
03843            2000.00
03844            2000.00
03845            2000.00
03846            2000.00
03847            2200.00
03848            2200.00
03849            2200.00
03850            2400.00
03851            2400.00
03852            2600.00
03853            2800.00
03854            2800.00
03855            2800.00
03856            2800.00
03857            2800.00
03858            3000.00
03859            3000.00
03860            3000.00
03861            3000.00
03862            3000.00
03863            3200.00
03864            3200.00
03865            3200.00
03866            3200.00
03867            3600.00
03868            3600.00
03869            3600.00
03870            3600.00
03871            3800.00
03872            3800.00
03873            3800.00
03874            3800.00
03875            3800.00
03876            4000.00
03877            4000.00
03878            4000.00
03879            4000.00
03880            4000.00
03881            4000.00
03882            4200.00
03883            4200.00
03884            4200.00
03885            4000.00
03886            4400.00
03887            4400.00
03888            4400.00
03889            4400.00
03890            4400.00
03891            4400.00
03892            4400.00
03893            4400.00
03894            4400.00
03895            4600.00
03896            4400.00
03897            4400.00
03898            4600.00
03899            4600.00
03900            4600.00
03901            4600.00
03902            4400.00
03903            4600.00
03904            4400.00
03905            4600.00
03906            4600.00
03907            4600.00
03908            4400.00
03909            4400.00
03910            4400.00
03911            4600.00
03912            4400.00
03913            4400.00
03914            4600.00
03915            4600.00
03916            4400.00
03917            4600.00
03918            4400.00
03919            4400.00
03920            4400.00
03921            4400.00
03922            4400.00
03923            4400.00
03924            4400.00
03925            4200.00
03926            4200.00
03927            4000.00
03928            4000.00
03929            4000.00
03930            4000.00
03931            4000.00
03932            4000.00
03933            3800.00
03934            3800.00
03935            3800.00
03936            3600.00
03937            3600.00
03938            3800.00
03939            3600.00
03940            3600.00
03941            3400.00
03942            3400.00
03943            3400.00
03944            3400.00
03945            3200.00
03946            3200.00
03947            3200.00
03948            3200.00
03949            3000.00
03950            3000.00
03951            3000.00
03952            2800.00
03953            2800.00
03954            2800.00
03955            2800.00
03956            2800.00
03957            2400.00
03958            2400.00
03959            2400.00
03960            2200.00
03961            2200.00
03962            2200.00
03963            2000.00
03964            2000.00
03965            2000.00
03966            2000.00
03967            1600.00
03968            1600.00
03969            1600.00
03970            1400.00
03971            1400.00
03972            1400.00
03973            1200.00
03974            1200.00
03975            1000.00
03976            1000.00
03977             800.00
03978             800.00
03979             800.00
03980             600.00
03981             600.00
03982             600.00
03983             400.00
03984             400.00
03985             200.00
03986               0.00
03987               0.00
03988               0.00
03989               0.00
03990            -200.00
03991            -400.00
03992            -200.00
03993            -400.00
03994            -400.00
03995            -600.00
03996            -600.00
03997            -800.00
03998           -1000.00
03999           -1000.00
04000            -800.00
04001           -1000.00
04002           -1200.00
04003           -1400.00
04004           -1600.00
04005           -1200.00
04006           -1600.00
04007           -1600.00
04008           -1800.00
04009           -1600.00
04010           -2000.00
04011           -2000.00
04012           -2000.00
04013           -2000.00
04014           -2000.00
04015           -2400.00
04016           -2400.00
04017           -2400.00
04018           -2600.00
04019           -2600.00
04020           -2600.00
04021           -2800.00
04022           -2800.00
04023           -2800.00
04024           -2800.00
04025           -3000.00
04026           -3000.00
04027           -3000.00
04028           -3200.00
04029           -3200.00
04030           -3200.00
04031           -3200.00
04032           -3400.00
04033           -3400.00
04034           -3400.00
04035           -3400.00
04036           -3600.00
04037           -3600.00
04038           -3600.00
04039           -3600.00
04040           -3600.00
04041           -3800.00
04042           -3800.00
04043           -3800.00
04044           -4000.00
04045           -4000.00
04046           -4000.00
04047           -4000.00
04048           -4000.00
04049           -4200.00
04050           -4200.00
04051           -4200.00
04052           -4000.00
04053           -4200.00
04054           -4000.00
04055           -4200.00
04056           -4200.00
04057           -4400.00
04058           -4400.00
04059           -4400.00
04060           -4400.00
04061           -4400.00
04062           -4400.00
04063           -4400.00
04064           -4400.00
04065           -4400.00
04066           -4400.00
04067           -4400.00
04068           -4400.00
04069           -4400.00
04070           -4400.00
04071           -4400.00
04072           -4400.00
04073           -4400.00
04074           -4400.00
04075           -4400.00
04076           -4400.00
04077           -4200.00
04078           -4200.00
04079           -4400.00
04080           -4400.00
04081           -4400.00
04082           -4200.00
04083           -4400.00
04084           -4200.00
04085           -4200.00
04086           -4200.00
04087           -4200.00
04088           -4200.00
04089           -4000.00
04090           -4200.00
04091           -4000.00
04092           -4000.00
04093           -4000.00
04094           -4000.00
04095           -4000.00
04096           -3800.00
04097           -3800.00
04098           -3800.00
04099           -3600.00
04100           -3600.00
04101           -3600.00
04102           -3600.00
04103           -3600.00
04104           -3400.00
04105           -3400.00
04106           -3200.00
04107           -3400.00
04108           -3400.00
04109           -3200.00
04110           -3200.00
04111           -3000.00
04112           -3000.00
04113           -3000.00
04114           -2800.00
04115           -2800.00
04116           -2800.00
04117           -2600.00
04118           -2600.00
04119           -2600.00
04120           -2600.00
04121           -2400.00
04122           -2400.00
04123           -2400.00
04124           -2200.00
04125           -2000.00
04126           -2000.00
04127           -2000.00
04128           -2000.00
04129           -1800.00
04130           -1800.00
04131           -1800.00
04132           -1600.00
04133           -1600.00
04134           -1600.00
04135           -1400.00
04136           -1200.00
04137           -1000.00
04138           -1000.00
04139           -1000.00
04140           -1000.00
04141            -800.00
04142            -800.00
04143            -800.00
04144            -400.00
04145            -400.00
04146            -400.00
04147            -400.00
04148            -200.00
04149            -200.00
04150            -200.00
04151               0.00
04152               0.00
04153               0.00
04154             200.00
04155             400.00
04156             400.00
04157             600.00
04158             600.00
04159             800.00
04160             800.00
04161             800.00
04162             800.00
04163             800.00
04164            1000.00
04165            1200.00
04166            1200.00
04167            1200.00
04168            1400.00
04169            1400.00
04170            1800.00
04171            1600.00
04172            1800.00
04173            1800.00
04174            2000.00
04175            2000.00
04176            2000.00
04177            2200.00
04178            2000.00
04179            2200.00
04180            2400.00
04181            2200.00
04182            2400.00
04183            2600.00
04184            2800.00
04185            2800.00
04186            2800.00
04187            2800.00
04188            2800.00
04189            3000.00
04190            3000.00
04191            3200.00
04192            3000.00
04193            3200.00
04194            3200.00
04195            3200.00
04196            3200.00
04197            3400.00
04198            3600.00
04199            3600.00
04200            3600.00
04201            3600.00
04202            3600.00
04203            3800.00
04204            3800.00
04205            3800.00
04206            4000.00
04207            4000.00
04208            4000.00
04209            4000.00
04210            4000.00
04211            4000.00
04212            4200.00
04213            4200.00
04214            4400.00
04215            4200.00
04216            4400.00
04217            4400.00
04218            4400.00
04219            4400.00
04220            4400.00
04221            4400.00
04222            4600.00
04223            4600.00
04224            4400.00
04225            4600.00
04226            4400.00
04227            4400.00
04228            4600.00
04229            4600.00
04230            4600.00
04231            4600.00
04232            4600.00
04233            4600.00
04234            4600.00
04235            4600.00
04236            4600.00
04237            4600.00
04238            4400.00
04239            4600.00
04240            4600.00
04241            4600.00
04242            4400.00
04243            4600.00
04244            4400.00
04245            4400.00
04246            4400.00
04247            4400.00
04248            4400.00
04249            4600.00
04250            4400.00
04251            4400.00
04252            4400.00
04253            4400.00
04254            4200.00
04255            4200.00
04256            4200.00
04257            4200.00
04258            4200.00
04259            4000.00
04260            4000.00
04261            4000.00
04262            4000.00
04263            3800.00
04264            3800.00
04265            3800.00
04266            3600.00
04267            3800.00
04268            3600.00
04269            3600.00
04270            3600.00
04271            3600.00
04272            3600.00
04273            3600.00
04274            3400.00
04275            3200.00
04276            3200.00
04277            3200.00
04278            3000.00
04279            3000.00
04280            3000.00
04281            2800.00
04282            3000.00
04283            2800.00
04284            2800.00
04285            2800.00
04286            2800.00
04287            2400.00
04288            2400.00
04289            2400.00
04290            2200.00
04291            2200.00
04292            2200.00
04293            2200.00
04294            2000.00
04295            2000.00
04296            1800.00
04297            1800.00
04298            1600.00
04299            1600.00
04300            1600.00
04301            1400.00
04302            1400.00
04303            1400.00
04304            1200.00
04305            1200.00
04306            1000.00
04307            1000.00
04308             800.00
04309             800.00
04310             800.00
04311             600.00
04312             600.00
04313             400.00
04314             400.00
04315             400.00
04316             200.00
04317               0.00
04318               0.00
04319               0.00
04320            -200.00
04321            -200.00
04322            -200.00
04323            -400.00
04324            -400.00
04325            -600.00
04326            -600.00
04327            -800.00
04328            -600.00
04329           -1000.00
04330           -1000.00
04331           -1000.00
04332           -1000.00
04333           -1200.00
04334           -1400.00
04335           -1200.00
04336           -1600.00
04337           -1600.00
04338           -1800.00
04339           -1800.00
04340           -1800.00
04341           -2000.00
04342           -2000.00
04343           -2000.00
04344           -2000.00
04345           -2200.00
04346           -2400.00
04347           -2200.00
04348           -2400.00
04349           -2400.00
04350           -2600.00
04351           -2600.00
04352           -2800.00
04353           -2800.00
04354           -2800.00
04355           -2800.00
04356           -3000.00
04357           -3000.00
04358           -3000.00
04359           -3200.00
04360           -3200.00
04361           -3200.00
04362           -3400.00
04363           -3400.00
04364           -3400.00
04365           -3400.00
04366           -3600.00
04367           -3400.00
04368           -3600.00
04369           -3600.00
04370           -3600.00
04371           -3800.00
04372           -3800.00
04373           -4000.00
04374           -4000.00
04375           -4000.00
04376           -4000.00
04377           -4000.00
04378           -4000.00
04379           -4200.00
04380           -4000.00
04381           -4000.00
04382           -4200.00
04383           -4200.00
04384           -4200.00
04385           -4200.00
04386           -4200.00
04387           -4200.00
04388           -4400.00
04389           -4400.00
04390           -4400.00
04391           -4200.00
04392           -4400.00
04393           -4400.00
04394           -4400.00
04395           -4400.00
04396           -4400.00
04397           -4400.00
04398           -4400.00
04399           -4400.00
04400           -4400.00
04401           -4400.00
04402           -4400.00
04403           -4400.00
04404           -4400.00
04405           -4400.00
04406           -4400.00
04407           -4400.00
04408           -4400.00
04409           -4400.00
04410           -4200.00
04411           -4200.00
04412           -4200.00
04413           -4200.00
04414           -4200.00
04415           -4400.00
04416           -4200.00
04417           -4200.00
04418           -4200.00
04419           -4000.00
04420           -4000.00
04421           -4000.00
04422           -4000.00
04423           -4000.00
04424           -4000.00
04425           -4000.00
04426           -4000.00
04427           -4000.00
04428           -3800.00
04429           -4000.00
04430           -3600.00
04431           -3600.00
04432           -3600.00
04433           -3600.00
04434           -3400.00
04435           -3400.00
04436           -3400.00
04437           -3400.00
04438           -3400.00
04439           -3200.00
04440           -3200.00
04441           -3200.00
04442           -3200.00
04443           -3000.00
04444           -3000.00
04445           -2800.00
04446           -2800.00
04447           -2800.00
04448           -2800.00
04449           -2600.00
04450           -2400.00
04451           -2600.00
04452           -2400.00
04453           -2400.00
04454           -2400.00
04455           -2200.00
04456           -2000.00
04457           -2000.00
04458           -2000.00
04459           -2000.00
04460           -1800.00
04461           -1800.00
04462           -1600.00
04463           -1600.00
04464           -1600.00
04465           -1400.00
04466           -1600.00
04467           -1200.00
04468           -1200.00
04469           -1200.00
04470           -1000.00
04471            -800.00
04472            -800.00
04473            -800.00
04474            -600.00
04475            -600.00
04476            -600.00
04477            -400.00
04478            -400.00
04479            -200.00
04480            -200.00
04481               0.00
04482               0.00
04483               0.00
04484             200.00
04485             200.00
04486             200.00
04487             400.00
04488             400.00
04489             400.00
04490             800.00
04491             800.00
04492             800.00
04493             800.00
04494            1000.00
04495            1200.00
04496            1200.00
04497            1200.00
04498            1400.00
04499            1400.00
04500            1800.00
04501            1600.00
04502            1800.00
04503            1800.00
04504            1800.00
04505            1800.00
04506            2200.00
04507            2000.00
04508            2200.00
04509            2200.00
04510            2200.00
04511            2400.00
04512            2400.00
04513            2600.00
04514            2600.00
04515            2600.00
04516            2800.00
04517            2800.00
04518            2800.00
04519            3000.00
04520            3000.00
04521            3000.00
04522            3200.00
04523            3200.00
04524            3200.00
04525            3200.00
04526            3200.00
04527            3400.00
04528            3600.00
04529            3600.00
04530            3600.00
04531            3800.00
04532            3800.00
04533            3800.00
04534            3800.00
04535            3800.00
04536            4000.00
04537            4000.00
04538            4000.00
04539            4000.00
04540            4000.00
04541            4000.00
04542            4200.00
04543            4200.00
04544            4000.00
04545            4400.00
04546            4400.00
04547            4400.00
04548            4200.00
04549            4400.00
04550            4400.00
04551            4400.00
04552            4600.00
04553            4400.00
04554            4400.00
04555            4600.00
04556            4400.00
04557            4600.00
04558            4400.00
04559            4600.00
04560            4600.00
04561            4600.00
04562            4600.00
04563            4600.00
04564            4600.00
04565            4600.00
04566            4600.00
04567            4600.00
04568            4600.00
04569            4600.00
04570            4600.00
04571            4400.00
04572            4600.00
04573            4400.00
04574            4600.00
04575            4400.00
04576            4400.00
04577            4400.00
04578            4600.00
04579            4400.00
04580            4400.00
04581            4400.00
04582            4200.00
04583            4400.00
04584            4400.00
04585            4200.00
04586            4200.00
04587            4000.00
04588            4000.00
04589            4000.00
04590            4000.00
04591            4000.00
04592            4000.00
04593            3800.00
04594            3800.00
04595            3800.00
04596            3800.00
04597            3800.00
04598            3600.00
04599            3600.00
04600            3600.00
04601            3600.00
04602            3600.00
04603            3400.00
04604            3400.00
04605            3400.00
04606            3200.00
04607            3200.00
04608            3200.00
04609            3000.00
04610            3000.00
04611            3000.00
04612            2800.00
04613            2800.00
04614            2800.00
04615            2800.00
04616            2800.00
04617            2600.00
04618            2400.00
04619            2400.00
04620            2400.00
04621            2400.00
04622            2200.00
04623            2200.00
04624            2000.00
04625            2000.00
04626            2000.00
04627            2000.00
04628            1800.00
04629            1800.00
04630            1600.00
04631            1400.00
04632            1400.00
04633            1200.00
04634            1200.00
04635            1200.00
04636            1200.00
04637             800.00
04638             800.00
04639             800.00
04640             600.00
04641             800.00
04642             600.00
04643             600.00
04644             400.00
04645             400.00
04646             400.00
04647             200.00
04648               0.00
04649             200.00
04650            -200.00
04651            -200.00
04652            -200.00
04653            -200.00
04654            -400.00
04655            -400.00
04656            -600.00
04657            -600.00
04658            -800.00
04659           -1000.00
04660            -800.00
04661           -1000.00
04662           -1000.00
04663           -1200.00
04664           -1200.00
04665           -1200.00
04666           -1400.00
04667           -1600.00
04668           -1600.00
04669           -1800.00
04670           -1600.00
04671           -2000.00
04672           -2000.00
04673           -2000.00
04674           -2000.00
04675           -2200.00
04676           -2200.00
04677           -2400.00
04678           -2400.00
04679           -2400.00
04680           -2400.00
04681           -2600.00
04682           -2600.00
04683           -2600.00
04684           -2800.00
04685           -2800.00
04686           -3000.00
04687           -3000.00
04688           -3200.00
04689           -3200.00
04690           -3200.00
04691           -3400.00
04692           -3400.00
04693           -3400.00
04694           -3400.00
04695           -3400.00
04696           -3600.00
04697           -3600.00
04698           -3600.00
04699           -3600.00
04700           -3600.00
04701           -3600.00
04702           -3800.00
04703           -3800.00
04704           -4000.00
04705           -4000.00
04706           -4000.00
04707           -4000.00
04708           -4000.00
04709           -4000.00
04710           -4000.00
04711           -4000.00
04712           -4200.00
04713           -4200.00
04714           -4200.00
04715           -4200.00
04716           -4200.00
04717           -4400.00
04718           -4200.00
04719           -4200.00
04720           -4400.00
04721           -4400.00
04722           -4400.00
04723           -4200.00
04724           -4400.00
04725           -4400.00
04726           -4400.00
04727           -4400.00
04728           -4400.00
04729           -4400.00
04730           -4400.00
04731           -4400.00
04732           -4400.00
04733           -4400.00
04734           -4400.00
04735           -4400.00
04736           -4400.00
04737           -4400.00
04738           -4400.00
04739           -4400.00
04740           -4400.00
04741           -4400.00
04742           -4200.00
04743           -4200.00
04744           -4200.00
04745           -4200.00
04746           -4200.00
04747           -4200.00
04748           -4200.00
04749           -4000.00
04750           -4200.00
04751           -4000.00
04752           -4000.00
04753           -4000.00
04754           -4000.00
04755           -4000.00
04756           -3800.00
04757           -4000.00
04758           -3600.00
04759           -3600.00
04760           -3800.00
04761           -3800.00
04762           -3600.00
04763           -3600.00
04764           -3400.00
04765           -3400.00
04766           -3400.00
04767           -3200.00
04768           -3400.00
04769           -3400.00
04770           -3200.00
04771           -3200.00
04772           -3200.00
04773           -3000.00
04774           -2800.00
04775           -2800.00
04776           -2800.00
04777           -2800.00
04778           -2800.00
04779           -2600.00
04780           -2600.00
04781           -2600.00
04782           -2400.00
04783           -2400.00
04784           -2200.00
04785           -2400.00
04786           -2400.00
04787           -2000.00
04788           -2000.00
04789           -2000.00
04790           -1800.00
04791           -1800.00
04792           -1600.00
04793           -1800.00
04794           -1600.00
04795           -1600.00
04796           -1600.00
04797           -1400.00
04798           -1200.00
04799           -1200.00
04800           -1000.00
04801           -1000.00
04802            -800.00
04803           -1000.00
04804            -800.00
04805            -600.00
04806            -400.00
04807            -400.00
04808            -400.00
04809            -400.00
04810            -200.00
04811            -200.00
04812            -200.00
04813               0.00
04814               0.00
04815             200.00
04816             400.00
04817             400.00
04818             400.00
04819             600.00
04820             600.00
04821             600.00
04822             800.00
04823             800.00
04824             800.00
04825            1000.00
04826            1200.00
04827            1200.00
04828            1200.00
04829            1400.00
04830            1600.00
04831            1600.00
04832            1800.00
04833            1600.00
04834            1800.00
04835            2000.00
04836            2000.00
04837            2000.00
04838            2200.00
04839            2200.00
04840            2400.00
04841            2400.00
04842            2400.00
04843            2400.00
04844            2400.00
04845            2600.00
04846            2800.00
04847            2800.00
04848            2800.00
04849            2800.00
04850            3000.00
04851            3000.00
04852            3000.00
04853            3200.00
04854            3200.00
04855            3600.00
04856            3200.00
04857            3200.00
04858            3400.00
04859            3400.00
04860            3600.00
04861            3600.00
04862            3600.00
04863            3800.00
04864            3800.00
04865            3800.00
04866            3800.00
04867            3800.00
04868            4000.00
04869            4000.00
04870            4000.00
04871            4000.00
04872            4000.00
04873            4200.00
04874            4200.00
04875            4200.00
04876            4400.00
04877            4400.00
04878            4400.00
04879            4400.00
04880            4400.00
04881            4400.00
04882            4400.00
04883            4600.00
04884            4400.00
04885            4600.00
04886            4400.00
04887            4600.00
04888            4400.00
04889            4400.00
04890            4600.00
04891            4600.00
04892            4600.00
04893            4600.00
04894            4600.00
04895            4400.00
04896            4600.00
04897            4400.00
04898            4600.00
04899            4600.00
04900            4400.00
04901            4600.00
04902            4600.00
04903            4600.00
04904            4600.00
04905            4600.00
04906            4600.00
04907            4400.00
04908            4400.00
04909            4400.00
04910            4400.00
04911            4400.00
04912            4400.00
04913            4400.00
04914            4200.00
04915            4200.00
04916            4000.00
04917            4200.00
04918            4000.00
04919            4200.00
04920            4000.00
04921            4000.00
04922            4000.00
04923            4000.00
04924            3800.00
04925            3800.00
04926            3800.00
04927            3800.00
04928            3600.00
04929            3800.00
04930            3800.00
04931            3600.00
04932            3600.00
04933            3400.00
04934            3200.00
04935            3400.00
04936            3200.00
04937            3200.00
04938            3200.00
04939            3200.00
04940            3200.00
04941            3000.00
04942            2800.00
04943            3000.00
04944            2800.00
04945            2600.00
04946            2800.00
04947            2600.00
04948            2400.00
04949            2400.00
04950            2400.00
04951            2200.00
04952            2400.00
04953            2200.00
04954            2000.00
04955            2000.00
04956            2000.00
04957            2000.00
04958            1800.00
04959            1600.00
04960            1600.00
04961            1600.00
04962            1400.00
04963            1400.00
04964            1200.00
04965            1200.00
04966            1200.00
04967            1000.00
04968             800.00
04969             800.00
04970             800.00
04971             600.00
04972             600.00
04973             400.00
04974             400.00
04975             400.00
04976             400.00
04977             200.00
04978               0.00
04979               0.00
04980               0.00
04981            -200.00
04982            -200.00
04983            -200.00
04984            -400.00
04985            -400.00
04986            -600.00
04987            -800.00
04988            -600.00
04989            -800.00
04990           -1000.00
04991           -1000.00
04992           -1000.00
04993           -1200.00
04994           -1200.00
04995           -1400.00
04996           -1400.00
04997           -1600.00
04998           -1600.00
04999           -1600.00
05000           -1800.00
