Unit:(mV)
                     CH2
Frequency    301.364 kHz
00001            1800.00
00002            1600.00
00003            1400.00
00004            1200.00
00005            1000.00
00006             600.00
00007             600.00
00008             400.00
00009               0.00
00010               0.00
00011            -200.00
00012            -400.00
00013            -600.00
00014            -800.00
00015            -800.00
00016           -1000.00
00017           -1200.00
00018           -1600.00
00019           -1600.00
00020           -2000.00
00021           -2400.00
00022           -2400.00
00023           -2200.00
00024           -2400.00
00025           -3000.00
00026           -2800.00
00027           -2800.00
00028           -3400.00
00029           -3600.00
00030           -3400.00
00031           -3800.00
00032           -4200.00
00033           -4000.00
00034           -4400.00
00035           -4600.00
00036           -4600.00
00037           -4800.00
00038           -5000.00
00039           -5200.00
00040           -5600.00
00041           -5600.00
00042           -5800.00
00043           -6000.00
00044           -6000.00
00045           -6200.00
00046           -6400.00
00047           -6600.00
00048           -6600.00
00049           -6800.00
00050           -7000.00
00051           -7200.00
00052           -7200.00
00053           -7400.00
00054           -7400.00
00055           -7800.00
00056           -7600.00
00057           -8000.00
00058           -8000.00
00059           -8000.00
00060           -8200.00
00061           -8400.00
00062           -8400.00
00063           -8600.00
00064           -8800.00
00065           -8800.00
00066           -8800.00
00067           -9000.00
00068           -9000.00
00069           -9200.00
00070           -9200.00
00071           -9200.00
00072           -9400.00
00073           -9400.00
00074           -9600.00
00075           -9600.00
00076           -9800.00
00077           -9800.00
00078           -9600.00
00079           -9800.00
00080           -9800.00
00081          -10000.00
00082           -9800.00
00083          -10000.00
00084          -10000.00
00085          -10000.00
00086          -10000.00
00087          -10000.00
00088          -10000.00
00089          -10000.00
00090          -10000.00
00091          -10000.00
00092          -10000.00
00093          -10000.00
00094          -10200.00
00095          -10000.00
00096          -10000.00
00097          -10000.00
00098          -10000.00
00099          -10000.00
00100          -10000.00
00101          -10000.00
00102          -10000.00
00103           -9800.00
00104           -9800.00
00105           -9800.00
00106           -9800.00
00107           -9600.00
00108           -9600.00
00109           -9600.00
00110           -9600.00
00111           -9200.00
00112           -9400.00
00113           -9200.00
00114           -9200.00
00115           -9200.00
00116           -9000.00
00117           -9000.00
00118           -8800.00
00119           -8800.00
00120           -8800.00
00121           -8800.00
00122           -8600.00
00123           -8400.00
00124           -8400.00
00125           -8200.00
00126           -8200.00
00127           -8000.00
00128           -7800.00
00129           -7600.00
00130           -7600.00
00131           -7400.00
00132           -7400.00
00133           -7200.00
00134           -7200.00
00135           -7000.00
00136           -6800.00
00137           -6600.00
00138           -6600.00
00139           -6400.00
00140           -6400.00
00141           -6000.00
00142           -6000.00
00143           -5800.00
00144           -5600.00
00145           -5400.00
00146           -5200.00
00147           -5000.00
00148           -5000.00
00149           -4800.00
00150           -4600.00
00151           -4400.00
00152           -4200.00
00153           -4200.00
00154           -3800.00
00155           -3600.00
00156           -3600.00
00157           -3400.00
00158           -3200.00
00159           -3000.00
00160           -2800.00
00161           -2600.00
00162           -2400.00
00163           -2400.00
00164           -2000.00
00165           -1800.00
00166           -1800.00
00167           -1600.00
00168           -1200.00
00169           -1400.00
00170           -1000.00
00171            -800.00
00172            -800.00
00173            -400.00
00174            -200.00
00175               0.00
00176             200.00
00177             400.00
00178             400.00
00179             600.00
00180             800.00
00181             800.00
00182            1200.00
00183            1400.00
00184            1800.00
00185            2000.00
00186            2000.00
00187            2400.00
00188            2400.00
00189            2400.00
00190            2800.00
00191            3000.00
00192            3000.00
00193            3200.00
00194            3600.00
00195            3600.00
00196            3600.00
00197            4000.00
00198            4200.00
00199            4200.00
00200            4400.00
00201            4600.00
00202            4800.00
00203            5200.00
00204            5200.00
00205            5400.00
00206            5600.00
00207            5800.00
00208            6000.00
00209            6000.00
00210            6400.00
00211            6400.00
00212            6400.00
00213            6800.00
00214            7000.00
00215            6800.00
00216            7000.00
00217            7400.00
00218            7200.00
00219            7400.00
00220            7800.00
00221            7800.00
00222            8000.00
00223            8200.00
00224            8000.00
00225            8400.00
00226            8600.00
00227            8400.00
00228            8600.00
00229            8800.00
00230            8800.00
00231            8800.00
00232            9000.00
00233            8800.00
00234            9200.00
00235            9200.00
00236            9200.00
00237            9400.00
00238            9600.00
00239            9600.00
00240            9600.00
00241            9600.00
00242            9800.00
00243            9600.00
00244            9800.00
00245           10000.00
00246           10000.00
00247           10000.00
00248           10000.00
00249           10000.00
00250           10000.00
00251           10000.00
00252           10200.00
00253           10200.00
00254           10200.00
00255           10200.00
00256           10200.00
00257           10200.00
00258           10200.00
00259           10200.00
00260           10200.00
00261           10200.00
00262           10200.00
00263           10200.00
00264           10200.00
00265           10000.00
00266           10000.00
00267           10200.00
00268           10200.00
00269           10000.00
00270           10000.00
00271           10000.00
00272           10000.00
00273            9800.00
00274            9800.00
00275            9800.00
00276            9600.00
00277            9600.00
00278            9400.00
00279            9600.00
00280            9400.00
00281            9400.00
00282            9200.00
00283            9200.00
00284            9200.00
00285            9000.00
00286            8800.00
00287            8800.00
00288            8600.00
00289            8600.00
00290            8600.00
00291            8400.00
00292            8400.00
00293            8200.00
00294            8000.00
00295            8000.00
00296            7800.00
00297            7600.00
00298            7400.00
00299            7200.00
00300            7200.00
00301            7200.00
00302            7000.00
00303            6800.00
00304            6600.00
00305            6400.00
00306            6400.00
00307            6200.00
00308            6200.00
00309            6000.00
00310            5600.00
00311            5600.00
00312            5400.00
00313            5200.00
00314            5200.00
00315            5000.00
00316            4800.00
00317            4600.00
00318            4400.00
00319            4200.00
00320            4000.00
00321            3800.00
00322            3600.00
00323            3600.00
00324            3200.00
00325            3000.00
00326            3000.00
00327            2800.00
00328            2600.00
00329            2400.00
00330            2200.00
00331            2000.00
00332            2000.00
00333            1800.00
00334            1400.00
00335            1400.00
00336            1000.00
00337             800.00
00338             600.00
00339             600.00
00340             400.00
00341             200.00
00342               0.00
00343            -400.00
00344            -400.00
00345            -400.00
00346            -800.00
00347            -800.00
00348           -1000.00
00349           -1200.00
00350           -1600.00
00351           -1600.00
00352           -2000.00
00353           -2400.00
00354           -2400.00
00355           -2400.00
00356           -2400.00
00357           -3000.00
00358           -3000.00
00359           -3000.00
00360           -3400.00
00361           -3600.00
00362           -3600.00
00363           -3800.00
00364           -4200.00
00365           -4200.00
00366           -4400.00
00367           -4800.00
00368           -4600.00
00369           -4800.00
00370           -5000.00
00371           -5200.00
00372           -5600.00
00373           -5600.00
00374           -5800.00
00375           -5800.00
00376           -6200.00
00377           -6200.00
00378           -6600.00
00379           -6600.00
00380           -6600.00
00381           -7000.00
00382           -7200.00
00383           -7000.00
00384           -7400.00
00385           -7400.00
00386           -7400.00
00387           -7600.00
00388           -7800.00
00389           -8000.00
00390           -8200.00
00391           -8200.00
00392           -8200.00
00393           -8400.00
00394           -8400.00
00395           -8600.00
00396           -8800.00
00397           -8800.00
00398           -8800.00
00399           -8800.00
00400           -9000.00
00401           -9200.00
00402           -9200.00
00403           -9400.00
00404           -9200.00
00405           -9400.00
00406           -9600.00
00407           -9600.00
00408           -9600.00
00409           -9800.00
00410           -9600.00
00411           -9800.00
00412          -10000.00
00413           -9800.00
00414          -10000.00
00415          -10000.00
00416          -10000.00
00417          -10000.00
00418          -10000.00
00419          -10000.00
00420          -10000.00
00421          -10000.00
00422          -10200.00
00423          -10000.00
00424          -10000.00
00425          -10000.00
00426          -10400.00
00427          -10000.00
00428          -10000.00
00429          -10000.00
00430          -10000.00
00431          -10000.00
00432          -10000.00
00433          -10000.00
00434          -10000.00
00435          -10000.00
00436           -9800.00
00437           -9800.00
00438           -9800.00
00439           -9600.00
00440           -9800.00
00441           -9600.00
00442           -9600.00
00443           -9600.00
00444           -9600.00
00445           -9400.00
00446           -9200.00
00447           -9200.00
00448           -9200.00
00449           -9000.00
00450           -8800.00
00451           -8800.00
00452           -8800.00
00453           -8800.00
00454           -8400.00
00455           -8400.00
00456           -8400.00
00457           -8200.00
00458           -8200.00
00459           -8000.00
00460           -8000.00
00461           -7800.00
00462           -7600.00
00463           -7600.00
00464           -7400.00
00465           -7200.00
00466           -7200.00
00467           -6800.00
00468           -6800.00
00469           -6800.00
00470           -6600.00
00471           -6400.00
00472           -6400.00
00473           -6000.00
00474           -5800.00
00475           -5800.00
00476           -5600.00
00477           -5600.00
00478           -5200.00
00479           -5000.00
00480           -5000.00
00481           -4600.00
00482           -4600.00
00483           -4400.00
00484           -4200.00
00485           -4000.00
00486           -4000.00
00487           -3600.00
00488           -3600.00
00489           -3200.00
00490           -3200.00
00491           -2800.00
00492           -2800.00
00493           -2600.00
00494           -2400.00
00495           -2400.00
00496           -2000.00
00497           -2000.00
00498           -1600.00
00499           -1600.00
00500           -1200.00
00501           -1000.00
00502           -1000.00
00503            -800.00
00504            -600.00
00505            -200.00
00506            -200.00
00507               0.00
00508             200.00
00509             400.00
00510             600.00
00511             800.00
00512             800.00
00513            1200.00
00514            1400.00
00515            1400.00
00516            1800.00
00517            2000.00
00518            2200.00
00519            2400.00
00520            2400.00
00521            2400.00
00522            2800.00
00523            3000.00
00524            3200.00
00525            3200.00
00526            3600.00
00527            3600.00
00528            3800.00
00529            4000.00
00530            4400.00
00531            4400.00
00532            4600.00
00533            4800.00
00534            4800.00
00535            5200.00
00536            5400.00
00537            5400.00
00538            5600.00
00539            5800.00
00540            6000.00
00541            6200.00
00542            6200.00
00543            6400.00
00544            6600.00
00545            6400.00
00546            6800.00
00547            7200.00
00548            7200.00
00549            7200.00
00550            7200.00
00551            7400.00
00552            7800.00
00553            7800.00
00554            8000.00
00555            8000.00
00556            8200.00
00557            8400.00
00558            8600.00
00559            8400.00
00560            8600.00
00561            8800.00
00562            8800.00
00563            8800.00
00564            9200.00
00565            9200.00
00566            9200.00
00567            9400.00
00568            9400.00
00569            9400.00
00570            9400.00
00571            9600.00
00572            9600.00
00573            9600.00
00574            9800.00
00575            9800.00
00576           10000.00
00577           10000.00
00578           10000.00
00579           10000.00
00580           10000.00
00581           10200.00
00582           10200.00
00583           10200.00
00584           10000.00
00585           10200.00
00586           10200.00
00587           10200.00
00588           10200.00
00589           10200.00
00590           10200.00
00591           10400.00
00592           10200.00
00593           10200.00
00594           10200.00
00595           10200.00
00596           10200.00
00597           10200.00
00598           10200.00
00599           10200.00
00600           10000.00
00601           10000.00
00602           10000.00
00603            9800.00
00604           10000.00
00605            9800.00
00606            9600.00
00607            9600.00
00608            9600.00
00609            9600.00
00610            9400.00
00611            9400.00
00612            9400.00
00613            9400.00
00614            9400.00
00615            9200.00
00616            9000.00
00617            8800.00
00618            8800.00
00619            8800.00
00620            8600.00
00621            8600.00
00622            8400.00
00623            8400.00
00624            8400.00
00625            8200.00
00626            8000.00
00627            7800.00
00628            7800.00
00629            7600.00
00630            7600.00
00631            7400.00
00632            7200.00
00633            7000.00
00634            6800.00
00635            6800.00
00636            6600.00
00637            6600.00
00638            6400.00
00639            6200.00
00640            6000.00
00641            6000.00
00642            5800.00
00643            5600.00
00644            5400.00
00645            5400.00
00646            5200.00
00647            4800.00
00648            4600.00
00649            4400.00
00650            4400.00
00651            4200.00
00652            4000.00
00653            3800.00
00654            3600.00
00655            3600.00
00656            3200.00
00657            3200.00
00658            3000.00
00659            2800.00
00660            2600.00
00661            2400.00
00662            2200.00
00663            2000.00
00664            1800.00
00665            1600.00
00666            1400.00
00667            1400.00
00668            1200.00
00669             600.00
00670             600.00
00671             400.00
00672             400.00
00673               0.00
00674            -200.00
00675            -400.00
00676            -400.00
00677            -600.00
00678            -800.00
00679           -1000.00
00680           -1000.00
00681           -1400.00
00682           -1400.00
00683           -1800.00
00684           -2000.00
00685           -2400.00
00686           -2400.00
00687           -2200.00
00688           -2600.00
00689           -3200.00
00690           -3000.00
00691           -3200.00
00692           -3400.00
00693           -3600.00
00694           -3600.00
00695           -4000.00
00696           -4200.00
00697           -4200.00
00698           -4400.00
00699           -4600.00
00700           -4800.00
00701           -5000.00
00702           -5200.00
00703           -5200.00
00704           -5600.00
00705           -5800.00
00706           -5800.00
00707           -6000.00
00708           -6000.00
00709           -6200.00
00710           -6600.00
00711           -6600.00
00712           -6800.00
00713           -6800.00
00714           -6800.00
00715           -7200.00
00716           -7400.00
00717           -7400.00
00718           -7600.00
00719           -7800.00
00720           -8000.00
00721           -8000.00
00722           -8200.00
00723           -8200.00
00724           -8200.00
00725           -8400.00
00726           -8600.00
00727           -8600.00
00728           -8800.00
00729           -8800.00
00730           -9000.00
00731           -9000.00
00732           -9000.00
00733           -9200.00
00734           -9200.00
00735           -9200.00
00736           -9400.00
00737           -9400.00
00738           -9600.00
00739           -9600.00
00740           -9600.00
00741           -9800.00
00742           -9800.00
00743           -9800.00
00744           -9800.00
00745           -9800.00
00746          -10000.00
00747          -10000.00
00748          -10000.00
00749          -10000.00
00750          -10000.00
00751          -10000.00
00752          -10000.00
00753          -10000.00
00754          -10000.00
00755          -10000.00
00756          -10200.00
00757          -10000.00
00758          -10000.00
00759          -10000.00
00760          -10000.00
00761          -10000.00
00762          -10000.00
00763           -9800.00
00764          -10000.00
00765          -10000.00
00766           -9800.00
00767          -10000.00
00768           -9800.00
00769           -9800.00
00770           -9800.00
00771           -9800.00
00772           -9600.00
00773           -9600.00
00774           -9600.00
00775           -9600.00
00776           -9400.00
00777           -9400.00
00778           -9200.00
00779           -9200.00
00780           -9200.00
00781           -9000.00
00782           -9000.00
00783           -8800.00
00784           -8800.00
00785           -8600.00
00786           -8600.00
00787           -8400.00
00788           -8400.00
00789           -8200.00
00790           -8000.00
00791           -8000.00
00792           -8000.00
00793           -7600.00
00794           -7600.00
00795           -7400.00
00796           -7400.00
00797           -7200.00
00798           -7000.00
00799           -6800.00
00800           -6800.00
00801           -6600.00
00802           -6400.00
00803           -6400.00
00804           -6000.00
00805           -6000.00
00806           -5800.00
00807           -5800.00
00808           -5600.00
00809           -5600.00
00810           -5200.00
00811           -5000.00
00812           -4800.00
00813           -4600.00
00814           -4600.00
00815           -4400.00
00816           -4200.00
00817           -4000.00
00818           -3800.00
00819           -3600.00
00820           -3400.00
00821           -3400.00
00822           -3200.00
00823           -3000.00
00824           -2800.00
00825           -2600.00
00826           -2400.00
00827           -2000.00
00828           -2000.00
00829           -1800.00
00830           -1800.00
00831           -1600.00
00832           -1200.00
00833           -1000.00
00834            -800.00
00835            -600.00
00836            -400.00
00837            -200.00
00838            -200.00
00839               0.00
00840             200.00
00841             400.00
00842             400.00
00843             800.00
00844             800.00
00845            1000.00
00846            1400.00
00847            1600.00
00848            1800.00
00849            2000.00
00850            2200.00
00851            2400.00
00852            2400.00
00853            2600.00
00854            2800.00
00855            3000.00
00856            3200.00
00857            3200.00
00858            3800.00
00859            3600.00
00860            3800.00
00861            4000.00
00862            4200.00
00863            4400.00
00864            4600.00
00865            4800.00
00866            4800.00
00867            5200.00
00868            5400.00
00869            5600.00
00870            5600.00
00871            6000.00
00872            6000.00
00873            6200.00
00874            6200.00
00875            6400.00
00876            6600.00
00877            6800.00
00878            6800.00
00879            7000.00
00880            7200.00
00881            7200.00
00882            7400.00
00883            7600.00
00884            7800.00
00885            7800.00
00886            8200.00
00887            8200.00
00888            8200.00
00889            8400.00
00890            8400.00
00891            8400.00
00892            8800.00
00893            8600.00
00894            8800.00
00895            9000.00
00896            9000.00
00897            9200.00
00898            9200.00
00899            9200.00
00900            9400.00
00901            9400.00
00902            9400.00
00903            9600.00
00904            9600.00
00905            9600.00
00906            9800.00
00907           10000.00
00908           10000.00
00909           10000.00
00910           10000.00
00911           10000.00
00912           10000.00
00913           10200.00
00914           10000.00
00915           10200.00
00916           10200.00
00917           10200.00
00918           10400.00
00919           10200.00
00920           10200.00
00921           10200.00
00922           10400.00
00923           10200.00
00924           10200.00
00925           10400.00
00926           10200.00
00927           10200.00
00928           10200.00
00929           10200.00
00930           10200.00
00931           10000.00
00932           10200.00
00933           10000.00
00934           10000.00
00935           10000.00
00936           10000.00
00937            9600.00
00938           10000.00
00939            9800.00
00940            9600.00
00941            9600.00
00942            9400.00
00943            9400.00
00944            9400.00
00945            9200.00
00946            9200.00
00947            9200.00
00948            9200.00
00949            9000.00
00950            8800.00
00951            8800.00
00952            8600.00
00953            8400.00
00954            8400.00
00955            8400.00
00956            8400.00
00957            8000.00
00958            8200.00
00959            7800.00
00960            7800.00
00961            7600.00
00962            7400.00
00963            7200.00
00964            7200.00
00965            7000.00
00966            7000.00
00967            6800.00
00968            6800.00
00969            6400.00
00970            6200.00
00971            6200.00
00972            6000.00
00973            6000.00
00974            5600.00
00975            5600.00
00976            5400.00
00977            5200.00
00978            5000.00
00979            4800.00
00980            4800.00
00981            4400.00
00982            4400.00
00983            4000.00
00984            3800.00
00985            3800.00
00986            3600.00
00987            3400.00
00988            3200.00
00989            3000.00
00990            2800.00
00991            2800.00
00992            2600.00
00993            2400.00
00994            2200.00
00995            2000.00
00996            1800.00
00997            1600.00
00998            1400.00
00999            1200.00
01000            1200.00
01001             800.00
01002             600.00
01003             400.00
01004             400.00
01005               0.00
01006               0.00
01007            -400.00
01008            -400.00
01009            -800.00
01010            -800.00
01011           -1000.00
01012           -1200.00
01013           -1200.00
01014           -1600.00
01015           -1800.00
01016           -2200.00
01017           -2400.00
01018           -2400.00
01019           -2200.00
01020           -2600.00
01021           -3000.00
01022           -3000.00
01023           -3200.00
01024           -3600.00
01025           -3600.00
01026           -3600.00
01027           -4000.00
01028           -4200.00
01029           -4200.00
01030           -4400.00
01031           -4600.00
01032           -4800.00
01033           -5000.00
01034           -5200.00
01035           -5200.00
01036           -5600.00
01037           -5600.00
01038           -5800.00
01039           -6200.00
01040           -6200.00
01041           -6400.00
01042           -6400.00
01043           -6600.00
01044           -6600.00
01045           -7000.00
01046           -6800.00
01047           -7200.00
01048           -7400.00
01049           -7600.00
01050           -7600.00
01051           -8000.00
01052           -7800.00
01053           -8000.00
01054           -8200.00
01055           -8200.00
01056           -8400.00
01057           -8400.00
01058           -8400.00
01059           -8800.00
01060           -8800.00
01061           -8800.00
01062           -8800.00
01063           -9200.00
01064           -9200.00
01065           -9200.00
01066           -9200.00
01067           -9200.00
01068           -9400.00
01069           -9600.00
01070           -9600.00
01071           -9600.00
01072           -9800.00
01073           -9800.00
01074           -9600.00
01075           -9800.00
01076           -9800.00
01077          -10000.00
01078          -10000.00
01079          -10000.00
01080          -10000.00
01081          -10000.00
01082          -10000.00
01083          -10000.00
01084          -10000.00
01085          -10000.00
01086          -10000.00
01087          -10000.00
01088          -10000.00
01089          -10000.00
01090          -10000.00
01091          -10000.00
01092          -10000.00
01093          -10000.00
01094          -10000.00
01095          -10000.00
01096          -10000.00
01097          -10000.00
01098          -10000.00
01099           -9800.00
01100           -9800.00
01101           -9600.00
01102           -9800.00
01103           -9600.00
01104           -9600.00
01105           -9600.00
01106           -9600.00
01107           -9600.00
01108           -9200.00
01109           -9400.00
01110           -9200.00
01111           -9200.00
01112           -9000.00
01113           -9000.00
01114           -8800.00
01115           -8800.00
01116           -8600.00
01117           -8600.00
01118           -8400.00
01119           -8400.00
01120           -8400.00
01121           -8200.00
01122           -8200.00
01123           -8000.00
01124           -7800.00
01125           -7600.00
01126           -7600.00
01127           -7400.00
01128           -7400.00
01129           -7200.00
01130           -7000.00
01131           -6800.00
01132           -6600.00
01133           -6600.00
01134           -6400.00
01135           -6400.00
01136           -6000.00
01137           -5800.00
01138           -5800.00
01139           -5800.00
01140           -5600.00
01141           -5400.00
01142           -5200.00
01143           -5000.00
01144           -4800.00
01145           -4600.00
01146           -4400.00
01147           -4400.00
01148           -4200.00
01149           -4000.00
01150           -3800.00
01151           -3600.00
01152           -3600.00
01153           -3200.00
01154           -3000.00
01155           -2800.00
01156           -2800.00
01157           -2600.00
01158           -2400.00
01159           -2200.00
01160           -2000.00
01161           -2000.00
01162           -1600.00
01163           -1400.00
01164           -1200.00
01165           -1000.00
01166            -800.00
01167            -800.00
01168            -400.00
01169            -200.00
01170            -200.00
01171               0.00
01172             200.00
01173             400.00
01174             600.00
01175             800.00
01176            1200.00
01177            1200.00
01178            1400.00
01179            1600.00
01180            1800.00
01181            2000.00
01182            2200.00
01183            2200.00
01184            2400.00
01185            2600.00
01186            3000.00
01187            3000.00
01188            3200.00
01189            3200.00
01190            3600.00
01191            3600.00
01192            3800.00
01193            4000.00
01194            4200.00
01195            4400.00
01196            4600.00
01197            4800.00
01198            5000.00
01199            5400.00
01200            5400.00
01201            5400.00
01202            5600.00
01203            5800.00
01204            6000.00
01205            6200.00
01206            6400.00
01207            6400.00
01208            6400.00
01209            6800.00
01210            6800.00
01211            7000.00
01212            7200.00
01213            7200.00
01214            7400.00
01215            7800.00
01216            7800.00
01217            7800.00
01218            8000.00
01219            8200.00
01220            8200.00
01221            8600.00
01222            8400.00
01223            8600.00
01224            8600.00
01225            8800.00
01226            8800.00
01227            9000.00
01228            9200.00
01229            9000.00
01230            9200.00
01231            9200.00
01232            9400.00
01233            9400.00
01234            9400.00
01235            9400.00
01236            9600.00
01237            9600.00
01238            9800.00
01239           10000.00
01240           10000.00
01241           10000.00
01242           10000.00
01243           10000.00
01244           10200.00
01245           10000.00
01246           10200.00
01247           10200.00
01248           10200.00
01249           10200.00
01250           10200.00
01251           10000.00
01252           10400.00
01253           10200.00
01254           10200.00
01255           10200.00
01256           10200.00
01257           10200.00
01258           10200.00
01259           10200.00
01260           10200.00
01261           10200.00
01262           10200.00
01263           10000.00
01264           10200.00
01265           10000.00
01266           10000.00
01267           10000.00
01268           10000.00
01269            9800.00
01270            9600.00
01271            9600.00
01272            9600.00
01273            9600.00
01274            9600.00
01275            9400.00
01276            9400.00
01277            9200.00
01278            9200.00
01279            9200.00
01280            9000.00
01281            9000.00
01282            8800.00
01283            8800.00
01284            8600.00
01285            8600.00
01286            8400.00
01287            8400.00
01288            8200.00
01289            8200.00
01290            8000.00
01291            7800.00
01292            7800.00
01293            7600.00
01294            7400.00
01295            7400.00
01296            7200.00
01297            7000.00
01298            7000.00
01299            6800.00
01300            6600.00
01301            6400.00
01302            6200.00
01303            6200.00
01304            6000.00
01305            5800.00
01306            5600.00
01307            5600.00
01308            5400.00
01309            5200.00
01310            5000.00
01311            4800.00
01312            4600.00
01313            4400.00
01314            4200.00
01315            4000.00
01316            3800.00
01317            3600.00
01318            3600.00
01319            3200.00
01320            3200.00
01321            3000.00
01322            2800.00
01323            2600.00
01324            2400.00
01325            2200.00
01326            2200.00
01327            2000.00
01328            1800.00
01329            1600.00
01330            1400.00
01331            1200.00
01332             800.00
01333             800.00
01334             600.00
01335             400.00
01336             200.00
01337               0.00
01338            -200.00
01339            -400.00
01340            -400.00
01341            -800.00
01342            -800.00
01343           -1000.00
01344           -1200.00
01345           -1400.00
01346           -1600.00
01347           -1800.00
01348           -2200.00
01349           -2600.00
01350           -2400.00
01351           -2400.00
01352           -2800.00
01353           -3200.00
01354           -3000.00
01355           -3200.00
01356           -3600.00
01357           -3600.00
01358           -3600.00
01359           -4000.00
01360           -4200.00
01361           -4400.00
01362           -4600.00
01363           -4800.00
01364           -4800.00
01365           -5000.00
01366           -5200.00
01367           -5400.00
01368           -5600.00
01369           -5600.00
01370           -6000.00
01371           -6000.00
01372           -6000.00
01373           -6400.00
01374           -6600.00
01375           -6800.00
01376           -6800.00
01377           -7000.00
01378           -7000.00
01379           -7200.00
01380           -7400.00
01381           -7400.00
01382           -7600.00
01383           -7800.00
01384           -7800.00
01385           -8000.00
01386           -8200.00
01387           -8200.00
01388           -8400.00
01389           -8400.00
01390           -8400.00
01391           -8800.00
01392           -8800.00
01393           -8800.00
01394           -9000.00
01395           -9200.00
01396           -9200.00
01397           -9200.00
01398           -9200.00
01399           -9400.00
01400           -9400.00
01401           -9600.00
01402           -9600.00
01403           -9600.00
01404           -9600.00
01405           -9800.00
01406           -9800.00
01407           -9800.00
01408           -9800.00
01409          -10000.00
01410          -10000.00
01411          -10000.00
01412          -10000.00
01413          -10000.00
01414          -10000.00
01415          -10200.00
01416          -10000.00
01417          -10000.00
01418          -10000.00
01419          -10000.00
01420          -10000.00
01421          -10000.00
01422          -10000.00
01423          -10000.00
01424          -10000.00
01425          -10000.00
01426          -10000.00
01427          -10000.00
01428          -10000.00
01429          -10000.00
01430           -9800.00
01431           -9800.00
01432           -9800.00
01433           -9600.00
01434           -9800.00
01435           -9600.00
01436           -9600.00
01437           -9600.00
01438           -9600.00
01439           -9600.00
01440           -9400.00
01441           -9400.00
01442           -9200.00
01443           -9200.00
01444           -9200.00
01445           -9000.00
01446           -8800.00
01447           -8800.00
01448           -8800.00
01449           -8600.00
01450           -8600.00
01451           -8400.00
01452           -8400.00
01453           -8200.00
01454           -8200.00
01455           -8000.00
01456           -7600.00
01457           -7600.00
01458           -7600.00
01459           -7400.00
01460           -7200.00
01461           -7200.00
01462           -7000.00
01463           -6800.00
01464           -6600.00
01465           -6600.00
01466           -6600.00
01467           -6400.00
01468           -6000.00
01469           -6000.00
01470           -5600.00
01471           -5800.00
01472           -5600.00
01473           -5200.00
01474           -5200.00
01475           -5200.00
01476           -4600.00
01477           -4800.00
01478           -4400.00
01479           -4200.00
01480           -4200.00
01481           -4000.00
01482           -4000.00
01483           -3600.00
01484           -3400.00
01485           -3200.00
01486           -3000.00
01487           -2800.00
01488           -2800.00
01489           -2600.00
01490           -2400.00
01491           -2000.00
01492           -1800.00
01493           -1800.00
01494           -1600.00
01495           -1400.00
01496           -1200.00
01497           -1000.00
01498            -800.00
01499            -800.00
01500            -400.00
01501            -200.00
01502               0.00
01503               0.00
01504             400.00
01505             400.00
01506             600.00
01507             800.00
01508            1000.00
01509            1200.00
01510            1400.00
01511            1800.00
01512            1800.00
01513            2000.00
01514            2400.00
01515            2400.00
01516            2400.00
01517            2800.00
01518            3000.00
01519            3000.00
01520            3000.00
01521            3400.00
01522            3600.00
01523            3600.00
01524            3800.00
01525            4200.00
01526            4400.00
01527            4400.00
01528            4600.00
01529            4800.00
01530            5000.00
01531            5200.00
01532            5400.00
01533            5400.00
01534            5800.00
01535            5800.00
01536            6000.00
01537            6200.00
01538            6200.00
01539            6400.00
01540            6600.00
01541            6800.00
01542            7000.00
01543            7000.00
01544            7200.00
01545            7400.00
01546            7400.00
01547            7800.00
01548            7800.00
01549            8200.00
01550            8000.00
01551            8200.00
01552            8200.00
01553            8400.00
01554            8400.00
01555            8600.00
01556            8600.00
01557            8800.00
01558            8800.00
01559            8800.00
01560            9200.00
01561            9200.00
01562            9400.00
01563            9400.00
01564            9400.00
01565            9400.00
01566            9400.00
01567            9600.00
01568            9600.00
01569            9800.00
01570            9800.00
01571           10000.00
01572           10000.00
01573           10000.00
01574           10000.00
01575           10000.00
01576           10200.00
01577           10200.00
01578           10200.00
01579           10200.00
01580           10200.00
01581           10200.00
01582           10200.00
01583           10200.00
01584           10400.00
01585           10200.00
01586           10400.00
01587           10000.00
01588           10400.00
01589           10200.00
01590           10400.00
01591           10200.00
01592           10200.00
01593           10200.00
01594           10200.00
01595           10200.00
01596           10000.00
01597           10000.00
01598           10000.00
01599           10000.00
01600            9800.00
01601            9800.00
01602            9600.00
01603            9600.00
01604            9800.00
01605            9600.00
01606            9600.00
01607            9400.00
01608            9400.00
01609            9200.00
01610            9200.00
01611            9200.00
01612            9000.00
01613            8800.00
01614            8800.00
01615            8800.00
01616            8600.00
01617            8600.00
01618            8400.00
01619            8400.00
01620            8200.00
01621            8000.00
01622            8000.00
01623            7800.00
01624            7600.00
01625            7600.00
01626            7400.00
01627            7200.00
01628            7000.00
01629            7000.00
01630            7000.00
01631            6800.00
01632            6600.00
01633            6400.00
01634            6400.00
01635            6200.00
01636            6000.00
01637            5800.00
01638            5600.00
01639            5400.00
01640            5400.00
01641            5200.00
01642            5000.00
01643            4800.00
01644            4600.00
01645            4400.00
01646            4400.00
01647            4000.00
01648            3800.00
01649            3600.00
01650            3600.00
01651            3400.00
01652            3200.00
01653            3000.00
01654            2800.00
01655            2800.00
01656            2400.00
01657            2200.00
01658            2200.00
01659            2000.00
01660            1800.00
01661            1400.00
01662            1400.00
01663            1000.00
01664             800.00
01665             800.00
01666             600.00
01667             400.00
01668             200.00
01669               0.00
01670            -200.00
01671            -400.00
01672            -400.00
01673            -800.00
01674            -800.00
01675           -1000.00
01676           -1200.00
01677           -1600.00
01678           -1400.00
01679           -2000.00
01680           -2400.00
01681           -2400.00
01682           -2400.00
01683           -2400.00
01684           -2800.00
01685           -3000.00
01686           -2800.00
01687           -3200.00
01688           -3600.00
01689           -3600.00
01690           -3800.00
01691           -4000.00
01692           -4000.00
01693           -4200.00
01694           -4800.00
01695           -4800.00
01696           -4800.00
01697           -5000.00
01698           -5200.00
01699           -5600.00
01700           -5600.00
01701           -5600.00
01702           -5800.00
01703           -6000.00
01704           -6000.00
01705           -6400.00
01706           -6400.00
01707           -6600.00
01708           -6800.00
01709           -7000.00
01710           -7200.00
01711           -7200.00
01712           -7400.00
01713           -7400.00
01714           -7800.00
01715           -7600.00
01716           -8000.00
01717           -8000.00
01718           -8200.00
01719           -8200.00
01720           -8400.00
01721           -8400.00
01722           -8600.00
01723           -8800.00
01724           -8800.00
01725           -8800.00
01726           -9000.00
01727           -9000.00
01728           -9000.00
01729           -9200.00
01730           -9200.00
01731           -9200.00
01732           -9600.00
01733           -9600.00
01734           -9600.00
01735           -9600.00
01736           -9600.00
01737           -9800.00
01738           -9800.00
01739           -9800.00
01740           -9800.00
01741           -9800.00
01742          -10000.00
01743          -10000.00
01744          -10000.00
01745          -10000.00
01746          -10000.00
01747          -10000.00
01748          -10000.00
01749          -10000.00
01750          -10000.00
01751          -10000.00
01752          -10000.00
01753          -10400.00
01754          -10000.00
01755          -10000.00
01756          -10000.00
01757          -10000.00
01758          -10000.00
01759          -10000.00
01760          -10000.00
01761          -10000.00
01762           -9800.00
01763           -9800.00
01764           -9800.00
01765           -9800.00
01766           -9800.00
01767           -9600.00
01768           -9600.00
01769           -9600.00
01770           -9400.00
01771           -9400.00
01772           -9200.00
01773           -9200.00
01774           -9200.00
01775           -9200.00
01776           -9000.00
01777           -9000.00
01778           -9000.00
01779           -8800.00
01780           -8800.00
01781           -8600.00
01782           -8400.00
01783           -8400.00
01784           -8400.00
01785           -8200.00
01786           -8200.00
01787           -8000.00
01788           -7800.00
01789           -7600.00
01790           -7600.00
01791           -7400.00
01792           -7200.00
01793           -7000.00
01794           -7000.00
01795           -6800.00
01796           -6600.00
01797           -6600.00
01798           -6600.00
01799           -6400.00
01800           -6200.00
01801           -5800.00
01802           -5800.00
01803           -5600.00
01804           -5400.00
01805           -5400.00
01806           -5200.00
01807           -5000.00
01808           -4800.00
01809           -4600.00
01810           -4400.00
01811           -4200.00
01812           -4200.00
01813           -4000.00
01814           -3600.00
01815           -3600.00
01816           -3400.00
01817           -3200.00
01818           -3000.00
01819           -2800.00
01820           -2800.00
01821           -2400.00
01822           -2400.00
01823           -2200.00
01824           -2000.00
01825           -1800.00
01826           -1600.00
01827           -1600.00
01828           -1200.00
01829           -1000.00
01830            -800.00
01831            -400.00
01832            -400.00
01833            -200.00
01834               0.00
01835             200.00
01836             200.00
01837             600.00
01838             800.00
01839             800.00
01840            1200.00
01841            1200.00
01842            1400.00
01843            1600.00
01844            1800.00
01845            2200.00
01846            2400.00
01847            2400.00
01848            2400.00
01849            2800.00
01850            3000.00
01851            3000.00
01852            3200.00
01853            3600.00
01854            3600.00
01855            3800.00
01856            4000.00
01857            4200.00
01858            4400.00
01859            4400.00
01860            4800.00
01861            4800.00
01862            5200.00
01863            5200.00
01864            5400.00
01865            5600.00
01866            5600.00
01867            6000.00
01868            6000.00
01869            6200.00
01870            6200.00
01871            6400.00
01872            6400.00
01873            6800.00
01874            7000.00
01875            7200.00
01876            7200.00
01877            7200.00
01878            7600.00
01879            7800.00
01880            7800.00
01881            7800.00
01882            8000.00
01883            8200.00
01884            8200.00
01885            8400.00
01886            8400.00
01887            8600.00
01888            8600.00
01889            8800.00
01890            9000.00
01891            8800.00
01892            9200.00
01893            9200.00
01894            9400.00
01895            9400.00
01896            9400.00
01897            9600.00
01898            9400.00
01899            9600.00
01900            9800.00
01901            9600.00
01902            9800.00
01903           10000.00
01904           10000.00
01905           10000.00
01906           10000.00
01907           10200.00
01908           10000.00
01909           10200.00
01910           10200.00
01911           10400.00
01912           10200.00
01913           10200.00
01914           10200.00
01915           10200.00
01916           10200.00
01917           10400.00
01918           10200.00
01919           10200.00
01920           10200.00
01921           10400.00
01922           10200.00
01923           10200.00
01924           10200.00
01925           10200.00
01926           10200.00
01927           10200.00
01928           10000.00
01929           10000.00
01930           10000.00
01931           10000.00
01932           10000.00
01933            9800.00
01934            9800.00
01935            9600.00
01936            9600.00
01937            9600.00
01938            9400.00
01939            9400.00
01940            9400.00
01941            9200.00
01942            9200.00
01943            9200.00
01944            8800.00
01945            8800.00
01946            8800.00
01947            8800.00
01948            8600.00
01949            8600.00
01950            8400.00
01951            8400.00
01952            8200.00
01953            8000.00
01954            8000.00
01955            7800.00
01956            7600.00
01957            7600.00
01958            7200.00
01959            7200.00
01960            7200.00
01961            7000.00
01962            6800.00
01963            6800.00
01964            6400.00
01965            6400.00
01966            6200.00
01967            6000.00
01968            6000.00
01969            5800.00
01970            5600.00
01971            5600.00
01972            5200.00
01973            5000.00
01974            4800.00
01975            4800.00
01976            4600.00
01977            4400.00
01978            4200.00
01979            4000.00
01980            3800.00
01981            3600.00
01982            3600.00
01983            3200.00
01984            3000.00
01985            3000.00
01986            2800.00
01987            2600.00
01988            2400.00
01989            2400.00
01990            2000.00
01991            2000.00
01992            1800.00
01993            1400.00
01994            1400.00
01995            1200.00
01996             800.00
01997             600.00
01998             400.00
01999             400.00
02000               0.00
02001               0.00
02002            -200.00
02003            -400.00
02004            -600.00
02005            -800.00
02006           -1000.00
02007           -1000.00
02008           -1400.00
02009           -1400.00
02010           -1800.00
02011           -2000.00
02012           -2400.00
02013           -2400.00
02014           -2400.00
02015           -2600.00
02016           -2800.00
02017           -3000.00
02018           -3000.00
02019           -3400.00
02020           -3600.00
02021           -3600.00
02022           -3800.00
02023           -4200.00
02024           -4200.00
02025           -4200.00
02026           -4800.00
02027           -4600.00
02028           -5000.00
02029           -5000.00
02030           -5200.00
02031           -5600.00
02032           -5600.00
02033           -5600.00
02034           -5800.00
02035           -6000.00
02036           -6400.00
02037           -6400.00
02038           -6600.00
02039           -6600.00
02040           -6800.00
02041           -7000.00
02042           -7000.00
02043           -7200.00
02044           -7400.00
02045           -7400.00
02046           -7800.00
02047           -7800.00
02048           -8000.00
02049           -8000.00
02050           -8200.00
02051           -8400.00
02052           -8400.00
02053           -8600.00
02054           -8400.00
02055           -8800.00
02056           -8800.00
02057           -9000.00
02058           -9000.00
02059           -9000.00
02060           -9200.00
02061           -9200.00
02062           -9400.00
02063           -9400.00
02064           -9600.00
02065           -9600.00
02066           -9600.00
02067           -9600.00
02068           -9600.00
02069           -9800.00
02070           -9800.00
02071           -9800.00
02072          -10000.00
02073           -9800.00
02074           -9800.00
02075          -10000.00
02076          -10000.00
02077          -10000.00
02078          -10000.00
02079          -10000.00
02080          -10200.00
02081          -10000.00
02082          -10000.00
02083          -10000.00
02084          -10000.00
02085          -10000.00
02086          -10000.00
02087          -10000.00
02088          -10000.00
02089          -10000.00
02090          -10000.00
02091          -10000.00
02092          -10000.00
02093           -9800.00
02094           -9800.00
02095           -9800.00
02096           -9800.00
02097           -9800.00
02098           -9800.00
02099           -9600.00
02100           -9600.00
02101           -9600.00
02102           -9600.00
02103           -9600.00
02104           -9200.00
02105           -9200.00
02106           -9200.00
02107           -9000.00
02108           -9000.00
02109           -9000.00
02110           -8800.00
02111           -8800.00
02112           -8800.00
02113           -8600.00
02114           -8400.00
02115           -8400.00
02116           -8200.00
02117           -8000.00
02118           -8000.00
02119           -8000.00
02120           -7800.00
02121           -7600.00
02122           -7400.00
02123           -7400.00
02124           -7200.00
02125           -7200.00
02126           -7000.00
02127           -6800.00
02128           -6600.00
02129           -6400.00
02130           -6400.00
02131           -6400.00
02132           -6000.00
02133           -5800.00
02134           -5800.00
02135           -5600.00
02136           -5600.00
02137           -5200.00
02138           -5200.00
02139           -5000.00
02140           -4800.00
02141           -4600.00
02142           -4400.00
02143           -4400.00
02144           -4000.00
02145           -4000.00
02146           -3600.00
02147           -3600.00
02148           -3600.00
02149           -3200.00
02150           -3000.00
02151           -2800.00
02152           -2600.00
02153           -2600.00
02154           -2400.00
02155           -2000.00
02156           -2000.00
02157           -1800.00
02158           -1600.00
02159           -1200.00
02160           -1200.00
02161           -1000.00
02162            -800.00
02163            -400.00
02164            -400.00
02165            -200.00
02166               0.00
02167             200.00
02168             400.00
02169             600.00
02170             600.00
02171             800.00
02172            1000.00
02173            1400.00
02174            1600.00
02175            1600.00
02176            2000.00
02177            2200.00
02178            2400.00
02179            2400.00
02180            2400.00
02181            2800.00
02182            3000.00
02183            3200.00
02184            3400.00
02185            3600.00
02186            3600.00
02187            3800.00
02188            4000.00
02189            4400.00
02190            4400.00
02191            4600.00
02192            4800.00
02193            5000.00
02194            5000.00
02195            5200.00
02196            5600.00
02197            5600.00
02198            5600.00
02199            6000.00
02200            6200.00
02201            6200.00
02202            6400.00
02203            6600.00
02204            6800.00
02205            7000.00
02206            7000.00
02207            7200.00
02208            7200.00
02209            7200.00
02210            7600.00
02211            7800.00
02212            7800.00
02213            8000.00
02214            8200.00
02215            8200.00
02216            8400.00
02217            8400.00
02218            8400.00
02219            8600.00
02220            8800.00
02221            9000.00
02222            8800.00
02223            9000.00
02224            9200.00
02225            9200.00
02226            9200.00
02227            9400.00
02228            9400.00
02229            9400.00
02230            9600.00
02231            9600.00
02232            9600.00
02233            9600.00
02234            9800.00
02235           10000.00
02236           10000.00
02237           10200.00
02238           10000.00
02239           10000.00
02240           10200.00
02241           10200.00
02242           10200.00
02243           10200.00
02244           10200.00
02245           10200.00
02246           10400.00
02247           10200.00
02248           10200.00
02249           10200.00
02250           10200.00
02251           10200.00
02252           10200.00
02253           10200.00
02254           10200.00
02255           10200.00
02256           10200.00
02257           10200.00
02258           10000.00
02259           10000.00
02260           10000.00
02261           10000.00
02262           10000.00
02263           10000.00
02264           10000.00
02265           10000.00
02266            9600.00
02267            9600.00
02268            9600.00
02269            9600.00
02270            9400.00
02271            9400.00
02272            9200.00
02273            9400.00
02274            9200.00
02275            9200.00
02276            9000.00
02277            8800.00
02278            8800.00
02279            8600.00
02280            8600.00
02281            8400.00
02282            8400.00
02283            8200.00
02284            8000.00
02285            8000.00
02286            7800.00
02287            7800.00
02288            7600.00
02289            7400.00
02290            7200.00
02291            7200.00
02292            7200.00
02293            7000.00
02294            6800.00
02295            6600.00
02296            6400.00
02297            6400.00
02298            6200.00
02299            6200.00
02300            6000.00
02301            5800.00
02302            5600.00
02303            5400.00
02304            5200.00
02305            5200.00
02306            4800.00
02307            4800.00
02308            4600.00
02309            4400.00
02310            4400.00
02311            4000.00
02312            4000.00
02313            3800.00
02314            3400.00
02315            3200.00
02316            3200.00
02317            2800.00
02318            2800.00
02319            2600.00
02320            2400.00
02321            2200.00
02322            2000.00
02323            1800.00
02324            1600.00
02325            1600.00
02326            1200.00
02327            1200.00
02328             800.00
02329             800.00
02330             400.00
02331             400.00
02332             200.00
02333            -200.00
02334            -400.00
02335            -400.00
02336            -600.00
02337            -800.00
02338           -1000.00
02339           -1000.00
02340           -1200.00
02341           -1400.00
02342           -1800.00
02343           -2000.00
02344           -2400.00
02345           -2400.00
02346           -2400.00
02347           -2600.00
02348           -3000.00
02349           -3200.00
02350           -3000.00
02351           -3400.00
02352           -3600.00
02353           -3600.00
02354           -4000.00
02355           -4200.00
02356           -4000.00
02357           -4400.00
02358           -4600.00
02359           -4800.00
02360           -5000.00
02361           -5000.00
02362           -5200.00
02363           -5600.00
02364           -5800.00
02365           -5600.00
02366           -6000.00
02367           -6200.00
02368           -6200.00
02369           -6600.00
02370           -6600.00
02371           -6600.00
02372           -7000.00
02373           -7000.00
02374           -7200.00
02375           -7200.00
02376           -7400.00
02377           -7600.00
02378           -7600.00
02379           -7800.00
02380           -8000.00
02381           -8200.00
02382           -8200.00
02383           -8400.00
02384           -8400.00
02385           -8400.00
02386           -8600.00
02387           -8800.00
02388           -8800.00
02389           -9000.00
02390           -9000.00
02391           -9000.00
02392           -9200.00
02393           -9200.00
02394           -9200.00
02395           -9400.00
02396           -9400.00
02397           -9600.00
02398           -9600.00
02399           -9800.00
02400           -9600.00
02401           -9800.00
02402           -9800.00
02403           -9800.00
02404          -10000.00
02405          -10000.00
02406           -9800.00
02407          -10000.00
02408          -10000.00
02409          -10000.00
02410          -10000.00
02411          -10000.00
02412          -10000.00
02413          -10000.00
02414          -10000.00
02415          -10200.00
02416          -10000.00
02417          -10000.00
02418          -10000.00
02419          -10000.00
02420          -10000.00
02421          -10000.00
02422          -10000.00
02423          -10000.00
02424          -10000.00
02425          -10000.00
02426           -9800.00
02427           -9800.00
02428           -9600.00
02429           -9800.00
02430           -9800.00
02431           -9800.00
02432           -9600.00
02433           -9400.00
02434           -9200.00
02435           -9400.00
02436           -9400.00
02437           -9200.00
02438           -9200.00
02439           -9000.00
02440           -9000.00
02441           -9000.00
02442           -8800.00
02443           -8800.00
02444           -8800.00
02445           -8800.00
02446           -8400.00
02447           -8200.00
02448           -8200.00
02449           -8200.00
02450           -8000.00
02451           -8000.00
02452           -7600.00
02453           -7600.00
02454           -7400.00
02455           -7400.00
02456           -7200.00
02457           -7200.00
02458           -6800.00
02459           -6800.00
02460           -6600.00
02461           -6600.00
02462           -6400.00
02463           -6000.00
02464           -6000.00
02465           -5800.00
02466           -5800.00
02467           -5600.00
02468           -5400.00
02469           -5200.00
02470           -5200.00
02471           -4800.00
02472           -4600.00
02473           -4600.00
02474           -4400.00
02475           -4200.00
02476           -4000.00
02477           -3800.00
02478           -3800.00
02479           -3600.00
02480           -3400.00
02481           -3200.00
02482           -3000.00
02483           -2800.00
02484           -2600.00
02485           -2400.00
02486           -2200.00
02487           -2000.00
02488           -1800.00
02489           -1800.00
02490           -1600.00
02491           -1400.00
02492           -1200.00
02493           -1000.00
02494            -800.00
02495            -600.00
02496            -200.00
02497            -200.00
02498               0.00
02499             200.00
02500             400.00
02501             600.00
02502             800.00
02503            1000.00
02504            1200.00
02505            1200.00
02506            1600.00
02507            1800.00
02508            2000.00
02509            2200.00
02510            2400.00
02511            2400.00
02512            2800.00
02513            2800.00
02514            3000.00
02515            3000.00
02516            3400.00
02517            3600.00
02518            3600.00
02519            3800.00
02520            4200.00
02521            4400.00
02522            4400.00
02523            4600.00
02524            4800.00
02525            5000.00
02526            5400.00
02527            5400.00
02528            5400.00
02529            5600.00
02530            5800.00
02531            6000.00
02532            6200.00
02533            6400.00
02534            6400.00
02535            6600.00
02536            6800.00
02537            6800.00
02538            7000.00
02539            7200.00
02540            7200.00
02541            7400.00
02542            7600.00
02543            7800.00
02544            8000.00
02545            8000.00
02546            8200.00
02547            8200.00
02548            8400.00
02549            8400.00
02550            8600.00
02551            8800.00
02552            8800.00
02553            8800.00
02554            8800.00
02555            9000.00
02556            9200.00
02557            9200.00
02558            9400.00
02559            9400.00
02560            9400.00
02561            9400.00
02562            9600.00
02563            9600.00
02564            9600.00
02565            9800.00
02566           10000.00
02567           10000.00
02568            9800.00
02569           10000.00
02570           10000.00
02571           10200.00
02572           10200.00
02573           10200.00
02574           10000.00
02575           10200.00
02576           10200.00
02577           10200.00
02578           10200.00
02579           10400.00
02580           10200.00
02581           10200.00
02582           10400.00
02583           10200.00
02584           10200.00
02585           10200.00
02586           10200.00
02587           10200.00
02588           10200.00
02589           10200.00
02590           10000.00
02591           10000.00
02592           10000.00
02593           10000.00
02594           10000.00
02595           10000.00
02596            9800.00
02597            9800.00
02598            9800.00
02599            9800.00
02600            9600.00
02601            9600.00
02602            9400.00
02603            9400.00
02604            9200.00
02605            9400.00
02606            9200.00
02607            9200.00
02608            9000.00
02609            8800.00
02610            8800.00
02611            8600.00
02612            8600.00
02613            8400.00
02614            8400.00
02615            8200.00
02616            8200.00
02617            8000.00
02618            8000.00
02619            7800.00
02620            7600.00
02621            7600.00
02622            7200.00
02623            7000.00
02624            7000.00
02625            7000.00
02626            6800.00
02627            6800.00
02628            6400.00
02629            6200.00
02630            6400.00
02631            6000.00
02632            6000.00
02633            5600.00
02634            5600.00
02635            5400.00
02636            5200.00
02637            5200.00
02638            4800.00
02639            4600.00
02640            4400.00
02641            4400.00
02642            4200.00
02643            4000.00
02644            3800.00
02645            3800.00
02646            3600.00
02647            3400.00
02648            3000.00
02649            3000.00
02650            2800.00
02651            2600.00
02652            2400.00
02653            2200.00
02654            2000.00
02655            1800.00
02656            1600.00
02657            1400.00
02658            1400.00
02659            1000.00
02660             800.00
02661             600.00
02662             600.00
02663             400.00
02664               0.00
02665            -200.00
02666            -400.00
02667            -400.00
02668            -800.00
02669           -1000.00
02670           -1000.00
02671           -1200.00
02672           -1400.00
02673           -1600.00
02674           -1800.00
02675           -2400.00
02676           -2400.00
02677           -2400.00
02678           -2200.00
02679           -2800.00
02680           -3000.00
02681           -3000.00
02682           -3200.00
02683           -3400.00
02684           -3600.00
02685           -3600.00
02686           -4000.00
02687           -4200.00
02688           -4200.00
02689           -4400.00
02690           -4800.00
02691           -4800.00
02692           -5000.00
02693           -5200.00
02694           -5000.00
02695           -5600.00
02696           -5600.00
02697           -5600.00
02698           -6000.00
02699           -6200.00
02700           -6200.00
02701           -6600.00
02702           -6600.00
02703           -6600.00
02704           -7000.00
02705           -7200.00
02706           -7200.00
02707           -7400.00
02708           -7200.00
02709           -7600.00
02710           -7800.00
02711           -7800.00
02712           -8000.00
02713           -8200.00
02714           -8200.00
02715           -8400.00
02716           -8400.00
02717           -8400.00
02718           -8600.00
02719           -8800.00
02720           -8800.00
02721           -8800.00
02722           -9000.00
02723           -9200.00
02724           -9200.00
02725           -9200.00
02726           -9400.00
02727           -9400.00
02728           -9600.00
02729           -9600.00
02730           -9600.00
02731           -9600.00
02732           -9800.00
02733           -9800.00
02734           -9800.00
02735           -9800.00
02736           -9800.00
02737          -10000.00
02738          -10000.00
02739           -9800.00
02740          -10000.00
02741          -10000.00
02742          -10000.00
02743          -10000.00
02744          -10400.00
02745          -10000.00
02746          -10000.00
02747          -10000.00
02748          -10000.00
02749          -10000.00
02750          -10000.00
02751          -10000.00
02752          -10000.00
02753          -10000.00
02754           -9800.00
02755          -10000.00
02756          -10000.00
02757           -9800.00
02758          -10000.00
02759           -9800.00
02760           -9600.00
02761           -9600.00
02762           -9600.00
02763           -9600.00
02764           -9600.00
02765           -9600.00
02766           -9400.00
02767           -9200.00
02768           -9200.00
02769           -9200.00
02770           -9000.00
02771           -9200.00
02772           -9000.00
02773           -9000.00
02774           -8800.00
02775           -8800.00
02776           -8800.00
02777           -8400.00
02778           -8400.00
02779           -8200.00
02780           -8200.00
02781           -8000.00
02782           -8000.00
02783           -7800.00
02784           -7800.00
02785           -7600.00
02786           -7400.00
02787           -7400.00
02788           -7200.00
02789           -7000.00
02790           -6800.00
02791           -6600.00
02792           -6600.00
02793           -6400.00
02794           -6400.00
02795           -6200.00
02796           -6000.00
02797           -6000.00
02798           -5800.00
02799           -5600.00
02800           -5400.00
02801           -5200.00
02802           -5000.00
02803           -5000.00
02804           -4600.00
02805           -4400.00
02806           -4200.00
02807           -4200.00
02808           -4000.00
02809           -4000.00
02810           -3600.00
02811           -3400.00
02812           -3200.00
02813           -3200.00
02814           -2800.00
02815           -2800.00
02816           -2600.00
02817           -2400.00
02818           -2200.00
02819           -2000.00
02820           -2000.00
02821           -1600.00
02822           -1600.00
02823           -1200.00
02824           -1200.00
02825           -1000.00
02826            -800.00
02827            -400.00
02828            -200.00
02829               0.00
02830               0.00
02831             400.00
02832             400.00
02833             600.00
02834             800.00
02835             800.00
02836            1200.00
02837            1400.00
02838            1400.00
02839            1800.00
02840            2000.00
02841            2200.00
02842            2400.00
02843            2400.00
02844            2600.00
02845            2800.00
02846            3000.00
02847            3000.00
02848            3400.00
02849            3600.00
02850            3600.00
02851            3800.00
02852            4000.00
02853            4400.00
02854            4400.00
02855            4600.00
02856            4800.00
02857            5000.00
02858            5000.00
02859            5400.00
02860            5400.00
02861            5800.00
02862            6000.00
02863            6000.00
02864            6200.00
02865            6200.00
02866            6400.00
02867            6600.00
02868            6800.00
02869            6800.00
02870            7000.00
02871            7200.00
02872            7400.00
02873            7400.00
02874            7600.00
02875            7800.00
02876            7800.00
02877            8000.00
02878            8200.00
02879            8200.00
02880            8400.00
02881            8400.00
02882            8400.00
02883            8600.00
02884            8800.00
02885            8800.00
02886            8800.00
02887            9000.00
02888            9000.00
02889            9200.00
02890            9400.00
02891            9400.00
02892            9400.00
02893            9600.00
02894            9600.00
02895            9600.00
02896            9600.00
02897            9600.00
02898           10000.00
02899           10000.00
02900           10000.00
02901           10000.00
02902           10000.00
02903           10000.00
02904           10000.00
02905           10200.00
02906           10000.00
02907           10000.00
02908           10200.00
02909           10200.00
02910           10200.00
02911           10200.00
02912           10200.00
02913           10400.00
02914           10200.00
02915           10200.00
02916           10200.00
02917           10400.00
02918           10200.00
02919           10200.00
02920           10200.00
02921           10000.00
02922           10200.00
02923           10000.00
02924           10000.00
02925           10000.00
02926           10000.00
02927           10000.00
02928           10000.00
02929           10000.00
02930            9600.00
02931            9600.00
02932            9600.00
02933            9600.00
02934            9400.00
02935            9400.00
02936            9200.00
02937            9200.00
02938            9200.00
02939            9200.00
02940            8800.00
02941            8800.00
02942            8800.00
02943            8600.00
02944            8600.00
02945            8400.00
02946            8400.00
02947            8000.00
02948            8200.00
02949            8000.00
02950            7800.00
02951            7800.00
02952            7600.00
02953            7400.00
02954            7200.00
02955            7200.00
02956            7000.00
02957            7000.00
02958            6800.00
02959            6600.00
02960            6400.00
02961            6200.00
02962            6200.00
02963            6000.00
02964            6000.00
02965            5600.00
02966            5600.00
02967            5400.00
02968            5200.00
02969            5000.00
02970            4800.00
02971            4600.00
02972            4400.00
02973            4400.00
02974            4000.00
02975            4000.00
02976            3800.00
02977            3600.00
02978            3600.00
02979            3200.00
02980            3000.00
02981            3000.00
02982            2800.00
02983            2400.00
02984            2400.00
02985            2200.00
02986            2000.00
02987            1800.00
02988            1600.00
02989            1400.00
02990            1200.00
02991            1000.00
02992             800.00
02993             600.00
02994             400.00
02995             200.00
02996               0.00
02997            -200.00
02998            -200.00
02999            -400.00
03000            -600.00
03001            -800.00
03002           -1000.00
03003           -1000.00
03004           -1200.00
03005           -1600.00
03006           -1800.00
03007           -2400.00
03008           -2400.00
03009           -2400.00
03010           -2400.00
03011           -2800.00
03012           -3200.00
03013           -3000.00
03014           -3200.00
03015           -3600.00
03016           -3600.00
03017           -3600.00
03018           -4200.00
03019           -4200.00
03020           -4200.00
03021           -4600.00
03022           -4800.00
03023           -4800.00
03024           -5000.00
03025           -5200.00
03026           -5400.00
03027           -5600.00
03028           -5800.00
03029           -5800.00
03030           -6200.00
03031           -6200.00
03032           -6400.00
03033           -6600.00
03034           -6600.00
03035           -6800.00
03036           -7200.00
03037           -7000.00
03038           -7200.00
03039           -7400.00
03040           -7400.00
03041           -7400.00
03042           -7600.00
03043           -7800.00
03044           -8000.00
03045           -8000.00
03046           -8200.00
03047           -8400.00
03048           -8600.00
03049           -8400.00
03050           -8800.00
03051           -8800.00
03052           -8800.00
03053           -8800.00
03054           -9000.00
03055           -9000.00
03056           -9200.00
03057           -9200.00
03058           -9200.00
03059           -9400.00
03060           -9600.00
03061           -9600.00
03062           -9600.00
03063           -9800.00
03064           -9800.00
03065           -9800.00
03066          -10000.00
03067           -9800.00
03068           -9800.00
03069          -10000.00
03070          -10000.00
03071          -10000.00
03072          -10000.00
03073          -10000.00
03074          -10000.00
03075          -10000.00
03076          -10000.00
03077          -10000.00
03078          -10200.00
03079          -10000.00
03080          -10000.00
03081          -10200.00
03082          -10000.00
03083          -10000.00
03084          -10000.00
03085          -10000.00
03086          -10000.00
03087          -10000.00
03088           -9800.00
03089          -10000.00
03090           -9800.00
03091           -9800.00
03092           -9800.00
03093           -9600.00
03094           -9600.00
03095           -9600.00
03096           -9600.00
03097           -9600.00
03098           -9400.00
03099           -9400.00
03100           -9200.00
03101           -9200.00
03102           -9200.00
03103           -9000.00
03104           -9000.00
03105           -9000.00
03106           -8800.00
03107           -8800.00
03108           -8600.00
03109           -8600.00
03110           -8400.00
03111           -8200.00
03112           -8200.00
03113           -8000.00
03114           -8000.00
03115           -7800.00
03116           -8000.00
03117           -7400.00
03118           -7400.00
03119           -7200.00
03120           -7200.00
03121           -7000.00
03122           -6800.00
03123           -6800.00
03124           -6600.00
03125           -6400.00
03126           -6400.00
03127           -6400.00
03128           -6000.00
03129           -5800.00
03130           -5800.00
03131           -5600.00
03132           -5600.00
03133           -5200.00
03134           -5000.00
03135           -5000.00
03136           -4600.00
03137           -4400.00
03138           -4200.00
03139           -4000.00
03140           -4000.00
03141           -3600.00
03142           -3600.00
03143           -3600.00
03144           -3200.00
03145           -3200.00
03146           -2800.00
03147           -2800.00
03148           -2600.00
03149           -2400.00
03150           -2000.00
03151           -2000.00
03152           -1800.00
03153           -1600.00
03154           -1400.00
03155           -1200.00
03156           -1000.00
03157            -800.00
03158            -800.00
03159            -400.00
03160            -200.00
03161               0.00
03162               0.00
03163             200.00
03164             400.00
03165             600.00
03166             800.00
03167             800.00
03168            1200.00
03169            1400.00
03170            1400.00
03171            1800.00
03172            2000.00
03173            2200.00
03174            2400.00
03175            2400.00
03176            2400.00
03177            2800.00
03178            3000.00
03179            3200.00
03180            3400.00
03181            3600.00
03182            3600.00
03183            4000.00
03184            4200.00
03185            4200.00
03186            4400.00
03187            4600.00
03188            4800.00
03189            5200.00
03190            5200.00
03191            5400.00
03192            5600.00
03193            5600.00
03194            6000.00
03195            6200.00
03196            6200.00
03197            6400.00
03198            6600.00
03199            6800.00
03200            6800.00
03201            6800.00
03202            7200.00
03203            7200.00
03204            7600.00
03205            7400.00
03206            7600.00
03207            7800.00
03208            8200.00
03209            8000.00
03210            8200.00
03211            8400.00
03212            8400.00
03213            8600.00
03214            8600.00
03215            8800.00
03216            8800.00
03217            8800.00
03218            8800.00
03219            9000.00
03220            9200.00
03221            9200.00
03222            9200.00
03223            9400.00
03224            9400.00
03225            9600.00
03226            9600.00
03227            9600.00
03228            9800.00
03229            9800.00
03230            9800.00
03231           10000.00
03232           10000.00
03233           10000.00
03234           10000.00
03235           10000.00
03236           10000.00
03237           10200.00
03238           10000.00
03239           10200.00
03240           10200.00
03241           10200.00
03242           10200.00
03243           10200.00
03244           10200.00
03245           10200.00
03246           10200.00
03247           10400.00
03248           10200.00
03249           10200.00
03250           10200.00
03251           10000.00
03252           10200.00
03253           10200.00
03254           10000.00
03255           10000.00
03256           10000.00
03257           10000.00
03258            9800.00
03259           10000.00
03260           10000.00
03261            9800.00
03262            9600.00
03263            9600.00
03264            9600.00
03265            9400.00
03266            9600.00
03267            9400.00
03268            9200.00
03269            9200.00
03270            9200.00
03271            9200.00
03272            8800.00
03273            8800.00
03274            8800.00
03275            8600.00
03276            8600.00
03277            8400.00
03278            8400.00
03279            8400.00
03280            8000.00
03281            8000.00
03282            7800.00
03283            7800.00
03284            7600.00
03285            7600.00
03286            7200.00
03287            7200.00
03288            7000.00
03289            7000.00
03290            6800.00
03291            6600.00
03292            6400.00
03293            6400.00
03294            6200.00
03295            6000.00
03296            6000.00
03297            5600.00
03298            5400.00
03299            5400.00
03300            5200.00
03301            5200.00
03302            4800.00
03303            4600.00
03304            4400.00
03305            4200.00
03306            4000.00
03307            4000.00
03308            3800.00
03309            3600.00
03310            3400.00
03311            3200.00
03312            3000.00
03313            2800.00
03314            2800.00
03315            2400.00
03316            2400.00
03317            2200.00
03318            1800.00
03319            1800.00
03320            1600.00
03321            1400.00
03322            1200.00
03323            1000.00
03324             800.00
03325             600.00
03326             400.00
03327             200.00
03328               0.00
03329            -200.00
03330            -400.00
03331            -600.00
03332            -600.00
03333            -800.00
03334           -1000.00
03335           -1200.00
03336           -1400.00
03337           -1600.00
03338           -2000.00
03339           -2400.00
03340           -2400.00
03341           -2200.00
03342           -2400.00
03343           -2800.00
03344           -3200.00
03345           -2800.00
03346           -3200.00
03347           -3600.00
03348           -3600.00
03349           -3800.00
03350           -4200.00
03351           -4200.00
03352           -4200.00
03353           -4400.00
03354           -4800.00
03355           -4800.00
03356           -5000.00
03357           -5200.00
03358           -5400.00
03359           -5600.00
03360           -5600.00
03361           -5800.00
03362           -6000.00
03363           -6400.00
03364           -6400.00
03365           -6600.00
03366           -6600.00
03367           -6800.00
03368           -6800.00
03369           -6800.00
03370           -7200.00
03371           -7400.00
03372           -7400.00
03373           -7600.00
03374           -7800.00
03375           -8000.00
03376           -8000.00
03377           -8200.00
03378           -8200.00
03379           -8400.00
03380           -8400.00
03381           -8400.00
03382           -8600.00
03383           -8800.00
03384           -8800.00
03385           -9000.00
03386           -9000.00
03387           -9000.00
03388           -9000.00
03389           -9200.00
03390           -9200.00
03391           -9400.00
03392           -9400.00
03393           -9600.00
03394           -9600.00
03395           -9800.00
03396           -9800.00
03397           -9800.00
03398           -9800.00
03399           -9800.00
03400           -9800.00
03401           -9800.00
03402           -9800.00
03403          -10000.00
03404          -10000.00
03405          -10000.00
03406          -10000.00
03407          -10000.00
03408          -10400.00
03409          -10000.00
03410          -10000.00
03411          -10000.00
03412          -10000.00
03413          -10000.00
03414          -10000.00
03415          -10000.00
03416          -10000.00
03417          -10000.00
03418          -10000.00
03419           -9800.00
03420          -10000.00
03421           -9800.00
03422           -9800.00
03423           -9800.00
03424           -9800.00
03425           -9800.00
03426           -9800.00
03427           -9600.00
03428           -9400.00
03429           -9600.00
03430           -9600.00
03431           -9400.00
03432           -9200.00
03433           -9200.00
03434           -9200.00
03435           -9000.00
03436           -9000.00
03437           -8800.00
03438           -8800.00
03439           -8600.00
03440           -8400.00
03441           -8600.00
03442           -8400.00
03443           -8200.00
03444           -8200.00
03445           -8000.00
03446           -7800.00
03447           -7600.00
03448           -7600.00
03449           -7400.00
03450           -7400.00
03451           -7200.00
03452           -7200.00
03453           -6800.00
03454           -6800.00
03455           -6600.00
03456           -6600.00
03457           -6400.00
03458           -6200.00
03459           -6200.00
03460           -6000.00
03461           -5800.00
03462           -5800.00
03463           -5600.00
03464           -5200.00
03465           -5200.00
03466           -5000.00
03467           -4800.00
03468           -4600.00
03469           -4400.00
03470           -4200.00
03471           -4200.00
03472           -4000.00
03473           -3800.00
03474           -3600.00
03475           -3400.00
03476           -3400.00
03477           -3000.00
03478           -2800.00
03479           -2800.00
03480           -2600.00
03481           -2400.00
03482           -2000.00
03483           -1800.00
03484           -1800.00
03485           -1600.00
03486           -1400.00
03487           -1200.00
03488           -1000.00
03489            -800.00
03490            -600.00
03491            -400.00
03492            -200.00
03493               0.00
03494               0.00
03495             400.00
03496             600.00
03497             800.00
03498             800.00
03499            1200.00
03500            1200.00
03501            1400.00
03502            1600.00
03503            1800.00
03504            2000.00
03505            2200.00
03506            2400.00
03507            2400.00
03508            2800.00
03509            3000.00
03510            3000.00
03511            3200.00
03512            3600.00
03513            3600.00
03514            3600.00
03515            4000.00
03516            4200.00
03517            4200.00
03518            4400.00
03519            4600.00
03520            4800.00
03521            5200.00
03522            5200.00
03523            5400.00
03524            5600.00
03525            5800.00
03526            5800.00
03527            6000.00
03528            6200.00
03529            6400.00
03530            6600.00
03531            6600.00
03532            7000.00
03533            6800.00
03534            7000.00
03535            7200.00
03536            7400.00
03537            7200.00
03538            7600.00
03539            8000.00
03540            8000.00
03541            8000.00
03542            8200.00
03543            8200.00
03544            8400.00
03545            8600.00
03546            8600.00
03547            8800.00
03548            8800.00
03549            8800.00
03550            9000.00
03551            9200.00
03552            9000.00
03553            9200.00
03554            9400.00
03555            9400.00
03556            9400.00
03557            9600.00
03558            9600.00
03559            9600.00
03560            9600.00
03561            9800.00
03562           10000.00
03563           10000.00
03564           10000.00
03565           10000.00
03566           10000.00
03567           10000.00
03568           10200.00
03569           10000.00
03570           10000.00
03571           10400.00
03572           10200.00
03573           10200.00
03574           10200.00
03575           10400.00
03576           10200.00
03577           10400.00
03578           10200.00
03579           10200.00
03580           10200.00
03581           10200.00
03582           10200.00
03583           10200.00
03584           10000.00
03585           10200.00
03586           10000.00
03587           10000.00
03588           10000.00
03589           10000.00
03590           10000.00
03591            9800.00
03592           10000.00
03593            9800.00
03594            9600.00
03595            9600.00
03596            9600.00
03597            9400.00
03598            9400.00
03599            9400.00
03600            9400.00
03601            9200.00
03602            9200.00
03603            9000.00
03604            9000.00
03605            8800.00
03606            8800.00
03607            8600.00
03608            8400.00
03609            8400.00
03610            8200.00
03611            8200.00
03612            8000.00
03613            8000.00
03614            7800.00
03615            7600.00
03616            7600.00
03617            7600.00
03618            7200.00
03619            7200.00
03620            7000.00
03621            7000.00
03622            6800.00
03623            6600.00
03624            6400.00
03625            6200.00
03626            6000.00
03627            6000.00
03628            5800.00
03629            5600.00
03630            5600.00
03631            5200.00
03632            5200.00
03633            4800.00
03634            4800.00
03635            4600.00
03636            4400.00
03637            4400.00
03638            4000.00
03639            4000.00
03640            3800.00
03641            3600.00
03642            3400.00
03643            3200.00
03644            3000.00
03645            2800.00
03646            2600.00
03647            2400.00
03648            2200.00
03649            2000.00
03650            2000.00
03651            1800.00
03652            1400.00
03653            1400.00
03654            1200.00
03655            1000.00
03656             600.00
03657             400.00
03658             400.00
03659             200.00
03660               0.00
03661            -200.00
03662            -400.00
03663            -600.00
03664            -800.00
03665           -1000.00
03666           -1000.00
03667           -1000.00
03668           -1400.00
03669           -1600.00
03670           -2000.00
03671           -2400.00
03672           -2400.00
03673           -2200.00
03674           -2400.00
03675           -3000.00
03676           -2800.00
03677           -3000.00
03678           -3200.00
03679           -3600.00
03680           -3600.00
03681           -3800.00
03682           -4200.00
03683           -4200.00
03684           -4200.00
03685           -4600.00
03686           -4800.00
03687           -4800.00
03688           -5000.00
03689           -5200.00
03690           -5400.00
03691           -5600.00
03692           -5600.00
03693           -6000.00
03694           -6000.00
03695           -6200.00
03696           -6400.00
03697           -6600.00
03698           -6600.00
03699           -6800.00
03700           -7200.00
03701           -7200.00
03702           -7200.00
03703           -7400.00
03704           -7200.00
03705           -7800.00
03706           -8000.00
03707           -8000.00
03708           -8000.00
03709           -8000.00
03710           -8200.00
03711           -8400.00
03712           -8400.00
03713           -8800.00
03714           -8800.00
03715           -8600.00
03716           -8800.00
03717           -8800.00
03718           -9000.00
03719           -9200.00
03720           -9200.00
03721           -9200.00
03722           -9400.00
03723           -9200.00
03724           -9400.00
03725           -9600.00
03726           -9600.00
03727           -9800.00
03728           -9600.00
03729           -9800.00
03730           -9800.00
03731          -10000.00
03732          -10000.00
03733          -10000.00
03734          -10000.00
03735          -10000.00
03736          -10000.00
03737          -10000.00
03738          -10000.00
03739          -10000.00
03740          -10000.00
03741          -10000.00
03742          -10000.00
03743          -10200.00
03744          -10000.00
03745          -10000.00
03746          -10000.00
03747          -10000.00
03748          -10000.00
03749          -10000.00
03750          -10000.00
03751          -10000.00
03752           -9800.00
03753          -10000.00
03754           -9800.00
03755           -9800.00
03756           -9800.00
03757           -9800.00
03758           -9600.00
03759           -9600.00
03760           -9600.00
03761           -9600.00
03762           -9400.00
03763           -9400.00
03764           -9200.00
03765           -9200.00
03766           -9000.00
03767           -9000.00
03768           -8800.00
03769           -8800.00
03770           -8800.00
03771           -8800.00
03772           -8600.00
03773           -8400.00
03774           -8400.00
03775           -8200.00
03776           -8200.00
03777           -8000.00
03778           -8000.00
03779           -7600.00
03780           -7800.00
03781           -7400.00
03782           -7200.00
03783           -7200.00
03784           -7200.00
03785           -7000.00
03786           -6800.00
03787           -6600.00
03788           -6600.00
03789           -6400.00
03790           -6400.00
03791           -6000.00
03792           -6000.00
03793           -6000.00
03794           -5600.00
03795           -5600.00
03796           -5200.00
03797           -5200.00
03798           -5000.00
03799           -4800.00
03800           -4600.00
03801           -4400.00
03802           -4200.00
03803           -4200.00
03804           -4000.00
03805           -3600.00
03806           -3600.00
03807           -3400.00
03808           -3200.00
03809           -3200.00
03810           -2800.00
03811           -2800.00
03812           -2400.00
03813           -2200.00
03814           -2000.00
03815           -2000.00
03816           -1600.00
03817           -1600.00
03818           -1200.00
03819           -1200.00
03820           -1000.00
03821            -600.00
03822            -600.00
03823            -400.00
03824            -200.00
03825               0.00
03826             200.00
03827             400.00
03828             600.00
03829             600.00
03830             800.00
03831            1200.00
03832            1200.00
03833            1400.00
03834            1600.00
03835            1800.00
03836            2200.00
03837            2400.00
03838            2400.00
03839            2600.00
03840            2800.00
03841            3000.00
03842            3000.00
03843            3400.00
03844            3600.00
03845            3600.00
03846            3600.00
03847            4000.00
03848            4200.00
03849            4400.00
03850            4600.00
03851            4600.00
03852            4800.00
03853            5200.00
03854            5200.00
03855            5400.00
03856            5600.00
03857            5600.00
03858            6000.00
03859            6200.00
03860            6400.00
03861            6400.00
03862            6400.00
03863            6800.00
03864            6800.00
03865            7000.00
03866            7000.00
03867            7200.00
03868            7200.00
03869            7600.00
03870            7800.00
03871            7800.00
03872            7800.00
03873            8000.00
03874            8400.00
03875            8200.00
03876            8400.00
03877            8400.00
03878            8600.00
03879            8800.00
03880            8800.00
03881            8800.00
03882            9000.00
03883            9000.00
03884            9200.00
03885            9200.00
03886            9400.00
03887            9400.00
03888            9600.00
03889            9600.00
03890            9600.00
03891            9600.00
03892            9800.00
03893            9800.00
03894           10000.00
03895           10000.00
03896           10000.00
03897           10000.00
03898           10000.00
03899           10200.00
03900           10200.00
03901           10000.00
03902           10200.00
03903           10200.00
03904           10200.00
03905           10200.00
03906           10400.00
03907           10200.00
03908           10200.00
03909           10200.00
03910           10200.00
03911           10200.00
03912           10400.00
03913           10000.00
03914           10200.00
03915           10200.00
03916           10000.00
03917           10200.00
03918           10000.00
03919           10000.00
03920           10000.00
03921           10000.00
03922            9800.00
03923           10000.00
03924            9800.00
03925            9600.00
03926            9800.00
03927            9600.00
03928            9600.00
03929            9400.00
03930            9400.00
03931            9400.00
03932            9200.00
03933            9200.00
03934            9000.00
03935            9000.00
03936            8800.00
03937            8800.00
03938            8600.00
03939            8600.00
03940            8400.00
03941            8400.00
03942            8200.00
03943            8200.00
03944            8000.00
03945            8000.00
03946            7800.00
03947            7600.00
03948            7600.00
03949            7200.00
03950            7200.00
03951            7200.00
03952            7000.00
03953            6800.00
03954            6600.00
03955            6400.00
03956            6400.00
03957            6200.00
03958            6000.00
03959            6000.00
03960            6000.00
03961            5600.00
03962            5600.00
03963            5200.00
03964            5200.00
03965            4800.00
03966            4800.00
03967            4600.00
03968            4400.00
03969            4400.00
03970            4000.00
03971            3800.00
03972            3800.00
03973            3600.00
03974            3400.00
03975            3200.00
03976            3000.00
03977            2800.00
03978            2600.00
03979            2400.00
03980            2200.00
03981            2200.00
03982            1800.00
03983            1600.00
03984            1600.00
03985            1400.00
03986            1200.00
03987             800.00
03988             800.00
03989             600.00
03990             400.00
03991               0.00
03992               0.00
03993            -200.00
03994            -400.00
03995            -400.00
03996            -800.00
03997           -1000.00
03998           -1000.00
03999           -1400.00
04000           -1400.00
04001           -1800.00
04002           -2000.00
04003           -2400.00
04004           -2400.00
04005           -2200.00
04006           -2400.00
04007           -3000.00
04008           -3200.00
04009           -3000.00
04010           -3400.00
04011           -3600.00
04012           -3600.00
04013           -4000.00
04014           -4200.00
04015           -4000.00
04016           -4400.00
04017           -4600.00
04018           -4600.00
04019           -5000.00
04020           -5200.00
04021           -5000.00
04022           -5600.00
04023           -5800.00
04024           -5600.00
04025           -6000.00
04026           -6000.00
04027           -6000.00
04028           -6400.00
04029           -6600.00
04030           -6600.00
04031           -6800.00
04032           -7200.00
04033           -7000.00
04034           -7400.00
04035           -7400.00
04036           -7600.00
04037           -7600.00
04038           -7800.00
04039           -8000.00
04040           -8200.00
04041           -8200.00
04042           -8400.00
04043           -8400.00
04044           -8400.00
04045           -8400.00
04046           -8800.00
04047           -8800.00
04048           -9000.00
04049           -8800.00
04050           -9200.00
04051           -9200.00
04052           -9200.00
04053           -9200.00
04054           -9200.00
04055           -9400.00
04056           -9400.00
04057           -9600.00
04058           -9600.00
04059           -9600.00
04060           -9600.00
04061           -9800.00
04062           -9800.00
04063           -9800.00
04064          -10000.00
04065          -10000.00
04066          -10000.00
04067           -9800.00
04068          -10000.00
04069          -10000.00
04070          -10000.00
04071          -10000.00
04072          -10000.00
04073          -10000.00
04074          -10000.00
04075          -10000.00
04076           -9800.00
04077          -10000.00
04078          -10000.00
04079          -10000.00
04080          -10000.00
04081          -10000.00
04082           -9800.00
04083           -9800.00
04084           -9800.00
04085           -9800.00
04086           -9800.00
04087           -9600.00
04088           -9800.00
04089           -9600.00
04090           -9600.00
04091           -9600.00
04092           -9600.00
04093           -9400.00
04094           -9200.00
04095           -9200.00
04096           -9200.00
04097           -9200.00
04098           -9000.00
04099           -9000.00
04100           -8800.00
04101           -8800.00
04102           -8800.00
04103           -8600.00
04104           -8600.00
04105           -8400.00
04106           -8200.00
04107           -8400.00
04108           -8000.00
04109           -8000.00
04110           -7800.00
04111           -7600.00
04112           -7600.00
04113           -7400.00
04114           -7200.00
04115           -7200.00
04116           -7000.00
04117           -6800.00
04118           -6800.00
04119           -6600.00
04120           -6600.00
04121           -6400.00
04122           -6200.00
04123           -6200.00
04124           -5800.00
04125           -5800.00
04126           -5600.00
04127           -5400.00
04128           -5200.00
04129           -5000.00
04130           -5000.00
04131           -4600.00
04132           -4400.00
04133           -4400.00
04134           -4200.00
04135           -4000.00
04136           -4000.00
04137           -3600.00
04138           -3600.00
04139           -3400.00
04140           -3200.00
04141           -2800.00
04142           -2800.00
04143           -2600.00
04144           -2600.00
04145           -2200.00
04146           -2200.00
04147           -1800.00
04148           -1600.00
04149           -1600.00
04150           -1200.00
04151           -1000.00
04152            -800.00
04153            -800.00
04154            -400.00
04155            -400.00
04156            -200.00
04157               0.00
04158             200.00
04159             400.00
04160             400.00
04161             600.00
04162             800.00
04163            1000.00
04164            1200.00
04165            1600.00
04166            1600.00
04167            2000.00
04168            2200.00
04169            2400.00
04170            2400.00
04171            2600.00
04172            2800.00
04173            3000.00
04174            3000.00
04175            3200.00
04176            3600.00
04177            3600.00
04178            3800.00
04179            4000.00
04180            4200.00
04181            4400.00
04182            4600.00
04183            4800.00
04184            4800.00
04185            5000.00
04186            5200.00
04187            5400.00
04188            5600.00
04189            5800.00
04190            6000.00
04191            6000.00
04192            6200.00
04193            6400.00
04194            6400.00
04195            6600.00
04196            6800.00
04197            7000.00
04198            7200.00
04199            7200.00
04200            7600.00
04201            7400.00
04202            7800.00
04203            8000.00
04204            8000.00
04205            8000.00
04206            8200.00
04207            8400.00
04208            8600.00
04209            8600.00
04210            8600.00
04211            8800.00
04212            8800.00
04213            8800.00
04214            9000.00
04215            9000.00
04216            9200.00
04217            9200.00
04218            9200.00
04219            9400.00
04220            9400.00
04221            9600.00
04222            9600.00
04223            9600.00
04224            9600.00
04225            9800.00
04226            9800.00
04227           10000.00
04228           10000.00
04229           10000.00
04230           10000.00
04231           10200.00
04232           10200.00
04233           10200.00
04234           10200.00
04235           10200.00
04236           10200.00
04237           10000.00
04238           10200.00
04239           10200.00
04240           10400.00
04241           10400.00
04242           10400.00
04243           10200.00
04244           10200.00
04245           10200.00
04246           10200.00
04247           10200.00
04248           10200.00
04249           10200.00
04250           10000.00
04251           10000.00
04252           10000.00
04253           10000.00
04254           10000.00
04255            9800.00
04256            9800.00
04257            9600.00
04258            9600.00
04259            9600.00
04260            9400.00
04261            9400.00
04262            9400.00
04263            9400.00
04264            9200.00
04265            9200.00
04266            9000.00
04267            9000.00
04268            8800.00
04269            8800.00
04270            8600.00
04271            8400.00
04272            8600.00
04273            8400.00
04274            8200.00
04275            8000.00
04276            8200.00
04277            8000.00
04278            7800.00
04279            7600.00
04280            7400.00
04281            7200.00
04282            7200.00
04283            7000.00
04284            7000.00
04285            6800.00
04286            6800.00
04287            6400.00
04288            6400.00
04289            6200.00
04290            6000.00
04291            6000.00
04292            5800.00
04293            5600.00
04294            5400.00
04295            5200.00
04296            5200.00
04297            4800.00
04298            4800.00
04299            4600.00
04300            4400.00
04301            4400.00
04302            4000.00
04303            3800.00
04304            3600.00
04305            3600.00
04306            3200.00
04307            3000.00
04308            2800.00
04309            2800.00
04310            2400.00
04311            2400.00
04312            2200.00
04313            2000.00
04314            1800.00
04315            1600.00
04316            1600.00
04317            1200.00
04318            1000.00
04319             800.00
04320             600.00
04321             400.00
04322             200.00
04323             200.00
04324               0.00
04325            -200.00
04326            -400.00
04327            -600.00
04328            -800.00
04329           -1000.00
04330           -1200.00
04331           -1200.00
04332           -1600.00
04333           -1800.00
04334           -2000.00
04335           -2400.00
04336           -2400.00
04337           -2200.00
04338           -2600.00
04339           -2800.00
04340           -3000.00
04341           -3000.00
04342           -3600.00
04343           -3600.00
04344           -3600.00
04345           -4000.00
04346           -4200.00
04347           -4200.00
04348           -4400.00
04349           -4800.00
04350           -4800.00
04351           -5000.00
04352           -5200.00
04353           -5200.00
04354           -5600.00
04355           -5600.00
04356           -5800.00
04357           -6000.00
04358           -6200.00
04359           -6200.00
04360           -6400.00
04361           -6600.00
04362           -6800.00
04363           -7000.00
04364           -6800.00
04365           -7200.00
04366           -7400.00
04367           -7400.00
04368           -7600.00
04369           -7800.00
04370           -7600.00
04371           -8000.00
04372           -8200.00
04373           -8200.00
04374           -8400.00
04375           -8400.00
04376           -8400.00
04377           -8600.00
04378           -8800.00
04379           -8800.00
04380           -9000.00
04381           -9000.00
04382           -9000.00
04383           -9200.00
04384           -9200.00
04385           -9200.00
04386           -9400.00
04387           -9400.00
04388           -9600.00
04389           -9600.00
04390           -9600.00
04391           -9600.00
04392           -9800.00
04393           -9800.00
04394           -9800.00
04395          -10000.00
04396          -10000.00
04397          -10000.00
04398           -9800.00
04399          -10000.00
04400          -10000.00
04401          -10200.00
04402          -10200.00
04403          -10000.00
04404          -10200.00
04405          -10000.00
04406          -10200.00
04407          -10000.00
04408          -10000.00
04409          -10000.00
04410          -10000.00
04411          -10000.00
04412          -10000.00
04413          -10000.00
04414          -10000.00
04415          -10000.00
04416           -9800.00
04417           -9800.00
04418           -9800.00
04419           -9800.00
04420           -9600.00
04421           -9600.00
04422           -9600.00
04423           -9600.00
04424           -9600.00
04425           -9200.00
04426           -9400.00
04427           -9200.00
04428           -9200.00
04429           -9200.00
04430           -9000.00
04431           -9000.00
04432           -8800.00
04433           -9000.00
04434           -8800.00
04435           -8600.00
04436           -8800.00
04437           -8400.00
04438           -8400.00
04439           -8200.00
04440           -8000.00
04441           -8000.00
04442           -8000.00
04443           -7800.00
04444           -7600.00
04445           -7400.00
04446           -7400.00
04447           -7200.00
04448           -7000.00
04449           -6800.00
04450           -6800.00
04451           -6600.00
04452           -6600.00
04453           -6400.00
04454           -6200.00
04455           -6000.00
04456           -5800.00
04457           -5800.00
04458           -5600.00
04459           -5400.00
04460           -5200.00
04461           -5000.00
04462           -4800.00
04463           -4800.00
04464           -4400.00
04465           -4400.00
04466           -4200.00
04467           -4000.00
04468           -4000.00
04469           -3600.00
04470           -3600.00
04471           -3400.00
04472           -3200.00
04473           -3000.00
04474           -2800.00
04475           -2600.00
04476           -2400.00
04477           -2400.00
04478           -2000.00
04479           -1800.00
04480           -1800.00
04481           -1600.00
04482           -1200.00
04483           -1000.00
04484           -1000.00
04485            -800.00
04486            -600.00
04487            -400.00
04488            -200.00
04489               0.00
04490             200.00
04491             600.00
04492             600.00
04493             600.00
04494             800.00
04495            1200.00
04496            1400.00
04497            1400.00
04498            1600.00
04499            2000.00
04500            2200.00
04501            2200.00
04502            2400.00
04503            2600.00
04504            3000.00
04505            3000.00
04506            3000.00
04507            3400.00
04508            3600.00
04509            3600.00
04510            3800.00
04511            4000.00
04512            4000.00
04513            4400.00
04514            4600.00
04515            4800.00
04516            4800.00
04517            5200.00
04518            5400.00
04519            5400.00
04520            5800.00
04521            6000.00
04522            6000.00
04523            6200.00
04524            6200.00
04525            6400.00
04526            6600.00
04527            6800.00
04528            6800.00
04529            7000.00
04530            7000.00
04531            7600.00
04532            7200.00
04533            7600.00
04534            7800.00
04535            7800.00
04536            8000.00
04537            8000.00
04538            8200.00
04539            8400.00
04540            8400.00
04541            8600.00
04542            8800.00
04543            8800.00
04544            8800.00
04545            9000.00
04546            9000.00
04547            9200.00
04548            9200.00
04549            9400.00
04550            9400.00
04551            9400.00
04552            9600.00
04553            9600.00
04554            9600.00
04555            9800.00
04556           10000.00
04557            9800.00
04558           10000.00
04559           10000.00
04560           10000.00
04561           10200.00
04562           10000.00
04563           10200.00
04564           10000.00
04565           10200.00
04566           10200.00
04567           10200.00
04568           10200.00
04569           10200.00
04570           10000.00
04571           10200.00
04572           10200.00
04573           10200.00
04574           10200.00
04575           10200.00
04576           10200.00
04577           10200.00
04578           10000.00
04579           10000.00
04580           10000.00
04581           10000.00
04582           10000.00
04583           10000.00
04584           10000.00
04585           10000.00
04586            9800.00
04587            9800.00
04588            9800.00
04589            9600.00
04590            9800.00
04591            9600.00
04592            9600.00
04593            9400.00
04594            9400.00
04595            9200.00
04596            9200.00
04597            9200.00
04598            9000.00
04599            9200.00
04600            8800.00
04601            8800.00
04602            8600.00
04603            8600.00
04604            8400.00
04605            8400.00
04606            8200.00
04607            8000.00
04608            8000.00
04609            7800.00
04610            7800.00
04611            7600.00
04612            7400.00
04613            7200.00
04614            7200.00
04615            7000.00
04616            7000.00
04617            6800.00
04618            6600.00
04619            6400.00
04620            6400.00
04621            6200.00
04622            6000.00
04623            6000.00
04624            5800.00
04625            5600.00
04626            5400.00
04627            5200.00
04628            4800.00
04629            5000.00
04630            4600.00
04631            4400.00
04632            4400.00
04633            4000.00
04634            4000.00
04635            3800.00
04636            3600.00
04637            3400.00
04638            3200.00
04639            3200.00
04640            3000.00
04641            2600.00
04642            2400.00
04643            2400.00
04644            2200.00
04645            2000.00
04646            1800.00
04647            1600.00
04648            1600.00
04649            1200.00
04650            1200.00
04651             800.00
04652             600.00
04653             400.00
04654             400.00
04655               0.00
04656            -200.00
04657            -400.00
04658            -400.00
04659            -600.00
04660            -800.00
04661           -1000.00
04662           -1000.00
04663           -1600.00
04664           -1600.00
04665           -1800.00
04666           -2000.00
04667           -2400.00
04668           -2400.00
04669           -2400.00
04670           -2800.00
04671           -3200.00
04672           -3000.00
04673           -3200.00
04674           -3600.00
04675           -3800.00
04676           -3600.00
04677           -4000.00
04678           -4200.00
04679           -4200.00
04680           -4400.00
04681           -4600.00
04682           -4800.00
04683           -5000.00
04684           -5200.00
04685           -5200.00
04686           -5600.00
04687           -5800.00
04688           -5800.00
04689           -6000.00
04690           -6000.00
04691           -6200.00
04692           -6600.00
04693           -6600.00
04694           -6600.00
04695           -6800.00
04696           -7000.00
04697           -7200.00
04698           -7400.00
04699           -7400.00
04700           -7600.00
04701           -7800.00
04702           -7800.00
04703           -8000.00
04704           -8200.00
04705           -8200.00
04706           -8400.00
04707           -8400.00
04708           -8400.00
04709           -8800.00
04710           -8800.00
04711           -8800.00
04712           -9000.00
04713           -8800.00
04714           -9000.00
04715           -9200.00
04716           -9200.00
04717           -9200.00
04718           -9200.00
04719           -9400.00
04720           -9600.00
04721           -9600.00
04722           -9600.00
04723           -9600.00
04724           -9800.00
04725           -9800.00
04726           -9800.00
04727           -9800.00
04728          -10000.00
04729           -9800.00
04730          -10000.00
04731          -10000.00
04732          -10000.00
04733          -10000.00
04734          -10000.00
04735          -10000.00
04736          -10000.00
04737          -10000.00
04738          -10000.00
04739          -10000.00
04740          -10000.00
04741          -10000.00
04742          -10000.00
04743          -10000.00
04744          -10000.00
04745          -10000.00
04746          -10000.00
04747          -10000.00
04748           -9800.00
04749           -9800.00
04750          -10000.00
04751           -9800.00
04752           -9800.00
04753           -9600.00
04754           -9600.00
04755           -9600.00
04756           -9600.00
04757           -9600.00
04758           -9600.00
04759           -9200.00
04760           -9200.00
04761           -9200.00
04762           -9000.00
04763           -9000.00
04764           -8800.00
04765           -9000.00
04766           -8800.00
04767           -8400.00
04768           -8400.00
04769           -8400.00
04770           -8400.00
04771           -8200.00
04772           -8200.00
04773           -8000.00
04774           -7600.00
04775           -7800.00
04776           -7600.00
04777           -7400.00
04778           -7400.00
04779           -7200.00
04780           -7000.00
04781           -6800.00
04782           -6800.00
04783           -6600.00
04784           -6400.00
04785           -6400.00
04786           -6200.00
04787           -6000.00
04788           -6000.00
04789           -5800.00
04790           -5600.00
04791           -5400.00
04792           -5200.00
04793           -5000.00
04794           -4800.00
04795           -4600.00
04796           -4600.00
04797           -4400.00
04798           -4200.00
04799           -4000.00
04800           -3800.00
04801           -3600.00
04802           -3600.00
04803           -3400.00
04804           -3200.00
04805           -3000.00
04806           -2800.00
04807           -2600.00
04808           -2400.00
04809           -2200.00
04810           -2000.00
04811           -1800.00
04812           -1800.00
04813           -1600.00
04814           -1200.00
04815           -1000.00
04816           -1000.00
04817            -800.00
04818            -400.00
04819            -200.00
04820               0.00
04821               0.00
04822             400.00
04823             600.00
04824             800.00
04825             800.00
04826            1000.00
04827            1200.00
04828            1400.00
04829            1600.00
04830            1800.00
04831            2000.00
04832            2200.00
04833            2400.00
04834            2400.00
04835            2600.00
04836            2800.00
04837            3000.00
04838            3000.00
04839            3400.00
04840            3600.00
04841            3600.00
04842            4000.00
04843            4000.00
04844            4200.00
04845            4400.00
04846            4600.00
04847            4800.00
04848            5200.00
04849            5200.00
04850            5400.00
04851            5400.00
04852            5600.00
04853            6000.00
04854            6000.00
04855            6000.00
04856            6400.00
04857            6400.00
04858            6400.00
04859            6800.00
04860            7000.00
04861            7000.00
04862            7200.00
04863            7200.00
04864            7400.00
04865            7600.00
04866            7800.00
04867            7800.00
04868            8200.00
04869            8000.00
04870            8200.00
04871            8400.00
04872            8400.00
04873            8600.00
04874            8800.00
04875            8600.00
04876            8800.00
04877            9000.00
04878            9000.00
04879            9200.00
04880            9200.00
04881            9400.00
04882            9400.00
04883            9400.00
04884            9600.00
04885            9400.00
04886            9600.00
04887            9600.00
04888            9800.00
04889           10000.00
04890           10000.00
04891           10000.00
04892           10000.00
04893           10000.00
04894           10000.00
04895           10200.00
04896           10200.00
04897           10200.00
04898           10200.00
04899           10200.00
04900           10200.00
04901           10200.00
04902           10200.00
04903           10400.00
04904           10200.00
04905           10400.00
04906           10200.00
04907           10200.00
04908           10200.00
04909           10200.00
04910           10000.00
04911           10200.00
04912           10200.00
04913           10000.00
04914           10200.00
04915           10000.00
04916           10000.00
04917           10000.00
04918           10000.00
04919            9800.00
04920            9800.00
04921            9600.00
04922            9600.00
04923            9600.00
04924            9400.00
04925            9400.00
04926            9200.00
04927            9400.00
04928            9200.00
04929            9200.00
04930            9200.00
04931            8800.00
04932            8800.00
04933            8600.00
04934            8600.00
04935            8600.00
04936            8400.00
04937            8400.00
04938            8200.00
04939            8000.00
04940            8000.00
04941            7800.00
04942            7600.00
04943            7600.00
04944            7400.00
04945            7200.00
04946            7200.00
04947            7000.00
04948            7000.00
04949            6800.00
04950            6600.00
04951            6400.00
04952            6200.00
04953            6200.00
04954            6000.00
04955            6000.00
04956            5600.00
04957            5400.00
04958            5400.00
04959            5000.00
04960            5000.00
04961            4800.00
04962            4600.00
04963            4400.00
04964            4400.00
04965            4000.00
04966            3800.00
04967            3600.00
04968            3600.00
04969            3600.00
04970            3200.00
04971            3000.00
04972            2800.00
04973            2800.00
04974            2400.00
04975            2400.00
04976            2000.00
04977            2000.00
04978            1800.00
04979            1600.00
04980            1200.00
04981            1200.00
04982             800.00
04983             800.00
04984             600.00
04985             400.00
04986             400.00
04987               0.00
04988            -200.00
04989            -400.00
04990            -400.00
04991            -800.00
04992            -800.00
04993           -1000.00
04994           -1200.00
04995           -1400.00
04996           -1600.00
04997           -1800.00
04998           -2400.00
04999           -2400.00
05000           -2400.00
